AF3,F7,F3,FC5,T7,P7,O1,O2,P8,T8,FC6,F4,F8,AF4
-9.90429947625566,0.2669774831680271,-6.963772087765006,-6.387428998760683,-3.578805118167004,-0.3121455980424899,9.797236191618374,7.363220351833711,4.374192284122493,-1.480921862924326,2.852934692196456,-4.646619650591113,7.566027702547544,-3.254567446823842
-6.599662627700923,-1.0775931424962693,-3.270751512442194,-4.886166871677375,-3.379402404392799,-0.918465468147516,8.676401069276324,7.756748522903052,5.503893409931607,3.928898481419715,7.105042828251285,-3.424169550855119,12.686037717278415,-0.8129330184776331
0.0072138008073423,-2.668359944109412,3.297051068019,-3.102932989761925,-3.767189600571079,-1.443352207039431,7.222772187957673,7.183532596638344,6.915295948748735,6.894421762025303,9.100154717879718,-0.2170156233237037,13.35351912093784,3.1889218604094136
5.990580334280253,-3.37038186025773,5.273034945638925,-1.3944107708090456,-4.174013213528596,-1.4025761629377886,5.902214409866552,5.829224034172356,7.896258404487703,6.350272741637326,9.533931650529055,3.2328471641528864,11.049386224587394,5.23321253143007
6.181227485752885,-4.37106547633261,2.5020404967389767,-0.7129477174487846,-4.079441640454917,-0.6501984698728862,4.775764306679605,4.184836222555447,7.621102185551095,3.1218145117003786,9.322640093153469,5.129527706097562,8.561972857283777,3.498640845203683
-1.483656382590098,-6.758294673891072,-1.2825273013649503,-1.4540723276647327,-3.7955812146590233,-0.1883112911751336,3.64959737000747,2.7283154209739,5.693881724584415,-0.6237912726098784,8.982529204689115,4.80169016546877,8.01655684106899,1.2926318661404808
-13.326275592620568,-9.266017404168778,-7.853182859891208,-2.72354536746073,-4.245911762113252,0.8462736806466458,2.4687160847270064,1.7647547494269131,2.540920695654151,-2.7214507085340074,8.77906548735129,2.8501587416090644,9.941079875532807,-2.0125645277034763
-21.96723056844208,-9.227085001788112,-9.800453602632478,-3.0951996447890338,-5.795776027468605,1.8338600598518384,1.4716170676993985,1.3897799447263282,-0.7469222636936337,-2.424448623163258,8.983187336432422,0.4085972635586614,13.398510748753395,-5.063585539406428
-21.890468696299223,-6.1315352510400345,-6.331633192223534,-2.305272001683249,-7.305538841959304,1.760851371611638,0.9102072857984496,1.4761141056806082,-3.0532989197242277,-0.7906998491462787,9.648616032445858,-1.6241442382511906,16.531490012099276,-4.041433089694552
-13.887222342689904,-3.8108880337197055,-4.090172136602141,-2.0611820729770614,-6.6572177296257,1.5402260277564417,0.683641203989481,1.694523298277247,-3.8562568668213686,0.4560431915099485,10.19211131572753,-2.7746599572454045,17.249099865924293,-1.2473900274741234
-4.417830468634051,-7.992146246293068,-1.3092183866771598,-4.7574444870956825,-2.7125076642654733,0.0891009344810312,0.3918611090142718,1.6608729969217535,-3.359406795674431,0.690770863960779,9.559921153566194,-2.785843315508444,14.238549748627603,2.6751429035390544
-0.3946896398785071,-20.578850653791186,-0.1276982611675763,-10.99000506554286,2.960617649401513,-1.940262562000764,-0.174727052154239,1.195185557184061,-2.118184184755407,1.0709348430128642,7.179903749263033,-1.5848103859261613,8.083108410369555,6.323529322371725
-3.9267082941042872,-36.0332348978527,-1.586668076564666,-18.235032137006947,6.531089417111005,-2.364936283974062,-0.6892141493428312,0.494119020991377,-0.5686761910892528,3.3101042246446184,3.841214031201787,0.3933876414420041,1.498093158761037,6.056565040411963
-11.346781342124174,-44.186163651787794,-0.9897599767852812,-22.21769587408505,4.754340290490063,-1.540642769746048,-0.6190290455867853,-0.0031650321242437,1.1263989709535591,7.649403497046904,1.4166577811418932,2.016747110071492,-2.106618326004224,1.3805345458706015
-16.75977819284997,-38.00689378735368,1.0334843548389652,-19.998645874461918,-1.9184380431871944,0.5367760855051505,-0.0051401699522983,-0.0326224616051007,2.860898005420438,12.12519638123092,1.3955148945586302,1.9777757317066005,-1.0427760691585846,-4.6011905508351525
-16.508218392617366,-19.704084933101853,2.511079394321872,-12.120082121098918,-8.86721843922576,2.8074112568668954,0.1931405151387082,0.1218198106307966,4.296912948801989,14.047907937919618,3.50198619382725,-0.1284667215206809,3.2686791694449298,-8.038445111964966
-10.887124461103348,0.6403644851317125,4.151545569497517,-2.0118733614603954,-10.419689992629271,2.8374493559489125,-1.2164848139498543,-0.32441540001399,4.839454722949071,12.317567843134285,5.76666503153379,-3.1361607224372605,7.374520386912103,-7.121271811775122
-2.6331441914083342,13.100523784231434,5.754311948411768,6.59863192234323,-4.343240935343459,0.658794826731645,-4.4214716489380095,-2.120215875271505,3.94785045913617,8.243644921278438,6.077846608194932,-4.917785757867016,8.525863869580604,-2.215761473166761
5.448833713753629,15.530025945518696,7.120260826862733,11.87097150519589,6.00983086522475,-1.806063301920474,-8.038113897808344,-5.310233960142149,1.5665989131423643,4.050767706916972,3.805354400047236,-4.017993407028804,6.59146789713261,2.003220658707182
11.536716300115556,13.957828774478877,8.66961464164563,14.000249354530723,13.899235253691678,-2.855344776197072,-9.96706978524918,-8.958302586939311,-1.6474902830753209,0.7099132191398141,0.063487284940308,-0.9550663181837892,3.436554256790018,2.8231025625294865
14.602583692533855,15.69102286486364,10.308348759189652,13.88083497172058,14.13614608445856,-1.4471246547320933,-9.070613330909945,-11.539692955355475,-4.51306122139853,-2.544408222413317,-3.439307817216552,2.065671074599379,0.623557361714191,0.831390032169804
14.43598382604133,21.90036679554436,10.043929930619653,12.07269898912478,6.862853672710301,1.4975788923470938,-6.170120649519205,-11.798723304830716,-5.8912270995335945,-6.533524330798173,-5.69316471302497,2.921082555024391,-2.028716275995912,-2.8506587677428614
12.34419245846761,26.770678915583996,7.726450296370863,9.044296300507966,-2.723028560216044,3.158525057777699,-3.377778066272498,-9.517322953777423,-5.338789403601886,-10.296218930013469,-6.6247180361193685,1.3482926875267012,-5.518674708106438,-4.074487669089821
11.259690308432711,23.81431381394541,6.378842001824858,5.957918785400366,-8.250864332971105,2.1337250976233784,-2.29788204602211,-5.673930018754632,-3.4381850485659555,-11.41419721509302,-6.35719201246372,-0.7978259518820252,-9.529840077939348,-1.7734576703767635
14.020145786482804,13.020977041612705,5.663062705935189,4.6241614357875065,-6.49530916232419,-0.534955186607352,-2.719105697791065,-1.8733252213957956,-1.53670919907794,-8.498581524040965,-4.61147003973587,-1.0346724646665209,-11.703756658464007,2.6028837337747817
20.67218709859193,1.8057620507184995,7.23898369766242,6.274833531250081,0.960962362771408,-2.733392688351012,-2.9991196223456,0.5763746794682483,-1.000649570039755,-3.299021937660377,-1.0958943947525803,1.726650817844689,-9.532717139881235,9.06649192184027
27.40488463237013,-1.2614969910159315,11.926409713603608,10.255490175131904,9.393866655002372,-2.858576641015561,-1.7674682250123863,1.3241128262297617,-2.436885566455288,0.0589800568063942,3.502921398528276,6.204659976918947,-3.227334213483651,15.841690158757364
28.8059904231447,5.891913246460653,12.26056062775042,14.034596550544734,14.175967745484956,-0.6134090628727965,0.6832953804495148,0.962409029806036,-5.362376573556936,-1.55334207344632,7.168908987036055,9.51763172244943,3.437721134400878,16.517479039744654
22.079131399773296,16.88353735760583,8.391071923359746,14.793294098298128,13.26152428010094,1.7208591841748986,2.6631137444771085,0.4363902463969182,-8.475857368628587,-7.269555275627919,7.624433876552427,9.136358637289687,5.619180192123299,9.18849737622147
9.672874734137224,22.36739983871341,1.839848372803833,11.431359784150672,7.773536309668401,2.292361188967794,2.755437324668245,0.3759056546858872,-10.295935508547991,-12.479118550682337,4.193867997506102,4.691232494464867,1.3718418868057969,-1.9394161319927128
-2.1529386966336297,17.98943638359057,-9.209033297265538,5.41927944715261,0.9853109816709722,2.109165313932321,1.2461152238524154,0.8251928152261652,-9.793931664147314,-12.296767666206794,-1.178001869450057,-1.593594473573468,-6.407918331648366,-17.795038776261322
-7.778850131504627,7.803200687217213,-11.839630525747626,-0.1691586295200409,-3.445244979201041,0.3572380681371951,-0.1499533212548041,1.4440373620343276,-6.790493234465365,-5.311832716549677,-4.951908784229728,-6.229775244717662,-11.964879520362222,-25.55094585470639
-5.988397791500514,0.4019380313549883,-5.324031224423753,-2.6967570480107046,-3.2799221792377047,-1.970577710706118,-0.0616795270293693,1.8769279207884344,-2.054168798067141,5.481921975612214,-4.558839209638409,-6.7779121333588686,-11.074070814186012,-17.575951043149036
-0.0445354021791364,1.461779526465801,1.3825591230937146,-1.5534836860999155,1.0751010034585669,-2.4100897713441447,1.005511051696443,1.9710474303660068,2.927251646072328,15.084687553447178,-0.4603116342715858,-3.5394166713598936,-4.18686325639495,-7.569823134477173
5.563432599821493,9.242693608549295,11.315950362265792,1.7999207126550925,6.649003979752822,-4.483818557037801,0.9728724009701926,1.783051446635093,6.521789726643359,19.93312251001528,4.18373008275632,0.7280080919187999,4.213127996892906,5.986153693209536
8.548166149617224,16.609763518159852,13.865734700346271,5.177344756034367,9.668709025926471,-5.489015728897734,-1.844060735389072,1.505152582557692,7.710581230177548,19.605395176320958,6.152056890462254,2.9840290927241853,9.285184246125532,13.878325979427403
9.551941999690603,17.309455318577825,7.190630027601618,7.192518460177681,8.224750748213784,-2.48871592996729,-6.941881833809251,1.3797319609365912,6.6033670723491165,15.939345847918894,4.859922980362661,2.262932651778028,9.292558620595427,6.69885183106382
10.138471215733148,10.841339708423982,4.1961429530544745,7.77651751023415,3.91584746292639,-1.2675571593454955,-11.734783637653642,1.560767660122007,4.294675779753194,10.99674962875616,2.641238432302491,0.2172210881740373,6.098253073275441,1.5095816578418058
10.534614440185774,2.0593151209938068,2.3214425785494197,7.547377124419668,0.8405934705303792,2.5647297977037624,-13.476470636895186,1.954146248497624,2.095784639688969,5.872006067522683,2.2937762747708224,-0.6109014950401228,2.777679930510841,-1.524121027907839
9.470072313279186,-3.42273254401581,2.216222306600017,6.946817468890043,2.3339871310673037,6.688377783564297,-11.225311047353866,2.236493003534692,0.7295902252962598,1.0236821763273871,4.197713689924127,0.8240242981169885,0.871466909953968,-2.0716223115387145
6.047736972569094,-3.533381173583267,6.025163670907529,6.079580265080182,8.010650813925572,5.251354946642341,-6.173227681225747,2.1796472804671367,0.1395854924066029,-2.8248704956649693,5.8286649412605485,3.2376376071837782,-0.3042434591108165,5.122752895654363
1.4301762073444326,-0.259739419199688,6.456418445370551,5.2028554689445095,13.775019511551443,5.658882316935366,-0.3445995071983478,2.0303090373405706,-0.0214076395404241,-4.542729000258337,4.21520230331558,4.423407783359746,-2.130040486796624,8.832362032318096
-1.638084914004576,3.180545695071608,4.04720195325727,4.959695281658517,15.024810046623411,5.022288609428017,4.8557408366872,2.451678774832553,0.1547339901079887,-3.512474197303476,-1.025393982184703,3.4189534743581085,-4.845384089146103,8.65555670126087
-1.194945411508492,5.2044559684243445,1.7028018213822669,5.761247019403115,10.3820890573367,2.0547039527710718,8.952075775472554,3.868675287078428,0.7730988932830662,-0.6943893552614817,-7.087957981418485,1.299886091050066,-7.285486370779987,6.182853934545111
1.9377456093526604,6.180938329981522,-1.91976943280167,6.88523036791986,2.710506426168564,0.9505751147149843,11.711189386183923,5.754890476497632,1.535233200624475,1.3412778991201293,-10.496856113200048,-0.0643814810377385,-8.270614983115461,0.6057234082201901
4.50818818441331,6.657820038942404,-6.005040710738668,6.486718536730564,-3.4207632246506776,-2.082131059362828,12.629611102789273,6.675703051651336,1.3834152876352377,-0.2618253915133728,-10.372276692285483,0.0689611632997611,-8.074640071531213,-1.801794366363876
3.3476609069439256,5.953710741084262,-10.394695248028274,2.9232919815783447,-5.498994789651217,-6.54215107060274,11.324206804381152,5.286179120725347,-0.946351497223052,-6.762971040985025,-9.313270810905632,0.6348110135745451,-8.448247172415428,-3.848543136904232
-2.140526335494304,2.6967357939192134,-13.08667974564669,-3.675687614769366,-4.767536010550433,-7.845534402013235,8.318118238522928,1.4997442810347934,-5.749357990089507,-16.656066597092206,-11.009135377190894,-0.1155197802685421,-11.155097010726037,-5.206248132905263
-9.623587556463049,-3.4869923974947703,-13.61747252754007,-11.158647281178354,-4.601421310959765,-5.791575957545663,5.159503933832692,-3.245346272423671,-11.63017881928047,-26.05932407627088,-16.736779995933496,-2.881122518125437,-16.34391959020863,-5.194240183093415
-15.739990129035531,-11.094288277024653,-13.116213673597038,-16.7977618450183,-7.263204658045524,-2.2988515338938704,3.537978037919096,-6.8866154163673805,-16.025869733028863,-30.5557636543364,-23.86095628513865,-6.598612876689227,-22.10950025803221,-10.35626049889639
-18.415390448590657,-17.5423021976138,-10.865435650595357,-19.11405284220418,-11.9213704767864,2.8886614129690185,4.176698378809661,-7.971340203779771,-16.643586816961125,-27.51016212051167,-27.568862213167183,-9.24496179488296,-25.486638862422545,-15.100073910452029
-17.615867694864875,-20.69075462115584,-7.218963581518929,-18.38799660307744,-15.410957076093924,5.554042202270453,6.516224579047748,-6.179847936206691,-12.6783120026196,-17.557102714915967,-24.26697596987315,-9.251882495556554,-24.03263082711363,-13.79538691355734
-14.272922800749193,-19.669318947316505,-2.099689414769683,-15.574099207125998,-14.820700519716477,3.172772579803176,9.354394196441849,-1.973151601436012,-5.013376576334828,-4.348440712830605,-13.908207121272795,-6.325676790217404,-16.97860966332985,-8.089767378663234
-8.925131540636176,-14.74313885583821,4.8298751689306885,-11.043590429669363,-9.738194248801143,0.8307190860558563,11.674140843308315,3.8672095787166825,4.376494072783167,7.375955580253951,0.2191876448646432,-1.306833367615745,-5.539084836844381,4.191343225032208
-1.7274404962882102,-7.079114829910608,13.582117932536516,-4.696326689383191,-2.578406674828756,-0.8426357023119485,12.887233067891763,10.146022230448551,13.088361353834433,14.27269517759565,13.54070904631714,4.38986033787652,7.436140664344585,19.39292310633009
6.221655546119692,1.0417757477701135,15.939996311255031,2.684096206906741,3.0243799175348265,-1.2764784969003569,12.543854511273787,14.93784943294402,18.75372659001705,15.88379783138894,22.334082481906115,9.168272966246072,18.23180891537846,23.69867156108533
12.02304099609595,6.279294141907645,11.163074964488963,8.604979977136416,4.5440332825582885,0.590131483488229,10.19058012630861,15.981889603017931,19.66811470073194,14.213353020364284,24.860261303385997,11.511896977470888,23.460612397315863,15.806921695476678
12.22677367284128,5.644141266452834,5.115814332804519,10.05076338654959,2.0907819848906968,0.9528753633206823,5.774754255090191,12.057419258675504,15.744105090296426,11.846541593051844,21.570200445388608,10.492712232156078,21.584757760387475,5.718407117397569
5.686914655167076,-1.0431044819208424,-4.326687878482739,6.0382312463772045,-1.8094327757887925,-0.9807743196872042,0.1657406788020416,4.298298734403918,9.06251083372787,10.140974689884784,14.831422821099013,6.476136447127786,14.092994677602514,-7.180474934203073
-4.546366352631342,-9.784764823409423,-8.41622280315508,-0.894435537066478,-4.038067101421422,-2.643129539585394,-4.97785447720887,-4.004392163683185,3.028864273198224,8.85750147878954,8.145198509511683,1.326277862762776,5.261896979938996,-13.30814200151551
-12.57473626900752,-14.239288149837076,-5.851924363163458,-6.106122253171385,-3.086619959660279,-2.7107724870771777,-8.142499832101773,-9.363332233530263,0.2427021248533591,7.268580495800769,4.626616465387286,-2.484783674995203,0.0202547837086619,-6.944038252187732
-13.748344218356294,-10.291154371720392,-4.096457236070834,-6.357289382603758,-0.0640275570682611,-1.2359698203034954,-8.911658345958084,-10.342213955294124,0.6969198019024958,5.449639573991391,5.2404326074167145,-3.466859069762833,0.9156971280350704,-2.840966956241213
-8.265522446865804,0.0920733952363175,-0.8178512013428675,-2.406737112195552,2.2614372382844863,1.3012275084805576,-7.9975134147528415,-8.170547635176373,2.0391716598812337,4.377638556193949,8.119529727324956,-2.109814650116464,6.310572047065994,0.3397414552960238
-1.0838665063752018,9.41814970143166,0.0294508999070281,1.6932395003469036,1.6544296865405776,2.7386089172482766,-6.314502211998022,-5.25202394265278,1.8459559462818296,4.746432099213971,9.89705397766667,-0.3137619122668287,11.42096074392003,3.197423614109013
1.949203595572076,9.973229788417571,-2.666782587269202,2.0395850603398937,-1.882984729995126,1.8102456190884764,-4.092531280840072,-3.0507182055315543,-0.1414592696471768,5.806905188972129,8.293911292214318,0.3106823961117211,11.711777394012882,-0.0383034169723391
-1.4910014731897885,-0.0863141853427098,-5.342409640200317,-1.9969128426520408,-6.18799600369805,0.6604030561175976,-1.0132046465736997,-1.330383412053921,-1.943536516483423,5.624006697671764,3.843287708208084,-0.2917807753409516,6.1638467254983365,-1.8731965575999607
-8.88237822912006,-14.93597107144651,-9.267791612987343,-7.608259556744121,-8.60802548209774,0.6193714435714388,2.7832629851860258,0.7514626094102539,-1.4596313199936422,2.7484836840675038,-0.7784402372733261,-0.950368408636054,-2.116752108453348,-1.203773664223987
-15.3526677889607,-25.22417312400076,-10.458056953370445,-11.143822125624812,-7.8561518852212915,0.904004826235497,6.0316295909983575,3.087859698699016,1.3571252421300564,-2.2105773013703107,-3.160962282030855,-0.7499411465329757,-8.358485913993434,-1.2701783344882565
-17.410333824092724,-24.750052074539227,-8.278147664872563,-10.84982271001051,-4.6858586547354095,0.7326204486502214,6.971949657630722,4.357985175967441,4.394038468622835,-6.713591320173421,-3.049901739776862,-0.0720252189212278,-9.584798220940158,0.0515499054815877
-14.71769727729544,-14.28084823672802,-5.54927767888994,-7.461327860772561,-1.10770108692721,-0.2830884654965032,4.834795130523885,3.316395208686602,5.333270564117113,-8.20014698361005,-2.092730289120464,-0.1279780999721724,-6.344431798826648,1.3866824375392224
-9.091278174612924,0.0581486279765544,-1.139386293143566,-2.780354800474428,1.0485971458784205,-2.978487726980701,0.6962953938833891,0.1973874811464862,3.65010090539864,-6.174894541309849,-2.002562867665434,-1.549160959541994,-1.6455124158261398,1.0262322109408284
-2.56524166893514,11.615375902946136,0.8197523089182825,1.7944772716948756,1.1588338434655991,-4.075137546189481,-3.2634834874047693,-3.304369232198251,0.7731442083259044,-2.6360896591022964,-3.1242288857152465,-3.582397651987749,1.5989860286977375,0.5534052048151307
3.3745075843777097,16.914590327288224,-0.2143019868968833,5.381434931321257,-0.1396746732143574,-1.43650091697011,-5.459545463404428,-5.472555701926409,-1.500105806585318,-0.4763191894234797,-4.653251477485584,-4.739875219046985,2.366078426529377,0.332726024980564
7.260280597569368,15.968849112273467,-0.8366186303172293,6.937996926434574,-1.6872446766542906,1.5945855333679817,-5.940269294387823,-5.944721893935714,-2.58147187240585,-1.2549939545273523,-5.865293507831257,-4.188083510389301,1.4239635240800448,-0.0281436271519955
7.406136073111908,10.54603926895823,-2.113955090669604,5.3246606470301305,-2.7055230764812457,5.601439039084428,-5.857593589715933,-5.690799914406975,-3.192083306906144,-4.204751532382963,-6.791932338740407,-2.437182395730303,0.0445180397184897,-0.2887412790904253
3.0347072021463903,2.968515530028779,-2.4841510900758728,0.5306844770563937,-3.222101298171709,6.874264250519022,-6.088116346860136,-5.787905032368862,-4.1997752656561245,-7.159651212771241,-7.698398255881054,-0.7212946462432581,-1.0081190514632266,-1.0271050183485595
-4.189560110266485,-3.862849837340853,-1.4638857304458768,-5.284993426708167,-3.75282675593342,3.201416130184966,-6.4991885168142405,-6.380201170748598,-5.6117287194237,-8.436693163516088,-8.241561726717812,0.1601984169013013,-1.5350007347591652,-2.2999700751055743
-10.233225652182872,-6.74667387240118,-0.6390944268827805,-8.53348934863105,-4.550050712601617,0.2646711473714992,-6.501673587874367,-6.834938091984166,-6.716667777974131,-8.033344937785404,-7.52791729152953,0.3366610356203958,-1.5232675192353713,-2.1962480629880963
-11.090728259933844,-3.959162334259617,0.4921167854696486,-6.629566758993985,-5.104150509441637,-3.5016779206692856,-6.075263725917789,-6.702234943866392,-7.002064554771228,-7.265711515863416,-5.143236094155088,0.3544541289444112,-1.098773055078068,-0.7149836716803704
-5.817134454585397,2.7050596433095726,1.815890033042928,-0.177999714626214,-4.418782358353044,-5.623981263284924,-6.008402361599902,-6.266522892533658,-6.711057505439284,-7.351735964859838,-1.984666517052108,0.4083994935976367,-0.795852785314195,1.891829096680108
2.4725944794719537,8.23350192788488,3.183756964414661,7.080022205493124,-1.9213881602832208,-3.641095211875836,-7.061031438020702,-6.081399164999383,-6.459622188691432,-8.223624788501006,0.1824248143258078,0.2030776842833583,-1.4447914949479408,4.621952654702229
8.729804391983134,7.860275968223831,4.968547466402765,10.717871569125482,1.7538310935721109,-3.665522483519221,-8.977022975166308,-6.11495794402733,-6.428501773877718,-8.505065960865725,0.1907111651815887,-0.4986619527586073,-3.3429882266440414,4.462189305370468
9.616220217045504,1.1611846419657876,7.1150843072800845,8.650007515099187,4.880115688039446,-3.232395679782305,-10.41785849024594,-5.570656150470061,-6.055689537964895,-6.572202045755264,-1.4237158408952757,-1.3605794305955443,-5.42145456327733,3.484567122239324
5.756947310797353,-7.030210778570661,7.485661002822614,2.51148651322651,5.73285188278386,-1.457483108225022,-9.914721750467947,-3.653358993955794,-4.5452755830488325,-1.8301727691647784,-2.802595979614794,-1.6181972222180212,-5.537342318244247,1.3800356279036294
0.926751625860625,-10.163968527324414,5.926607857680157,-3.5016892492525558,3.90605066976551,-1.2587755287613245,-6.969378248069908,-0.4831129734058752,-1.6489882521446957,4.690996365859848,-2.3687052711052026,-0.7594077399647503,-2.108853459249855,-1.7948078234529126
-0.9581126217249344,-5.1573405213236025,3.2057064794989163,-5.415026585773213,0.7940569778342548,1.687585181985263,-2.419706060331369,2.8044182902382184,2.016403437653614,10.749641717548098,-0.2261329270334595,0.9299954045910788,4.158348072441655,-1.025317521976623
1.428302007733178,5.230291164015876,-1.2883252553800992,-2.000589188428549,-1.2750638848618614,5.734573638128695,2.0555646710276942,4.880877255557918,5.3107987430662025,14.016586663054404,1.894657549204851,2.45747024208001,10.16412098424767,-1.3646456164663088
6.298751292245385,14.778197361928244,-3.3047094294865014,4.523193897129709,-0.7302127230208644,6.110730698588809,4.778431432506088,5.186077317689941,7.176336644645729,13.29513889403522,2.095958070108232,2.757314218062916,12.412389216736488,-2.322983384343199
10.448183448398243,18.639297942346467,-2.546066821294697,9.989888709636816,2.0112801831575293,4.374817421937624,4.75116491761781,4.201937951873623,7.058983884134796,9.222221626295235,-0.0935146892547411,1.3761749454148369,9.694662834887128,-1.1412291286144698
11.602733954400556,16.390374075007944,-1.6594429311470924,11.00336015230944,4.854723403630991,1.3049388253280785,2.019297504251629,2.936198679937309,5.046466024723824,4.040255095210474,-3.317885558012538,-1.2207586090436564,4.230946858973766,-4.200789600488831
9.72337201554298,11.11531668328121,0.417528067283806,7.108863097540111,5.773839539764344,-3.401173340211544,-2.2705208555198144,2.1770523687312195,1.835942056657304,0.4158818377469284,-5.445479075061064,-3.853595396590277,0.1695353149812142,-5.23873743912883
6.619181694843072,6.126812357965028,0.6440391085969781,0.9457911198093178,4.568416978904024,-5.364712311848809,-6.212825735993741,2.1020665053609022,-1.465687336951829,-0.1531088741939186,-5.142106235954249,-5.227524069307184,0.4946589330070985,-2.81068377019118
4.440162179966023,2.690868343302345,-1.4164423460989957,-3.7330876815422,2.991373090445068,-2.996420818687321,-7.963297878293144,2.3787897630883297,-3.8079894062656887,1.653638981013696,-2.738852788948961,-4.667880386023373,4.722503809167117,-1.22042314433207
4.191695125630529,0.4077733417561813,-2.781281002968747,-4.719966490468805,2.9546641806061213,-0.8967420631976761,-6.747845244137,2.529624565722475,-4.789877656667761,3.396832276937156,0.1343713646809909,-2.6069925070069733,9.185684488682188,3.1946172469970278
5.199767787509587,-1.1041779483051712,-4.197232062968989,-2.686682409787217,4.407847177739811,1.8317111679520808,-3.382761643481452,2.2961909921458705,-4.890916382466662,2.636715204878721,1.713409913561586,-0.4359781825919544,9.723370197583137,5.817136213126399
5.765549791881821,-1.605349002548941,-4.48868177959118,-0.2546488115087104,5.064080955012712,3.9787994644665248,0.2228946604534876,1.8521526706586275,-4.957587543384957,-1.1557865028143546,1.1919514838959966,0.3555305635757424,4.797798781135974,4.388454569843065
4.486579097826247,-1.287572597471511,-3.143270703816368,0.2818714251991192,2.564012599525729,2.149863330857281,2.355347196809172,1.754491812575516,-5.244841006664328,-6.012584663344621,-0.8863448691443025,-0.7328851755483132,-3.228533399633108,2.464574729966144
1.295251655129352,-1.734385337542408,-2.654190548111488,-1.3828825782629064,-2.7946479072296526,-0.1292879873324644,2.614761017537356,2.574535460751319,-4.921623573399034,-8.742301298619774,-3.0306507265715084,-2.7309549686995904,-9.581306445817766,-0.2173599580716581
-2.53071813375678,-4.992940994827079,-2.690168118705908,-3.772295922950623,-7.531201115896224,-2.502870102629569,1.9688542450848736,4.364311553108092,-2.702236042759049,-7.149369745524617,-3.695105299431976,-3.829397818968543,-10.305539681053755,-1.3195921305007658
-5.35590508648002,-11.27994566683981,-3.127039898983331,-5.206692534360126,-7.596661659470143,-4.291082620210408,1.7517656721827048,6.379794193273317,1.782707195000098,-1.5678139249964609,-2.1856538861183896,-2.7546096438765435,-5.008032600510738,-0.1476914310948704
-6.354388057459683,-17.821273499092335,-4.439448217762758,-5.156550082428103,-2.042595603018567,-2.9350830872253164,2.545784357069316,7.430775954534118,7.11685281474518,5.31574217525153,0.8947407669868177,0.1784332329384153,2.7878756706991075,0.782101499255655
-5.929260136191738,-20.53997124383779,-5.193798813625402,-4.277161614822406,5.63099241562176,-0.0150862123584779,3.913881285934552,6.722969447654722,10.68861681938722,10.068474122415765,3.9489019241149137,3.219442364770785,7.939413804218104,0.8984483756064995
-5.150440147800696,-17.402671255146096,-5.4631381724288905,-3.4608050823035503,9.943860364882344,3.075239891833087,5.051940614050227,4.513904818946258,10.428076855134549,10.394275556213818,5.316563780071601,4.456033318150999,7.066390797501708,-0.8833592605353364
-4.8293340165030365,-10.300398614783068,-5.1438450762402805,-3.064827679768224,7.790716400562003,4.375989216550783,5.5485240967177685,1.9375883169362709,6.312320945273511,6.230708156371459,4.275992226721267,3.196081384257898,0.701939416906991,-2.879406391600761
-5.040067178329561,-3.549170981480784,-3.886287334788732,-2.9615409665848533,0.9705822697419322,2.7887388704299063,5.491799297271527,0.0829659415750825,0.4235697244440271,-0.3307708191978351,1.46638242529973,0.3943858423016051,-7.2151587209813215,-2.6701658633630183
-5.320257508224588,-0.3196979593821121,-2.060210740688168,-2.990939816596878,-5.274611332009186,0.2520583923041252,5.028286130889415,-0.8320374019558141,-4.428779375598687,-6.100801290939,-1.5145098462316255,-2.116346532521547,-12.02774854341862,-1.3568123876093636
-5.126746396542407,-0.2833852513288883,0.5214629927137244,-3.0568892380842003,-6.4236986071691815,-2.021021233722833,4.113961577335335,-1.3813494216043996,-6.376229943239298,-8.329856662281818,-2.991413126204777,-2.887927334010005,-11.251677828711928,1.5399218044899312
-4.071725860902062,-0.5100382814491216,3.234494235691408,-2.7944066369326617,-2.018983530260443,-2.5456364604633794,2.850072902934314,-2.033950205739745,-5.243773726092798,-6.063950419390994,-1.9662907112271668,-1.6445251860181864,-5.727592435289172,3.719870731454749
-1.9342947018865653,1.4966058346709443,6.033608358169117,-1.47332762195569,4.4325151743932105,-0.8801371931847977,1.9088873286715329,-2.407118964490552,-2.094113408788883,-0.5970981703317992,1.6034632249993432,0.849179936316343,1.4608240753157045,2.4525875886828143
1.2453262374647247,5.630272258197071,8.605637896312926,1.402144964854566,8.56577895045776,0.5648656559965389,2.266669018730629,-1.5358931494082873,1.7706901484837436,5.367165167342349,6.914807388846888,3.521566275111014,7.1646262799338025,1.28494179728754
4.915884748623862,9.756709188918368,10.725885874843373,5.28554433513857,8.427267086432556,1.1710179912060623,4.23423858555517,1.0250737352455292,5.473070749585936,9.410934539775475,12.552753810832392,5.651512019025032,9.782692462008193,0.1771397126368674
7.951893220937936,12.066647930348967,10.843876727064233,8.546653719941432,5.305299078290886,0.9122500465355275,6.752887184744987,4.384154207976962,8.534213770795288,10.762502700202525,16.764263242725647,7.001692359164766,9.464511598941016,-1.51450674275738
9.093773768122588,12.599264739712783,8.58186576108102,9.495493245544951,1.915954286499045,-0.4176475837554808,7.897376568606936,6.696934011190183,10.465142162931285,10.252470184143895,17.897874801811035,7.504393128498183,7.293482884721056,-1.87208912716177
7.691466911832297,12.434986842270984,6.850100977954979,7.615737265448794,-0.0502698426687713,-1.3388721044333216,6.366892059520541,6.50051661441322,10.540061694291335,8.95167014654018,15.071394084205458,6.944917333276173,4.404032430488211,-2.86373410471131
4.154175536058059,11.664434172598948,5.28708874956078,3.8533607922060895,-0.8782818513888522,-1.744891424756965,2.659971441384642,3.810442791503563,8.086254840934139,6.8335659667400535,8.820853421663951,5.044922528919699,1.6040664538971594,-5.347191722399057
-0.2568062618985225,8.639379303494618,4.908462991306642,-0.2332592381254543,-1.8696397781317424,-1.6259372516457975,-1.1748359606331538,0.0431148406349075,3.15306057521512,2.897622138470997,1.2579366347692431,1.9431935332287045,-0.6016224484111579,-5.503192499871942
-4.039599864714703,1.7224257145655102,6.412226137985286,-3.499090444358975,-3.796581993851504,-0.7290895379476646,-3.0026879046938038,-3.040017842033884,-2.9613385978900597,-3.181640251847337,-4.606717702005818,-1.386971696318014,-1.9400196613610268,-2.570501317566381
-5.944837996983441,-8.002647437417096,6.0691754505158455,-5.416904786619044,-6.237217489607877,0.2440045569531871,-1.9999930224050244,-4.366732371636148,-7.892220744550872,-9.489739588976,-6.245490530658493,-3.3538508395721376,-2.36281563130016,0.2656658584968436
-5.18787436029386,-16.03701845008409,4.162048049077256,-5.565414670685903,-8.04923972980693,1.7349855581565363,1.0747220401075497,-3.842167312337686,-9.28336185307402,-12.28909187460318,-3.044379599828376,-2.7271908299497434,-1.9921225070629367,5.197896872870487
-1.6870955844042026,-17.227972714726462,3.785544487246421,-3.4124859306816813,-8.181646521030585,2.703947550950468,4.649249190386111,-2.046478839079739,-6.27178039629136,-8.674363257069903,3.097252531019548,0.2383594833948987,-1.016997031668768,8.476214995107132
3.5058802835933145,-10.104122608185124,4.404649998539884,1.014932544513782,-6.135660701899576,2.1716733979126968,7.253902756800707,0.0816937383215066,-0.3803612652874788,0.5340644045762879,8.562655495609274,3.5593711781165336,0.2752595378238274,6.314832733282847
8.078119515203936,1.0841932560965275,5.775629195588744,6.278338410423876,-2.1536840941355586,1.1903420122647514,7.948397493496611,1.4037195250454892,5.04223361216433,10.369048338020704,9.979271537241976,4.6979665755896045,1.3064186231287818,4.693682656622189
9.38175081578625,8.97309305964109,8.450055528574328,9.795491833940826,2.563034697175352,-0.9183865956612456,6.393122903079147,0.931777105029695,6.776740500766434,14.69512314727233,6.267114630413381,2.501199569405938,1.2102178108914607,0.9641246091173594
6.325925277827118,8.686812176920853,7.600516505847966,9.538794645620186,5.890533944030134,-2.6279542128871936,2.973862677877069,-1.4612494696795757,3.880531715065457,10.58154668551651,-0.5897573253462756,-1.652926974027762,-0.6059601935562808,-3.5875010392509457
0.8072577652975328,1.8161434135095869,2.9516640215864443,5.824644548439217,5.7120137957175565,-1.820020167382037,-1.075832266753169,-4.535428622847659,-1.5890450930479956,0.5902913543875696,-6.74780495751334,-4.689501820218895,-3.6308377507036695,-3.618614618990449
-3.0388549284902284,-4.839449815962868,-0.8899842936973063,1.3740503352222997,1.607711784300028,-0.4307704146718434,-4.049055427101271,-6.203882816094701,-6.015905881316096,-9.022015264189754,-9.0449912562776,-4.237210677136644,-6.104561739764659,-2.927958319686304
-1.8731707896296417,-4.974465953250034,-4.937166183017256,-0.7473895722817163,-4.09129568101296,1.739377339524415,-4.790551297131392,-5.07799977006875,-6.89559680461876,-12.87476392407369,-7.153929589878524,-0.6738590112818379,-6.19861439977932,-0.4025371239036803
3.7746485168971775,1.868888832042991,-6.342470084600205,0.3501597346245049,-7.361868169006424,3.4021913016671106,-3.6531893071623367,-1.8341357203213156,-4.661915714944553,-10.194991831138644,-3.7254932921550985,3.037278955066281,-3.813046679504746,3.400598881830809
9.339840645714569,9.98574214858292,-4.109858707540004,2.682364664845378,-5.390736078672941,1.9971753638872665,-2.3440265202793995,1.0065443490267938,-2.1206974801131957,-4.8291551551777365,-2.2946354142856373,3.761374307610815,-1.2158785926877238,3.079394715727469
9.718718727648469,12.577722666205558,-4.231970481744379,3.236522369245446,0.9894409680104024,-0.5368956563366187,-2.479370784906694,1.0066750656315306,-1.8964611193045504,-1.769249746178024,-4.445840400557153,0.8685088715991753,-1.3987391184601543,-1.2605389356293508
3.743434279571346,7.749113156685357,-6.00478036643917,0.7478509529898323,7.688790988060657,-3.520572986776272,-4.0207807296534455,-2.092245895930632,-4.0786695689932095,-3.2037683464711986,-8.421654929491655,-3.167634800491355,-5.1889823013752565,-7.914373687241568
-4.41641620189248,0.0719686288227312,-6.3444229305965365,-3.1064807699935075,10.535693111050891,-4.939393461356315,-5.156855612918691,-6.002266119038059,-6.187977878848304,-7.23221776286318,-10.35454591261779,-4.824149392256746,-9.790051899927835,-12.19603217335711
-8.542077762235822,-3.698648574836741,-6.168470807020797,-5.183736054432798,8.542894884043577,-2.8941707112871837,-3.9748466689237993,-7.6787761695743795,-5.550206665129775,-9.938248150457078,-7.28690037216516,-2.4797017014164418,-10.576036170248305,-9.103532273512716
-5.676643183210373,-0.8742698809610374,-3.5290517581339134,-3.674830910893934,4.367077794951269,0.7998879834385377,-0.4666014420626689,-5.7484491541248754,-1.9209930025475104,-8.751678285332098,0.3147724423673457,2.270131028981896,-5.043223982535508,0.3182140804633029
1.2747273320347894,4.667571369506678,2.149145211389081,0.3005799637510407,1.6541319191803563,5.232984819555298,3.1225335953847164,-1.4829995493408177,2.12325220380256,-4.26018374927261,8.553246212025254,5.990082854628177,4.476974334374951,12.320938503952531
6.05388912225532,6.066191613388671,3.652189766706074,3.686165090337454,1.8404257243358015,6.49787353582316,4.126521177610201,2.41460876128852,3.481068979380318,0.7311127913268791,12.705475421034969,6.190130230392246,11.989691505566103,17.667896383446614
4.401168258499624,-0.0899606118511844,1.0702885133438176,4.082798781234102,3.317275637220817,2.970405560093234,1.8494493932956888,3.98831388665052,1.407009020552394,3.696308446982979,10.507574433909072,3.133103906697789,12.206108892724249,11.795422574950146
-2.567541670472343,-10.351284338776304,-1.0763137183067764,1.5822637107459805,3.436750322822608,-1.5297251949850117,-1.7713541573689362,3.245866570779805,-1.7417130943646877,4.173346584817988,3.64102503644502,-0.7039442424201425,4.571099200307664,1.4366729169859975
-9.789786482421444,-17.137718597679044,-4.269635162183037,-1.6795773178726383,1.164600522805152,-7.140755129646066,-3.90142196583173,1.5966952205764784,-2.63477855017889,3.539379449208184,-3.64205450292215,-2.8089830708594974,-6.29988797800619,-9.549110696725991
-12.82061745304183,-15.141428382920104,-5.128053045676778,-3.6010299047905114,-2.128677747993468,-9.20646116952796,-3.2749860009615333,0.3819314720367508,0.0001205921151488,3.388351268387133,-7.571445871507507,-2.49423293881037,-13.935773882790508,-13.478548775119764
-11.215824265469523,-5.668449315011259,-2.87559334355243,-3.772440989217252,-4.164988001594619,-4.737812525164542,-1.040326059627052,-0.0268377029621262,4.261287108683664,4.188830225972005,-7.1816877086229525,-1.0083874359946776,-14.283428197151252,-6.527947452938903
-7.975074081075924,4.77871204013443,-3.0085788814389964,-3.296028221036794,-3.8016841366287215,-0.1562464579119561,0.6808600129168294,0.0228126258890544,6.846310389905577,5.305303351419116,-4.283186087182983,-0.1131932060471392,-7.831512779710319,1.0572629895336898
-6.19789056518545,10.076997076827832,-4.769022381478469,-3.2611900903223656,-1.726036440992848,5.93539497345016,0.8894441778285191,0.186159466260829,5.975865867778955,5.995455548463891,-1.511199280507622,-0.5577354126059504,1.3874811076118512,6.867611490637189
-6.428885346237788,9.07105793072316,-5.555576771045948,-3.598265718371767,0.4517402150393437,9.730506948726376,0.3202648599654516,0.3686762667716792,2.7595205674967964,6.152532356644922,-0.349649305673342,-1.724838677096599,8.572494587780064,8.519902237753898
-6.924579054563591,5.394108726854732,-6.175494122783653,-3.421351913314009,1.4873157254485072,6.324243176534637,0.1623775386940558,0.404048268519027,-0.0890267394275525,6.075179949189458,-0.6732985523915325,-2.516046088855326,10.69929103021514,2.874731690155347
-5.939969848796341,3.397358060000993,-5.355709308248308,-2.2803138472250204,1.0498373119155708,2.7597912285550548,0.5191124369049511,-0.1055421368051803,-0.7594311460083887,5.734856397721451,-1.6911221451999552,-2.464543991861511,7.680764926477185,-2.90725072189971
-3.404112285865088,4.4022226882194,-2.660428513116125,-0.8017115427264407,-0.4681277766146188,-2.3232245415032744,0.3788845878013092,-1.2972800893267635,0.3209627738048297,4.5451446028328615,-2.9343078626565,-2.031096439939267,2.0289604323230623,-7.961604947600022
-0.4902789594062167,6.531535070554268,-1.638531303977108,0.0326369786661331,-2.235611323823603,-6.600950939533828,-0.9531134901931928,-2.4251368573842544,1.3519544105693877,1.9856962564892304,-4.2787024133043605,-1.9467080412884368,-2.6224494971895176,-10.52909286476522
1.9752248422268843,7.507320926244768,-2.0865007180422595,0.1388770657092752,-3.151849751811941,-4.6331798429173086,-2.707693417889086,-2.1137612085357134,1.0729830568248673,-1.6326817959946407,-5.353088469379557,-2.385428590172859,-3.56018299318848,-7.093150764505872
4.250279267706038,7.077655772542139,-2.0465194137210405,0.6235742274987786,-2.282489210909976,-1.8268377038401185,-3.2196194298614778,0.331915295574305,-0.2371651924166578,-5.212740573689136,-5.434313225827291,-2.822884623060194,-0.6405961267686493,-0.878102062325104
6.785445876901383,6.673355726881077,-2.177243620496952,2.625940929637009,0.3208934637975691,1.6494736728234571,-1.6939295948128985,3.73878064508993,-1.4474685331703014,-7.783663012423594,-4.216052748428112,-2.6625401217404656,3.576457247789381,7.484856517155214
8.924172038855287,7.123248523157029,-1.547922644663236,5.833760435921105,3.1565990058805538,4.503671982838895,0.7454382955853998,5.474134849592124,-1.9384927443230948,-9.297640270444251,-2.555681453414744,-1.9150708389364173,5.59047173616756,12.507691818489697
8.945437990960963,7.2501044525265,0.1205842129737896,8.297358720918899,4.058133345058251,2.6979503939467997,1.947721814185604,3.541546396621581,-2.107504233418253,-10.3569601416363,-2.063148035631019,-1.1992623224354595,3.542160883283751,9.502696248491624
5.720384476750485,4.991958991425657,0.802958008654714,7.958657462864796,1.993425984570072,-0.5427092428827383,0.7504060645621218,-1.372643526917558,-2.608141364605893,-11.103319300912762,-3.621403809397165,-1.0819984269625935,-1.3683507677929585,3.04917809870778
0.3714329711717656,-0.1753171828107103,0.6809292558830645,4.567102716665502,-1.6978325557962552,-3.392689629180333,-1.8960092422082244,-5.96178740524423,-3.353948223716798,-10.581202826355067,-6.282228011087225,-1.484172644899635,-5.866699889258456,-4.970684619364575
-3.945910484978418,-6.17606490342679,0.9380017519953144,0.1380037295006406,-4.097302882924241,-4.510149245430885,-3.81181277224588,-6.760953834247228,-3.502299261730766,-7.58149104682145,-7.841827040181872,-1.793569820931414,-7.247753339893045,-9.236418791391245
-4.309675616653628,-9.87363841503905,1.2439038983137063,-2.5971649745377743,-3.1898144389138423,-2.0571351471539585,-3.579147421549548,-3.000016399274603,-2.4546253351339797,-2.3900168223756166,-6.746949843789094,-1.5519744163255975,-5.460998019336938,-5.555606317328879
-0.4737722254303183,-9.763631211191472,1.941397644527301,-2.405490116690226,0.1323751621487048,1.1309536815665058,-1.698888799504262,2.7078186023568662,-0.7163407010739142,2.398780281310792,-3.534701670552902,-0.9544778255265296,-2.8783761826748666,-0.5278375534464648
4.74464053507619,-7.224945597542705,3.2180102854039587,-0.4358406509536721,2.5691687644787145,3.152036683746398,0.0993492611308362,6.5273481705295815,0.4217438573232464,3.3094053745948635,-0.3680217815661795,-0.6002107732721065,-2.0330926803650264,2.325401941679484
7.618131056876951,-5.195096569817478,3.9187643061575033,0.9839779303838264,1.2298827099414638,3.281886161107547,0.5612012297138911,6.521405717231865,0.1342281646028844,-1.133194253643886,0.91305689885192,-0.7562465469263735,-3.390863931367443,2.9680845095736474
6.425344421800922,-5.596311354395398,4.112762056702099,0.4495108130511056,-3.659151269311284,1.3113768542492328,-0.0764934828542287,4.001486033041779,-1.0421679244857192,-8.547758261527676,0.3523286531181036,-0.9567539094323508,-5.104494815426644,0.98242000580612
2.653445738072781,-7.849022671309099,5.2551231038108215,-1.4718125862872515,-8.641647798186387,-0.2056908969268259,-0.5899163150207052,2.0610751597433445,-1.6278657765336124,-13.833446448714817,-0.3881197797023255,-0.4385833013836926,-4.848178805906056,0.1394979297420404
-0.485034997823135,-9.576078455811514,7.219419567210667,-3.080223069363864,-9.726117290518252,-0.6060409880621158,-0.0712826104538812,2.785225546047944,-0.5564006288099623,-12.75703952077046,0.2616789809408129,0.9767274512892072,-1.970713538261796,4.047309450748552
-0.8525749084147431,-8.591958901752358,7.584294219790861,-3.272410485482304,-5.6011126114086185,-0.4395339554518066,1.3190337242889196,5.647069875066521,1.843723494331357,-5.184329758085626,2.337128071846953,2.4807513844432627,1.964523444934864,7.337574567116977
0.9403749662025032,-4.448494400514749,6.4400895233615465,-2.439514843446517,1.3295643769280083,-0.0693224076629497,2.7140527274611994,8.283060007972422,4.139055810337768,4.722941398226984,4.456666022440176,2.865613229212519,4.603304042464472,5.782763419363896
2.3387004745450994,1.3861268704953922,3.4233325966023105,-1.8262877356808804,6.820062078559426,-0.0250438038917472,3.3982935819043742,8.63314561994847,4.994443327123369,11.528355019731231,5.202301866136967,1.624536439636465,4.758466415908398,2.411052159672298
1.2630008816738396,6.402502643551463,-2.137440562921354,-2.2136202149676176,7.836491049874692,-0.2326710053617785,3.238517577118227,6.4496570018706105,4.147326204377126,12.31399857643964,4.350981779357984,-0.4805445747933152,3.139125794244652,-4.595847297883445
-2.0453703941093337,8.2407638297978,-4.782681279064806,-3.2729674811910314,4.328289533001504,-0.5236186175399263,2.4768868228877423,3.10899732314002,2.408017640653604,8.3322284289589,2.8931470552973906,-1.978378110986016,1.395240746863074,-9.88677971185939
-5.299366319548085,5.781346916902706,-4.431272115056331,-4.020003975511919,-1.3357294837152196,-0.7475643625892302,1.4148447809590472,0.3134813437899595,0.9308530657230794,3.5453563497553056,2.0232803104036527,-1.9060160152220968,0.5949579288616071,-8.167290255620824
-6.180870067874402,-0.0909147269264494,-3.4895794133191766,-3.665745648377364,-6.30616060336251,-1.1860932585793644,0.4184346771144902,-1.0014172454088666,0.5102093338455589,1.5433456116057744,2.136976121913204,-0.5837931530786662,0.5839621710700023,-6.82569689182973
-4.264335928074683,-6.531739632239955,-0.6572286917241501,-2.051475235438289,-8.847185124646444,-1.589927529478256,0.0116275129675109,-0.8653488386535386,1.3150164053230746,3.251633361557751,2.646620470465073,0.7339606467931219,0.6048003539011049,-5.790200655829041
-1.2400244836606156,-10.061158788209235,1.32616677313531,0.392172626864042,-8.704214897338197,-0.9750994810489156,0.5835827537580691,0.1095613239566652,2.916739811375507,6.798846044921824,2.5948133272347427,0.9675351095220392,0.3110305447329651,-3.5033863342955422
0.6257873431608445,-8.736951990344835,2.2484400580004,2.7610747961422994,-6.610554172787559,0.4630521481870012,1.8137063823108264,1.100077186141771,4.397788009349249,9.177354913340604,1.479550917815061,0.0666071900356009,0.1322057276726447,-1.8970678546642543
0.3973080286789177,-3.6273008272144303,2.824882757422542,3.842323989398718,-3.6879808662592346,1.190901597244722,2.5658290283733223,1.31811767764124,4.666583484211042,8.32956652267558,-0.249775780347214,-1.0692396728547742,0.8168715848820085,1.3315047531752202
-0.8433542381424779,1.8782866313798685,2.298825916288292,2.7393988835038208,-1.0145253962162766,0.8911935955579988,1.7398646081644775,0.3818772999062894,3.14754409646115,4.409556830173969,-1.2514913896548236,-1.3873617549175243,2.8062952737132054,6.869159509995237
-1.017187710246823,4.664102212664638,1.494487732578364,-0.0958530115104991,0.7806413260184257,-0.4816106591647686,-0.5256283948474838,-1.24484346506161,0.4922320569985103,-0.3411176711778978,0.0655663650317315,-0.4333923331172258,6.020372792643407,8.80814772119668
1.121997039898977,4.256168172542369,0.2562009552057389,-2.4639402874896064,1.827093810178642,-1.6961557798049065,-2.599721597085935,-2.3097146226454903,-1.4978704113629815,-2.9565045459942105,4.452311739470975,1.4694882676138512,9.967066159228969,6.095467637366454
4.836317708066975,2.8120207987095114,1.547398150572518,-1.7095773924855333,2.823609693593859,0.0970856670209943,-2.6469013120692377,-1.706243861276015,-1.118855456575469,-1.6235040282388056,10.795986647060404,3.5346095337492507,13.769871041510733,5.237241118571274
7.83075890694233,2.724037294986143,5.7809080832080735,2.8109730437769898,4.230216740063518,3.850897391485151,-0.4602190816229772,0.2883467857870414,1.6051786529268686,3.025178888174798,16.057349642108427,4.934565186563901,16.11486156587958,4.965208150614865
7.913765807320043,4.143443574196324,6.136221344049863,8.316561220882992,5.487527239685285,6.336792224590065,1.977269163762973,1.7396633872224356,4.42724818870936,8.139829392480177,16.777362969264715,5.10014382985732,15.587618578975208,4.802831242119745
4.613156082652786,4.859340760168617,2.971522463182773,10.145629607254206,5.165015403926173,5.363783694329318,2.016707627913595,0.416733653049274,4.322611827072437,10.443407851190525,11.549847513444869,3.8998453753995257,11.601564827621136,4.451840426995761
-0.4652273324355445,2.673232253201075,-3.419746126557396,5.530668090117501,2.137572738035906,0.1898227767005508,-1.2379890280457282,-4.133106893486875,-0.0501468367668849,8.443945113761227,2.6051134980037,1.7011909684239583,5.269707673877964,-1.6062137097026352
-4.755333941169223,-2.0784477980716307,-14.69886406426411,-3.6211190943036016,-3.218748193480589,-6.186975428128881,-5.849370171624809,-9.711049892178558,-6.923255348201913,3.460291826710062,-5.198622625223166,-0.7772558149906938,-0.8100067032371214,-11.338882031349623
-6.421059674620386,-6.39794781817311,-16.981013701183006,-11.743024701222668,-8.964067826397995,-8.575498884828225,-8.454164949102175,-12.872490637193923,-12.3923360411308,-1.3468917803483826,-7.7106609844140355,-2.809357134112417,-4.099778691738832,-15.492178589516184
-5.346456252516608,-7.129408058915397,-9.685636472858436,-13.884978885872776,-12.74417180063712,-5.527478904925768,-7.032996915605157,-11.5912034572417,-13.148984293395245,-3.2197010025506074,-4.628470202251753,-3.948481000568828,-3.905672723527722,-10.704557278072087
-2.812609077331709,-3.76778343443889,-2.5091909274841915,-9.58131027569134,-13.10592051074094,-0.4088450818646242,-2.5945953888244,-6.844680386308479,-8.82232889143419,-1.6301343500573855,0.3375927401141041,-4.012057266912931,-1.832897744754128,-1.3858320308239351
-0.3314652804773832,1.0585177203752476,7.702905124577156,-2.8760602014626,-9.970486221362078,3.178443226381879,1.7382785330811856,-1.6827717996200633,-2.12094196538351,1.6009601254782029,2.649561385796174,-2.872684898363717,-0.4030826022990315,10.141818351521977
1.3133663838120233,3.853511662937248,9.591562559464789,1.4048791539668342,-4.283723450842079,2.813655598530935,3.404099556309923,1.3182285379876078,3.201496545103671,3.8118106184230713,0.7817083711883619,-0.454915071315332,-0.9876141298462784,14.36792070764176
2.1225877669286497,3.1325713020877317,1.0913018877432057,1.6174537242628535,2.4234501175598524,-0.5459287059435506,2.428730371205212,1.8419382497731505,4.8671491273253125,3.393745325967082,-2.733520799016352,2.891992881628221,-2.8605395084797607,7.371920298552625
2.220881243699809,0.3184905528191457,-3.475284438771336,-0.0528040935664417,8.217009241612157,-2.131419770628406,1.0453433789345592,1.3543545861081316,3.237387324446539,0.7466497716504428,-3.994304575734917,6.050308012067001,-4.13474909736653,0.0012589990847329
1.2749786813313744,-1.9487431573536045,-6.855749569982257,-0.5071704531913319,11.127088246734235,0.135032751599942,1.389934643540483,1.1457385936355229,0.5287453415700973,-2.1900574124976373,-1.6016411508573285,7.438705841453361,-3.6220320468977896,-6.266783964159704
-1.3657686637499893,-2.2669296891063,-7.668941524298433,0.8977825287421055,10.10808067378158,3.683554211073285,3.468470222608789,1.0164081995489962,-1.043302748476184,-3.346411557480698,1.9456131201434763,6.02730932723868,-1.899482201352039,-8.068651929651876
-5.865416776632518,-1.3602304199377109,-3.413869389370336,1.8477411411961355,6.037697595384525,5.3843938505830495,5.224670554010663,-0.1628821468924552,-0.7542966440521828,-1.9243443683721717,2.611297817752753,2.287338906786021,-0.7186025197059491,-3.0762200010282896
-11.143765552503806,-0.8314779495687263,-3.1077100470942645,-0.2395904237078099,1.5801374363278464,3.604615778402959,4.5119028834096,-2.840953813296304,0.4316935778802948,1.026230260242742,-1.3442677264461826,-1.8788011559361468,-1.436384049381778,-0.5305943979439494
-14.956739099176968,-1.337542363055535,-5.990866722900584,-5.167176812751892,-0.4919945304742779,-1.0936345910844776,1.049647684242995,-5.966406411666252,0.8775976112719484,3.199786450577726,-7.64930040616089,-4.37145697557918,-3.904712135875537,-0.2515102226034984
-15.036172252147772,-2.101883937280631,-6.4808653891351415,-9.67399002411874,0.6543263918307041,-4.676894544509374,-3.400006991783832,-7.817590490875929,-0.3532315436702173,2.517756632258603,-11.92645309504166,-4.355480819306745,-6.667742608745385,-0.0517158436087488
-10.649696177236113,-2.064375922843462,-5.986265914408206,-10.278340903259323,3.3177462886367906,-4.026667278946707,-6.637885417182998,-7.562558734635289,-2.7702099028101,-1.3598268254545385,-11.361266587718315,-2.7407563905767773,-8.1207183660902,-0.9600135873160938
-3.4370215731757305,-1.2212771402783194,-3.914561953583746,-6.557698700212736,4.767097104865401,-0.8822724519892777,-7.803573000588825,-5.95827215313261,-4.887282710113611,-6.564565549780108,-6.836937671315027,-1.3056631013951332,-7.61740255358777,-0.0170889127864014
3.283962419969741,-0.6535822745358395,0.5940257435998928,-1.730641214694554,3.548258296311932,2.275124250792042,-7.72472025236868,-4.585300345473382,-5.477386803482908,-10.12589770692905,-1.862410110202834,-1.2539075957588253,-5.787435500600658,1.846285472946402
6.474808171130174,-1.2815203435220663,2.54829011567102,0.0789926778619793,0.5607581568658411,3.5229246548188597,-7.718918012475536,-4.466320939690462,-4.646949887753157,-10.034462377397292,0.4547621547865699,-2.409566511267329,-4.034291792363135,2.1716144923336955
5.30095338482306,-2.7509644323293543,2.0263829016015933,-2.533521207469141,-1.906404995461909,1.5638983557768926,-8.146599033417393,-5.342252499627497,-3.7789392166541855,-6.722489039814656,-0.3533645744577089,-3.600392484996892,-3.650527072000955,1.9164564025586384
1.625191566120943,-3.6297927679897697,1.7438635468541173,-6.947818051182782,-2.0849207398247547,-2.039830853675054,-8.083014041465587,-6.059200932814607,-4.266874481293872,-2.686377295186423,-2.355950128971978,-3.724468921468232,-5.029849311780023,2.311575754381449
-1.3174551398226964,-2.6741620451678134,0.6631623472298174,-8.644093719337782,0.1792749578399757,-4.638267104692858,-6.302936296492382,-5.501615139038456,-6.048719709789193,-0.4584878059045394,-3.29644136342154,-2.519766717218511,-7.330182235077913,3.6263531876334767
-1.1098341287063604,0.0963995614764616,0.3093955545427878,-4.911936915756586,3.814483720098925,-5.010060600660075,-2.567952643581272,-3.2719129804352853,-7.291163392528981,-0.6201920598432391,-2.43607991500036,-0.5028005539064271,-8.820781071922855,4.286951549332884
2.3289002103207466,3.4385785384091143,1.013734199562126,2.93399316520086,7.528927541004725,-2.980832020776192,1.9559721287396563,0.1897721828953695,-5.718730216364751,-1.5849862277361364,-0.6812047423105021,1.626648811872201,-7.890792447155309,2.5061143290581844
6.852544181059649,5.8301272422260375,1.7947711755641984,10.513854979865862,10.259591186086586,0.7997575597717006,5.460626006416627,3.872924919577972,-0.6267389394989067,-1.2955792723008963,0.7310324822115035,3.426938593376459,-4.225203269468375,-0.512026463034218
9.605764168663756,6.425432271722995,3.120792426817529,13.592959120347372,10.95969098091809,4.567956887483784,6.741753859755413,6.647519589291566,6.1559608508952,0.7870067022936489,1.485604435535862,4.663732186460546,0.7074319954687454,-4.690965396598311
8.88199866007933,5.392096022275114,4.122956146076268,11.001548918937864,8.644090678584572,6.096311048913678,5.933163162618682,7.82677141134787,11.355312580587697,3.252775828058104,2.20900215656944,5.061481953651366,4.4426034837560096,-6.865855297527945
5.196062501389708,3.662504408693021,4.718628214039929,5.203926888938184,3.27151771780818,4.728999161255821,4.246898937852652,7.658387848442096,12.657038088625868,4.176824634179084,3.466270964722245,4.357670572503711,5.227673094654374,-4.713347338912985
0.9986575751244224,2.4473135343825057,5.027861772195446,0.3693721826142813,-3.2997567281898057,1.7294578146423778,3.029768558759791,7.323369611457958,10.45789774239738,2.9506581543712898,4.952783238213911,2.7266700116362976,3.3945853987670027,-2.742923587129247
-0.7877896469022261,2.7185790853795666,4.7935116165660645,-0.4618852885333382,-7.709906999082335,-1.485167992092633,2.889084613229265,8.170227265171174,7.445321858308489,0.7813128956285169,5.773854347902201,1.0676972748485127,1.2036704471898003,-0.550183564995301
1.4064972064811665,4.720993578949667,5.640184186819877,2.8794637536988787,-7.193976301264765,-3.047766688860836,3.47560069557418,10.570372824328857,6.327553380650297,-0.4643014545339028,5.465543566559056,0.6222299772668052,1.1329044839246372,1.3315772941309374
6.709411069862671,7.670218432435853,7.618346242335065,8.035074263488024,-1.8390474908275567,-2.054850931668605,3.970736792067374,13.352763015510712,7.649244220240675,0.1674635696859496,4.588992625822392,2.0282240472180497,3.9289597799759335,0.8999388730434783
12.213288084083626,9.93720795338416,9.03581574215629,12.004347598463768,5.142591519973035,0.3433456116913572,3.81940074752038,14.505032045060291,9.532494818303068,2.137137369975605,4.192641274926618,4.59749410452487,8.014093424753039,1.5007528375544474
14.712473313734488,9.845057220271984,10.19145263255946,13.057607458040138,9.66698876959671,2.206874152295828,3.1277313470141976,12.747877887282648,9.44859327293508,4.062884809117762,4.674865635495358,6.569670703923592,10.715498341245947,2.580514162052701
12.645895939878464,6.733734516850685,8.38555065668446,11.373094274194823,9.72378701674717,2.2237013988732204,2.446729510024902,8.669637134823517,6.35528932883236,4.706221743238665,5.248225468284726,6.285016573192696,10.234993763331936,1.9885185241494452
6.918210036170752,1.5810460562572253,3.0379407250496158,8.237299357404531,6.460494785115383,0.1693996944450468,2.1645604475727964,4.343735525817461,1.351072298775481,3.4302684510293844,4.580392202487793,3.366213908923914,6.71495058930028,1.1111002259733285
0.1025656642657146,-3.391453653341202,-1.7311168601174225,4.7805329029871615,2.623693865297575,-3.36469562173158,2.0609212085716813,1.670270313811642,-3.512091411061416,0.1410734134539879,1.9607335972482964,-1.0541678685104934,1.6750710054286555,0.8188048782665511
-5.263680320414085,-6.036943590006413,-6.57256278741542,1.4077488726708047,0.0673966302704762,-6.531297444030545,1.4696210226050574,0.8799250903807803,-6.953814200965248,-4.743362006890035,-2.154028308442648,-5.20336096693806,-3.4224843428632,0.5557636815583961
-8.014105359951724,-5.696040185619417,-8.465585386226998,-1.7789858885523664,-1.2859776946826464,-6.576236313203044,-0.0109436002689449,0.5391995178622544,-9.136609884104722,-10.12598395455974,-6.629850148795022,-7.851977215911923,-8.075733093596781,1.2026926989525333
-8.538070189277622,-3.655490560853927,-6.340485704395743,-4.318647003686692,-2.3907726488862835,-3.1043303236941093,-1.864146374314608,-0.9654803754228992,-10.893414959590984,-14.322856509892684,-10.507763588527345,-8.852704851025191,-12.42399887105042,2.4833378534803314
-8.029713365835917,-2.2103646269279125,-5.43614204766418,-5.423750208249082,-3.4871436632421826,1.7384624379991944,-2.750599199178154,-3.831475605844236,-12.494053636743145,-15.795270362951364,-13.311620793631446,-8.75699539981473,-16.278304620361823,0.3319634921639352
-7.5901043627866045,-2.961764474101834,-4.863609795569007,-4.7749620784867695,-3.8438524212310057,7.488280624705398,-1.4838097493310016,-6.569450859698499,-13.189059891123524,-14.12458292225803,-14.69451939258839,-8.070056320202102,-18.61962364656742,-2.928725265444948
-7.759042960181009,-5.656948343365031,-4.17674797716421,-3.168561504217916,-2.954650868255463,9.41249518326152,1.8175036164353744,-7.264297369825755,-11.863485951684796,-10.320572734786918,-14.124154948162758,-6.906747111978248,-18.09618852691569,-4.002972674623564
-8.483830030250193,-8.492590585394812,-4.244172764474079,-2.112043283133783,-1.57933141941054,5.22723307639246,5.453314619624525,-5.219628847690444,-8.103195673653293,-6.051528002365508,-11.192975947157809,-5.264244453647947,-14.052140466167472,-3.8814936071895945
-9.240155753597358,-9.584789625007865,-3.6585784335210505,-2.529738440663412,-1.2455413697187367,0.2967921153856143,7.199018042567747,-1.5729661603047127,-2.7403087601318195,-2.4471157967642103,-6.277204150597679,-3.44533804902372,-7.195245865413503,-1.3959203445080572
-9.176639782235211,-8.32812113845971,-2.6043702404273037,-3.772570305683013,-2.654270095240099,-6.158553107672691,5.994107496989599,1.5722330367962112,2.498959601658049,0.4203612055798178,-0.7190703187565255,-2.039455924615851,0.58441772384624,0.8429757162449574
-7.40022245206033,-5.545685089931283,-1.130402063787055,-3.995225359704687,-4.738918989938915,-9.30404340819494,2.8791255916663,2.709010797815612,5.93477082580511,2.970481810530682,3.860929047611018,-1.3971376271654048,7.065927112580832,0.3723158449204521
-3.476993475618995,-2.504871363345657,1.0082492603807165,-1.7128551025049197,-5.477201299174684,-5.005604148716071,0.3124028169617396,1.9194784789013948,6.838790295512247,5.187695034531963,6.580201577613755,-1.147457528189392,10.70938037461103,-1.4649840466869375
2.0827890351233336,0.1029001573911081,5.516528585230818,2.7991454857728737,-3.720494940087384,-0.8557803722677705,0.3508603470460265,0.6008845102869564,5.77999030689605,6.392834223477182,7.7128686434828815,-0.3605035188269614,11.35739541845329,-1.651117459674845
7.773982469231392,2.2486079788700657,12.687418499926034,7.506881931154972,-0.2919799320855389,3.845072772438608,3.1564290912076363,0.2545839119554305,4.214945023243795,5.968127782421906,8.173243337114178,1.648914112562995,10.287873933492325,1.1533714526435197
11.690700788836944,3.846601195899309,15.288161903984149,10.0307785576628,2.616268210454539,6.399831936412992,6.983227522194447,1.3280149510959198,3.546588422247084,4.225795861051719,8.631276845635199,4.565894203164774,9.458586460087542,4.000326922420066
12.495288667806346,4.26180387472835,13.231282929010126,9.296850580985106,3.105878353730548,3.012686532454917,9.514606696917236,2.961781726654932,4.235807409938406,2.428689296641254,9.089931748195028,7.117489634172873,10.203685889652334,5.287940984496059
10.163313577059078,2.8243602515377946,9.008248071540237,6.165573028923631,0.8521301167630426,1.1070245516433164,9.35984358655019,3.740835913990789,5.573345206457308,1.84456142608302,9.16184010876078,7.972317847101354,12.199534748073695,4.375362020725454
6.021244841029927,-0.038740111822868,0.8086032807165864,2.705165696892826,-2.865169655531764,0.4301108308429289,6.604493125265243,2.7780141028037475,6.264282433154779,2.70620729053338,8.550313681107362,6.749204564826097,13.605620851255376,1.0499991617356224
2.051675733165938,-2.3376104768007835,-3.6684873685404975,0.7792268243775755,-6.127867452492845,0.0476988984513072,2.2980543834071963,0.2642400451602809,5.354986622920863,4.04391766352618,7.170092862304704,4.2549361063694855,12.488453056847812,-1.663027508509531
-0.1289450052923531,-1.6165426901880977,-3.967680077869844,0.92456971258175,-7.50800513242457,1.539347079554059,-2.3765223000964184,-2.860797894889302,2.8111598375418065,4.5194665434882415,4.928971484584908,1.7750149720684405,8.459788318595725,-1.6559204460121055
-0.0909341662388527,2.9421110502353045,-5.139022982673012,2.1229736281510885,-6.711024166077159,0.0205361124234534,-6.514667022616671,-5.680208404465654,-0.5576763321637905,3.4981804768294715,1.6829044714025567,0.1046704243341487,3.088582690006102,-1.0849840675838682
1.183856301885026,9.187163199806117,-5.364480297453953,2.5108153750312727,-4.5392734393219705,-3.779395927117175,-9.40558148834454,-7.740971140989192,-3.559655435296989,1.4917983627880282,-2.338260934647117,-0.8161558658328794,-1.3345128060421274,-1.0413292391623412
1.8389167993231863,12.952067883785285,-4.639109571339771,0.6452320423961666,-2.2915646044084177,-5.455190428224547,-10.38967306262897,-8.8220252344844,-5.046764705619388,-0.2492989319625032,-6.031245475556446,-1.4466182834871937,-3.549659151778925,-0.9920712364523702
0.3127462674989054,11.006391605044945,-3.322297942003747,-3.349671827529104,-0.9179340367671572,-4.56519887449893,-9.01418740983047,-8.462675835744967,-4.208415661335035,-0.5439608260954216,-7.58332175023763,-1.938668659515148,-3.959889004313688,-2.0937880399627384
-3.4096202083910647,3.817428444098677,-0.9535753211789836,-7.536814285516733,-0.4377778600310655,-1.0385015428672129,-5.40089207907463,-5.992960022876815,-0.9113915113980156,1.0806035288201912,-5.525154007556321,-1.9023899111171687,-3.650277854709582,-3.866165824028252
-7.354173808067863,-4.307449887710888,2.394502169539215,-9.243869847778845,-0.0922992442521355,3.876277847336956,-0.4812456556374016,-1.2806455112144803,3.920840245506717,4.165858949902852,0.0180533184608329,-0.8193563940436093,-2.968323626560501,-3.910859818567512
-8.585154852348367,-8.1835603618178,4.37047116517129,-6.978506134416804,0.7942985485712271,5.719462017631411,4.136428360583864,4.46152209673761,8.306300122508617,7.485580770286582,6.953275564831273,1.3429651094132993,-1.259964205781614,-2.39107629753437
-5.332979220104775,-5.63985426067083,4.803649329000655,-1.811503133047367,1.960530861924255,2.9847993636550725,6.666857668064246,8.780606612213333,10.000647877101583,9.556478785578667,12.20424592252708,3.879426299623873,1.9620025422416416,-0.387424780338204
1.3150218486543892,0.8619574398969903,5.244326661181898,3.0752558155017766,2.255259254852554,-0.5047231944486474,5.89210109505126,9.315082735209394,7.883765737958335,9.433824049130408,13.473424954622663,5.653588127759662,5.805849238887305,1.924626108739693
7.786474292047032,6.32613080932029,5.091254356377891,4.656204225976367,0.7577878709800885,-4.050252918098956,1.9350090585025868,5.550591525272509,3.004335904973786,7.450260257972452,10.613631826701628,5.744214376647385,8.309703160986913,2.8207834689613867
10.562843457893791,7.310938888347579,3.7735557620814326,2.4816198476423352,-1.9613716912297927,-5.399280602171377,-3.3674307098712504,-0.3909203030070074,-1.6924558814257011,5.268179589876624,5.749210644909496,4.044415098359011,8.229778549999665,1.5803209046161593
8.953995284036793,4.511340978746375,1.3169276185907948,-0.8419998959650741,-3.763644247707056,-2.083332163191481,-7.050276886241903,-4.7773704784475655,-3.0731003822204386,4.869463268262749,2.103781192997708,1.45793053257934,6.514707515334273,0.7749193600096489
5.619176706235848,1.671298534650127,0.3900392765265414,-1.7631090766163735,-2.484371752688688,2.3241885639935678,-6.711224013523783,-4.6332888631484295,0.0580077261031988,6.978984212964789,2.166572739749199,-0.5293351379849724,5.706605585915305,2.566051564603705
4.142566987087761,1.9438349493511493,1.0943137234578175,1.111934290672984,2.001107767948021,7.664147517720512,-2.44838836387391,0.1368196408029973,5.911652074310162,10.174934889615043,6.10496426246894,-0.8062517448812017,7.491727513754952,6.397342255313496
5.693156378107247,5.048319679055567,1.2559718264100004,5.581863802749673,7.041089043877605,10.439012030342006,2.565343386634474,6.446512764325888,10.6154146399615,11.657758635004967,11.29897491413665,0.4488487987611549,10.647455964267683,8.816326181992435
7.833510852854033,7.709868985610605,1.45948026334785,7.479598609272834,8.768474057818096,6.923684278608006,3.9082419781126982,9.915770523223486,10.592909151241171,9.316852797933509,13.530777619091552,1.6935462332015805,11.571791960950035,6.739229327983604
6.701625992319798,6.786708532541951,-1.8545928160082925,4.141381866321709,4.98682402600393,0.5882092579915086,-0.7398701792927795,7.741912812686429,4.867791429980819,3.480051858568899,9.530830831811876,1.1112918843624442,7.271691982724661,-0.0905483566809364
0.6738476838009433,2.114581427995759,-9.324875777199107,-3.211196883385341,-2.907980613059152,-8.012664747492162,-9.312819163053716,0.5745173711973877,-4.262068885180668,-3.169825346757904,-0.5293813040024702,-1.831019922600916,-1.750749057690257,-9.70094493483035
-7.817987540216762,-3.434403742259548,-12.36521626401743,-10.273392910888134,-10.668158466097424,-12.71005619067614,-16.372344713058112,-7.915472430128723,-12.617384942050291,-7.513284362272842,-12.498411218733636,-5.699801678407184,-11.418077339562345,-14.15949469058094
-13.99117801146636,-6.487967057025202,-11.428432819516036,-13.014508905578047,-14.15225862754214,-9.16496864179178,-17.058500975961792,-13.432859369096748,-16.60933804270593,-8.162388835167121,-20.54731210504532,-8.069554222269318,-17.0499853856533,-10.029862373160093
-14.436661398282723,-5.839003273697813,-9.075425183545285,-10.739905074593809,-12.190891697786329,-3.863981323323741,-10.89983153087138,-13.700600740369095,-15.134834357189895,-6.128980635189038,-21.016860613435696,-7.476302735971004,-16.83447653088392,-3.2034009966515424
-9.638543848017818,-2.9539081059916867,-3.4469876170411218,-6.301323797526948,-7.113944235440627,2.040353393288389,-2.219481938410624,-9.559938279467076,-9.795832494800152,-3.63700253699929,-14.947097843623013,-4.652465456488386,-12.785174788257478,4.455856944054551
-3.2962277348658944,-0.2570311383633452,-2.066786142863892,-3.4446951989513366,-2.6654262943128515,5.238418032716973,3.319043236363626,-3.98149778660806,-3.6013429314141945,-2.328609698510945,-7.1695079702798665,-1.8822777831036035,-8.522772326460284,7.790299117106495
0.6860226720640696,0.8967090941996503,-5.388641556275195,-3.749991264749269,-1.1506515267410862,2.5058194289552134,3.111332355750534,0.0559896632476011,0.7591807136535635,-2.427703992638655,-2.6068822291897646,-1.020951710549511,-6.121956590641474,3.922646562406293
0.8753580558433498,0.7220626746730403,-6.673158609704544,-5.780446533003612,-2.1005761927006006,0.400090541978505,-0.7575694876601347,1.2469078224883674,2.007551892973524,-3.286154725108986,-2.8212684569043063,-1.9761990631271689,-4.927113431873167,0.6467613346811667
-1.3279630032407963,-0.073402654152531,-7.512106355982623,-6.8831379552219545,-3.2489046054908783,0.3285722626141984,-3.8245760556221313,0.2277214725802139,0.3974653806030943,-4.399794779264852,-5.577292682781589,-3.010483850710955,-3.128346787263112,-0.5611430352589695
-3.4205544219772293,-1.436857871734503,-7.139043469712127,-5.713493465697809,-2.6686560063453584,0.4981612213118609,-3.188250168124341,-1.382828084140641,-2.794353876124262,-5.75072886008499,-7.431377248140066,-2.4972217513431048,-0.1886892381213982,-0.7615913921137566
-3.823643726056488,-3.875390345970743,-4.511806091092685,-3.1729091898955915,-0.2070770134769191,2.00129514286467,0.4287323447998119,-2.231242041507258,-5.928452647573586,-7.292415004953256,-6.737763096805509,-0.4312342211966324,2.401355648594759,1.0469774835000587
-2.659764277219935,-7.358852319968918,-4.043849747134871,-1.2032773489490722,2.726477205450564,3.3729873015877643,3.968912057916136,-1.9088805007986025,-7.592679785478154,-8.406615002521832,-4.456350934906993,1.677342421010955,2.645368147315537,1.918492633459383
-1.1370518505159737,-10.624611262976671,-5.4531318447164105,-0.8968865955017264,4.492839893642994,3.2424754401457525,5.03918647646578,-0.8453266470347955,-7.103147042762814,-8.156600850497568,-2.550547179267653,2.2976893826205758,0.1010224399846606,0.6166807951935849
-0.4710120066343251,-11.847183694579726,-4.785940963464154,-1.74620612615103,4.435570721687,2.7477514294939738,3.733120041882877,0.2315204222100249,-4.819463641460814,-6.207249390964179,-2.0090279537325983,1.2582679017892957,-3.645591593577152,-0.2139275836762354
-1.2174502399620692,-10.127431996827497,-2.6655312659011763,-2.474734306319448,3.1506919514947995,1.8360324211231696,1.9260973354523685,0.7888865666215992,-2.038113181356316,-3.450355827525016,-2.42535493860845,-0.2487544034417794,-6.425170215502206,-0.1953078779993545
-3.173754767668825,-6.3352819602906365,0.2287203958943585,-2.345691660774918,1.886455087784725,-0.9844219160261088,1.2041184563679508,0.6900973315897545,-0.3361785172799756,-1.5629289209892576,-3.0640963278859488,-0.8899603126030584,-7.241597631134155,-0.6968446000864856
-5.554995724455011,-2.467038061428127,4.594343257730593,-1.6309585179499777,1.6906977438847337,-4.653897614007194,1.5978903715642332,0.1323827140086777,-0.6277355550121086,-1.7536140819313104,-3.808087543952368,-0.355797487279716,-6.633139806984218,-0.7613997196713788
-7.277209429580992,-0.1514557441710025,5.295160201923796,-1.005937500878474,2.8605867511945817,-6.1343910546708855,2.0981661475284312,-0.5394058078018347,-2.5356217801946315,-3.7748978742870136,-4.900897127173685,0.6039212400868053,-5.589067201883076,-1.0280977906987436
-7.421198704936426,0.2989109919848829,1.9809258989944527,-0.7282472593392271,4.88037051785561,-4.716183735048205,2.022868632465027,-1.0317180839734164,-4.588444949298829,-6.08013308586089,-6.094381828641751,1.118909148742809,-4.463226465645043,-1.8953637135832213
-5.817878518939047,-0.4275778218506936,0.0173724559928001,-0.4969941567720113,6.73806278408432,-1.5918729266191174,1.6586377766311529,-1.2385296994868789,-5.197679911524261,-6.993127168812023,-6.5592431427973,1.0216462065153171,-3.08817012227437,-1.4182437224404905
-3.3304111306145856,-1.6328115193247044,-1.6527743455757784,-0.0229164695989396,7.420067056345083,2.51676414317791,1.648329663461876,-1.247104653714846,-3.74584761475554,-5.895929911537735,-5.855364294719145,0.7337668697210944,-1.734001158450987,-0.6815683486211059
-1.3917981810196045,-3.131869197600558,-1.0657200046706443,0.4353022744232753,6.4026554929811255,4.220954374861591,2.027961225222448,-1.2002595343771052,-0.9658918238116972,-3.5042868656081563,-4.757861925972854,0.5042964196747128,-1.5021448559541035,-0.1692700420832063
-0.9400175697064784,-4.849483062984255,2.867913263388393,0.2354945872471869,3.9769852320426535,2.0918044300279472,2.09412865646728,-1.1229893145305638,1.6829320089654614,-1.1481609678703366,-4.687084488446969,0.004288160503183,-3.3779158722302727,0.4169121704130459
-1.5786849855279126,-6.128439144662906,4.228091991809966,-0.8876738656850156,1.240041608701384,0.0451115835627639,1.242395654566525,-0.8828436378196525,3.1213110686868752,0.2125186285184099,-6.070374035815222,-1.1588873189464215,-6.787725106612879,-0.4122708136904389
-1.8039960435565856,-5.731769740315651,3.5294384122577327,-2.248490864717626,-0.3601620632687208,-1.3060886877789537,-0.2079339329957958,-0.3461314663997683,3.313471920850061,0.4317627924023561,-7.3813042455551,-2.563815556066597,-9.31640525307498,-1.001886979597684
-0.2829359961421627,-2.79288026389999,3.785813299910489,-2.5197109622868297,0.1699770059525374,-1.54989758355942,-1.1671360708124414,0.421817808986658,2.9763478024875987,-0.1103243517526078,-6.156190432375421,-2.853021456963164,-8.282293848345148,-0.2490822968105335
2.8411333240118,2.073330836781743,3.9890921290535664,-0.8236599978562644,2.6306401765235385,0.2919555788479645,-0.7860266972422068,1.1480128611718676,2.71065695692748,-1.0467162826994567,-1.2982738120838777,-0.8056660812936727,-3.0210390387089987,1.244583904646718
5.821074824752387,6.628939071719838,5.606872203443222,2.311802970451041,5.545188148380106,1.4600727917996092,0.7262635650743405,1.590729435273051,2.4649932965664263,-2.215480291620576,5.496884697246017,3.2614838018268806,4.165627400159423,4.069695916515977
6.62143268137293,8.269115025385801,9.085019039744047,5.091825298908766,7.022515800171988,1.3895510759950234,2.3040521709118598,1.8008744652339743,1.8724795616596808,-3.372040851343492,10.721684992818789,7.204292068737999,9.430124215216104,6.493219189525027
4.639051826773809,5.9046595203245005,8.081584002157584,5.749447707662597,6.108666578883245,0.666055449879253,2.987408844245742,2.106750068942546,1.0506696339705217,-3.8546292964427096,11.753730263913766,8.43921629822863,10.146610562972384,5.430298773698061
1.313233849756969,0.9973087212009232,2.563705451803788,3.957475241079557,3.56518511155312,-0.7039188418238423,2.6384112456634625,2.7714437699135246,0.8900638450374316,-2.746920287001707,8.924162503265975,5.984487173197522,6.774525275145734,1.4793744604216363
-1.014273660353183,-3.271557125147765,-2.4993555185356904,1.0772999685000144,1.2626449986155135,-1.5736149122104053,1.7635144329821202,3.617164228806218,2.3149124071329936,0.3858518583324155,5.121075076560373,1.356587329177955,2.295846641382525,-2.653835432768428
-1.0809407583679729,-4.284749236871704,-8.374747447576402,-1.0439715765697315,0.5310037518518698,-1.799567081301934,0.799856748310873,4.000118360668495,5.111290282713739,4.758037742424151,3.294340839981345,-2.571757001342263,-0.2405933915418501,-6.672930599370197
0.2426530390765435,-1.979666904276101,-8.384329288473957,-1.6268765629283737,0.9008004808203224,-0.8027615406003682,-0.25918364985381,3.2488473507231674,7.563061154190947,8.408155212589676,4.088393957665488,-3.821571635405476,0.0460002493006754,-6.675167623301461
0.8863000291522951,1.203178968525549,-1.1698705919683636,-1.361760269753006,0.5306776034023244,0.9309659628854926,-1.5120209046105373,1.278205535689466,7.557896933286457,9.299652700454246,5.665678262921247,-2.6916770590709973,1.6913409151556067,-2.559830261163266
-0.224129039296514,2.5495087442633206,3.307574434273328,-1.2626095023254609,-1.878406091127971,1.3690460077172288,-2.5782664808150457,-1.0989136920630926,4.438325486996945,6.8369031252089485,5.784513484233429,-1.0944208737263494,2.7394909231403943,-1.1502183370102377
-1.740161763631832,1.6128190711833383,6.613845210666536,-1.1789602247265378,-5.418753404928054,1.5762764545612695,-2.6028125295325424,-2.478560104728942,-0.026437579527851,2.6165481432322224,4.16865942943214,-0.5745074820545,2.7997333504152664,-0.2388308453516852
-0.7863579227601889,0.6885051053638449,7.186882235759896,0.3638469331171876,-7.301879400135292,0.7570371807892715,-0.9994035966531244,-1.7008111502577776,-2.6291750444466544,-0.3716542358966563,2.9472508210409387,-0.9507610564094052,3.351087630051879,-0.4399842986673566
4.305321285705929,2.56545703089202,3.025008047228953,4.594589931895939,-5.168016735270399,-1.1510217723539309,1.7523641810824984,1.2697210215574586,-1.117941094272254,0.2704782075485923,4.673744040262704,-0.8395053011745972,5.9999215368322325,-2.8570437797914265
11.766515401813765,7.484273623499831,2.652107619434758,10.630929485256132,0.5577905412280302,-0.6873540552944202,4.118007143886189,5.04153088338262,3.8798197594532553,4.551168530955039,9.63727764983406,0.5840565762661925,10.36488757193044,-0.3036051898252497
16.91027184454532,12.219795324682792,5.437437736050915,15.311464268925022,6.4456117951752105,-0.7204844012497512,4.497982968107891,7.437238952093509,9.050427442259036,9.84357961377924,14.936424557295595,2.4605200443021147,13.729670555223263,3.1184216202856683
15.427284298267296,12.446112356774677,6.3528101503345455,15.308217071806752,8.389204334003068,-1.0178492892252684,2.4826706336655207,6.84606858638233,10.700974535072874,12.47504459412383,16.3865338366262,2.9623928817707963,13.06260588367067,4.397323607167675
6.986434398681638,6.512855744321399,6.821811569218969,9.94508804105439,4.69401872856389,0.334070156604651,-0.63742597313734,3.4485085690567416,7.458605074939328,10.095016365903632,11.904048185983754,1.1695241123766775,7.773464915628637,5.567777841084345
-3.889442161390861,-2.7052674354707165,5.770800720393409,2.2541715664285675,-2.5279419972546293,0.0149897279470798,-2.5907664926588723,-0.6561119024317179,1.2873808267546565,3.211334579878496,3.584877152490577,-1.783195755277717,0.6918654917314484,3.237073186925428
-10.664083127248915,-9.655288642872222,2.460579661430065,-2.90978662338884,-8.728396565597023,1.8861316392069991,-1.6599015453273864,-2.7615584355348237,-3.957936218234238,-5.100905156727578,-3.461009900233705,-3.4969835609841766,-3.8619416227907095,2.1332909339076296
-9.339967445887028,-10.2028076238216,1.3869966426313292,-2.430756731606209,-9.98328218793037,4.6160793524663335,1.9930986145461416,-1.5527591050134788,-5.343884417519973,-11.053316546841728,-4.893929357310498,-2.379378539571689,-3.493350266990916,3.056139461933608
-1.2772297385783418,-4.60274406888874,2.355303012771099,2.6234713754112136,-5.52017961046775,3.911948774783321,6.168877344202457,1.706273530446964,-2.9360776202550483,-12.310285848139898,-0.6583239016877656,0.8928562349282458,0.251834527131848,2.5037350656902904
7.83927721695369,2.983537592893981,1.2581138652058572,7.722071748412873,1.945958223117941,2.608994132692824,7.889170328690909,3.92078895642328,0.3687665422193049,-9.12362501447518,4.719575126707497,3.844056369568648,3.132556868418561,1.8239405008586056
12.033200613563338,7.790769407250991,-1.210280845012876,8.32966259355888,8.114275047392027,-2.0184082747810788,5.367299698341071,2.5398835124681227,1.1006912664072956,-3.838137985723506,5.596785508502222,4.1812428781204005,1.8150772138114637,-3.499240353368455
9.033847934561948,7.751296393407983,-2.947257223774585,3.4461512362287863,9.853328839795552,-6.650913570859989,-0.6104931765314632,-2.206418449153574,-2.1013216437646065,0.7786017322039811,-0.1108216142616527,1.5808438484288845,-3.18634037165765,-9.059165407715891
1.439573017553215,4.332654667323482,-4.502459583327663,-3.57358939352298,7.016302760011541,-6.015546430058768,-6.958347605430475,-7.132227077197399,-7.344448285783272,3.228010530675561,-8.849887824816165,-2.150759998697197,-7.796852364930089,-8.949511376801745
-5.474552070178277,0.7345361724964903,-2.88770968978971,-7.599451038643707,2.23232104657626,-4.346512337324999,-10.204198309242033,-8.385358342531703,-10.738642670732531,3.891039716568287,-13.90765438018184,-4.53421146138345,-7.73678758575852,-7.733230823337169
-7.439954385892463,-0.683812504547717,2.5133082576009693,-5.669715766163364,-1.0831688199430118,-1.2635395215323095,-8.784971606314343,-4.510504243396099,-9.198470574866974,4.239550986719507,-10.710170305212444,-4.208157597603332,-2.128561474169686,-2.3175682715110346
-3.7424040789374544,0.3029841980751939,5.147890474287645,0.8228945009498432,-1.098494454526275,1.6026248594912529,-4.041932226872433,2.2426664769066638,-2.78636146269821,5.348717378788308,-0.6909840031622139,-1.6913326196733465,5.693695195926864,3.634316163539213
2.836150612228437,2.352873502365469,5.50666649095657,7.366231229296801,1.3257056095005453,0.639610279607663,0.8692850114695716,7.559797462540928,5.133885274834711,6.926339363479826,9.555161568938104,1.2573334694051257,10.80078308072524,3.1244848059066714
8.2182567171308,4.001691851787399,3.9406027551855134,9.84856901890754,3.5261644628875786,0.5923434821279154,3.310723102909293,8.355311485522748,10.104976452943845,7.642144707841425,13.264501435979298,2.955431638045809,10.41640684840715,2.7530281265387515
9.64504409034808,4.6437562640228975,-1.0455786349243266,7.454169566420234,3.192936148124801,2.5901163736888804,2.882904388910504,4.978309873602598,9.570709736942264,6.441227708354376,8.573931223878219,2.748469688578893,5.665447242522532,2.466852506694329
7.048246332438154,4.509009545092681,-3.884981993298426,2.739812147511685,0.1301042477524276,3.510919480310097,1.2293798647957743,0.5596166113013936,4.481993178975927,3.656491965365376,-0.4440709329418837,1.1008935489547298,0.109554804152566,0.9398473669740788
2.5830213914692592,4.054297876127464,-4.736307044782143,-0.8246684866737439,-3.688393111936364,3.5747168365146256,0.2989582007682685,-1.74429350483652,-1.599217499335083,0.8807689152250475,-7.4083236497409075,-0.9191094697914792,-3.321742302664745,2.3967869866656133
-1.0929663386379644,3.457284763998487,-5.507232299026418,-1.5621049102674078,-5.727266615513983,2.273805073567549,0.7273440975161805,-1.1007134469080313,-5.104338800766783,-0.3542649977187153,-8.639606778131736,-2.231697111403492,-4.25201919097897,4.198505593140298
-2.5804582996703687,2.5228549946880605,-4.990587639000629,-0.3869680895837604,-4.85620615899785,-1.4751691365027797,1.7029823851278962,0.9540891949766036,-4.747560881231095,0.0419772511251324,-5.397746704849752,-2.157571963518336,-4.282228212194383,3.869071210649116
-2.460136791757712,0.8983212479273348,-5.392067446768627,0.5430889693656837,-2.1685047755204323,-3.676337765174026,2.1511761003640477,2.3954017836303194,-1.8992585767253445,0.5289040657555404,-1.9200111292250028,-0.6998806525737464,-4.968326653916137,2.613679028520321
-2.6080194910339074,-1.5962666548619495,-6.793071367443804,-0.2263858306761363,-0.0897517924783386,-2.258828231906166,1.8588426803088536,2.4724472273449507,0.9230823632614288,-0.8071290206305832,-1.4854944749541232,1.324601526713927,-6.471173111962244,0.7263665631244738
-4.627728573512504,-4.656647359002504,-7.698606754978338,-2.582118002144215,-0.5192614108643596,-0.9644376745544784,1.4453561282241942,1.783232677229476,2.005100882324875,-4.52507055563196,-4.024738411050615,2.5659613402324126,-7.925014978021055,-2.396154545084693
-8.498849011912348,-7.402810376572939,-8.56490333935739,-5.419509760236547,-3.428961649099521,0.3551131958403242,1.4414359715210638,1.0201692990945217,1.326477827223497,-9.0459363791524,-6.915650363140289,1.9632852126136084,-8.699823910387721,-4.993992958109133
-12.424958989053806,-8.761482536507248,-8.14359140817789,-7.725310789702085,-6.948102900836194,1.2436494315200035,1.6525265056959064,0.0491000155108807,0.026551827676311,-11.51797327037082,-7.660822250909586,-0.3494201325457169,-9.00669776470643,-4.436217089427151
-14.04425761084086,-8.272232924981608,-6.150424243491938,-9.1206555655019,-8.812460315696484,0.2159963130032601,1.5168515025333562,-1.6207497603458734,-0.7422629993791929,-9.767112532181017,-5.846823140502146,-2.9035423454637908,-9.269419649718737,-2.501716221420864
-12.15305719945134,-6.698791277503744,-4.192462491981413,-9.667103999417066,-8.027361292953472,0.3406344629608555,0.9411326952640168,-3.645022513314686,-0.5402645257328658,-3.936847911403362,-2.944679816145154,-3.8988329132803017,-9.145388925389328,-1.323143364543196
-7.64968102008298,-5.660988345617213,-1.9435330073644053,-9.472940015672748,-5.470369011974412,2.001970274534334,0.5470604564973485,-4.517940560978701,0.3996325268583263,3.386155891441831,-0.6376215443616786,-2.6433075521233604,-7.46169609957154,0.3741094238595093
-2.9401851279696984,-6.245567688593383,-0.3460409475137428,-8.575614682549201,-3.0555863426506846,2.818930890080529,0.9865674792396816,-2.7981879120656004,1.5749373523377417,8.713012253565012,0.5596006584997326,-0.1416297852116486,-3.322110454269108,0.858119541857456
-0.2156723263819344,-7.699288582279138,0.2509543228628735,-7.052529993407859,-2.2468947956449767,2.5242257275415567,2.113984112351716,1.1985776957571943,2.473444674275555,9.84254044244588,1.2874244033357345,1.7760656767339924,2.642736173403847,-0.3257815330947384
0.0911366821158878,-7.624076040466377,1.622180157640619,-5.062411648207103,-3.1520691536396725,0.6570214494022517,3.0133979824344124,5.067376408960769,2.619098292510529,7.199970963525914,2.2855079125871782,2.0133247536610384,8.175065438885781,1.0607906544934371
-0.5268056312674503,-3.933364000208144,3.501669282796459,-2.762483016782568,-4.789825980951576,-2.755343957351449,2.9277994972047736,6.005676045372752,1.6758751238350555,3.379375920424849,3.491162808636261,1.0169424194925227,10.743866514970932,2.205961200865596
0.0121073951434027,2.924745327558412,4.648709622483156,-0.3250925556326365,-6.052714241899878,-4.714721610137786,2.097054275322193,3.192873673383588,-0.2652724517447495,1.19989447947313,4.129156602877799,0.1620648330040808,9.35253950922879,1.1844470748412532
2.602084724201518,9.572735293697464,5.266075034043926,1.8538571730229592,-6.413885871220089,-4.130301744802988,1.556411135722897,-1.323900559855133,-2.4830573491205428,1.6774949078391046,3.590281269376589,0.4293733816678582,5.340213663185068,0.6282192488418401
6.158465271555542,11.847427910487,5.548211784605787,3.0403575464886785,-5.906424161829477,-2.7588217163360502,2.0509313430463862,-4.181822183313386,-3.871725847500443,3.4075897335440004,2.1722006322638663,1.6760793703984973,1.4895668796403925,-0.6318883123727439
8.453439706107929,7.932024279239556,5.270236762643155,2.49985496186838,-4.714797449813318,-1.0564726610096633,3.189011036741988,-3.415525232370385,-3.627504369564861,3.809249288263288,0.9423951907949686,3.0506232143599163,0.0922427366319311,-1.266731775383808
7.907609929569446,-0.110099598550164,4.781610812069588,0.1917049121908007,-2.977256279764162,0.0517192600673025,3.754642076544883,0.0422832321419832,-1.8828712293521332,1.2485914996610743,0.8324114636877198,3.9163086467849553,1.4357002302808723,-0.0264199161597824
4.871968293746591,-7.732749472103023,4.053961778221456,-2.8023391199396883,-0.9431618150493932,-0.5236412116889609,2.9121012628988865,3.3448675584629086,0.2713185709968684,-3.625364727107524,1.7901680701736495,4.277264736716575,3.816587424292038,0.6201722650172041
1.344982380026977,-11.09974378393622,2.4777093435304423,-4.695985262604722,0.9005112770637425,-0.5756555040433697,1.1016889914174044,4.211885733716372,1.480582122963824,-8.347011939286404,2.771818611513368,4.405740847729248,4.977878302270483,-0.1220813820073863
-0.6210007024119477,-9.464193926820483,0.0616883239389447,-4.129926590221885,2.087702936439655,0.5362719048523192,-0.3001386791777349,2.648927372234425,1.0596610390375645,-10.446516939842011,2.617863548699916,4.270138289012039,3.8076891688897376,-1.745780027357119
-0.4533902830232819,-4.94287019881358,-1.0020218766713171,-1.1592098823057313,2.645296119938962,1.5631700522463323,-0.2576609908257978,0.5210645199833834,-0.5048770147724326,-9.101206672262492,1.0937402582243294,3.495554541345655,1.0529084478395134,-2.6459579155362665
0.7588177081561298,-0.2179171349341686,-0.6551844024953778,2.7507448390110767,3.2424453443520638,3.223174925897715,0.9555002543731916,-0.3459035221560498,-1.824599045631544,-5.375990595072608,-0.7735058944621187,1.907014529160051,-1.348264137487604,-1.4423551120626366
1.4751954663001925,3.5775538754243144,0.344521888800994,5.7424840773061305,4.707986925960654,5.352149578499693,2.042221113766459,0.3387544907110396,-1.4740250903849983,-1.0935796971083391,-1.3869898594274446,0.008467306108173,-1.702070851187159,1.2451778313599038
1.0594700625247242,6.920500425634145,2.568123166507965,6.744787599967026,7.216991300902805,7.183446227404558,1.9073527333765696,1.4277682209834666,1.0567619633501408,2.482349710799099,0.1434378530857429,-1.2337296245617608,0.2475618783213349,5.046880533230602
-0.0190573889727829,10.137791919069514,3.013037835110843,5.8704771287355015,9.841286172223365,6.760770388702728,0.5649841370820923,1.558805940970842,4.843906621901283,5.001736397877721,3.034754070861595,-1.227956251318119,3.0616049402983663,6.732638272226716
-1.1612739739844071,11.909954077650582,1.4858523569372426,3.888301789533898,10.958893418993284,3.3014356036851717,-1.1725921775496315,0.1621132682389543,7.784707692450297,6.36975416247833,4.95974422829363,-0.4462732126620494,4.378529719640028,4.580686432124715
-2.502923112431972,9.940548871212172,-2.02527031138586,1.4870880549749472,9.358960268511623,-1.6097484094101124,-2.810376477746672,-2.4839782259386998,7.6573788365788,6.071051606657761,3.437329154466852,-0.2109071270548383,2.321409288527775,0.5351710204907691
-4.502419700353357,3.5005813983093503,-8.44852250205997,-0.9031087819460026,5.268888717843993,-8.337739012264786,-4.789167016326928,-5.746563404465405,3.5646203403960044,3.424234612105465,-2.2196461479779828,-1.5989163515432665,-3.162603200860985,-6.119465845772379
-6.641949751205743,-4.639992634872442,-11.325909490327104,-2.7604183598531336,0.4627907029343987,-10.963923781916586,-7.837079494269801,-8.92679997601897,-3.1086572381821043,-1.3659199918483864,-9.760079398457265,-4.361000933210221,-9.856312984974238,-10.349437433078766
-6.955479202046888,-9.308740678460085,-10.534299097943094,-3.32521357970802,-2.7775295794304498,-7.191354598807012,-11.717069311811258,-11.218835665459892,-9.09928018865287,-6.499038268646586,-14.842432360730696,-6.889665283013471,-14.25670946797294,-7.922302642109066
-3.5157955108175543,-6.808327333873592,-6.450721606913778,-2.151393854428534,-3.1709930548123566,-3.8934874096527774,-14.823301167918828,-11.828264595628582,-11.126468983694052,-9.2218051169491,-13.794192932545856,-7.431831337417634,-13.676556874716256,-2.4265555094972915
3.1653372782151337,1.6189049776525053,2.7265320970768547,0.1267073033403676,-1.2640608903346902,1.1240753682061149,-15.291792265711138,-10.495356685357024,-8.104867842964154,-7.6237392934308446,-6.529406287591883,-5.589396052964958,-8.169438933976835,6.607853769851693
9.380823300700284,10.16559837190357,6.750023239381229,1.8426331451996705,1.1127930052036843,4.604831471445321,-12.682708559605317,-7.93558940996877,-2.034045448701136,-2.21816500701334,2.762827961718358,-2.772011505548789,-0.7728957616318439,12.87356059011968
10.570981166572096,12.906981194744048,5.492360171733592,1.5130088786520446,2.317109017234088,2.7338387710518783,-8.572842227154638,-5.529669391296693,3.290118670504853,4.061015740449307,8.174235081067877,-1.1122699375538332,4.379760833978253,9.691596310620442
5.202751205518894,8.659550258635477,2.7790278613876693,-0.7549827359180199,2.0358724577324665,2.485993814513109,-5.385178620672377,-4.338034226081163,4.858129191975536,7.599970289853559,6.280750003701428,-1.7236955139358088,4.856554851973101,2.367411826584421
-3.3331196397315352,1.825299833100189,-3.862806947399993,-3.1252022990393016,1.1396426231839314,1.955940407706368,-4.493158706589611,-4.3431308731940135,2.317195261634424,6.357599458523396,-1.2491365152600338,-3.804068310448656,1.5473931878799476,-7.166929004684796
-8.938704909046919,-1.706481822494652,-4.983602097784436,-3.5414810251853623,0.5093084788010174,0.3436747737527341,-5.313966681534112,-4.693262806343455,-2.2551274587908665,1.0337460442915472,-8.864024261800296,-5.342629939074868,-2.1597448429362203,-12.869110672203416
-7.548011072762847,0.1337741134182124,0.0470486561152794,-1.5800592888579104,0.0690499955837822,0.9317843458436076,-6.094724831812755,-4.677775777947431,-6.211112318640858,-5.546283770176956,-11.305583315246396,-4.768566775274849,-2.9943584219789727,-8.669007992365854
-0.3032494748164254,4.0810752145200695,4.117239062405696,1.1529363517780666,-0.9860929830898612,0.9390551489897748,-5.495566472698215,-4.356776631284674,-8.05175174660701,-10.195752244164057,-7.394044408357672,-2.103377497841052,-0.1498320404944024,-0.91734143838992
7.6042435940552195,5.213156986453896,9.393542328807998,2.5336389861179214,-3.023987731085299,0.3701444946544335,-3.4936634791472443,-4.160797677913706,-7.681247140639925,-10.967809936617527,-0.4178341585399039,1.2802303813080016,4.413529509817749,5.993875641167872
11.248332106631436,2.1234632094679,10.194097992154465,1.9051647311943043,-5.129729351082119,0.3522724858129605,-1.0033790499417137,-3.9818133479844846,-5.515785178412102,-7.704600832401638,4.940821981793079,3.906596092044083,7.772013901852688,8.353648318406957
9.492971969806604,-1.638145781864182,5.20216646839909,0.5965196911051862,-5.574759873511653,-0.5667912117303151,1.123412259068573,-2.937123543960979,-1.827043950643088,-1.6194609160295386,6.321568465050859,5.250703548843035,8.344332270995437,3.4476356654389058
4.849490276313418,-1.3857342483847788,2.937563051414788,0.4740308890524147,-3.3060473773205103,-0.8486067377461811,2.6681533452781423,-0.286741998729326,2.881394786652095,5.387483041384996,4.9327964493231775,5.734527898599481,6.835014749097695,-1.7966561579664626
0.4526620018913263,3.441198833937335,2.0308279577541555,1.964081746497868,0.8973442162721312,-0.0583439768405808,3.826703811534344,3.386312433590092,7.141648758850181,11.191878852181674,3.642263750251289,5.8801676813664585,5.222298700115857,-3.24636082013088
-2.5450522389114667,8.018483081802174,1.031229906391261,3.490038514306832,4.739391422370545,0.2986016920057912,4.6931884435283,6.137820922758749,8.750982085102066,13.816251955432108,4.019144145523683,5.59626263217416,4.851176960960515,-2.124593518960168
-4.863330781040816,6.461398553744004,1.3396388524377365,2.880098907610659,6.032612969381489,0.1924787478290451,5.083963630912706,6.134413854639661,6.293648977672831,12.082520668550728,5.072169889032921,4.342199710243733,5.3237616775429615,0.7864518701269226
-7.105526257699239,-2.3037554893880383,-1.70726826289951,-0.5775376178146416,4.289371307091017,-1.1894254181771735,4.800275918493412,3.3921184526481625,0.6826996894511126,6.437342535036464,4.555609466942883,1.9534284077102484,5.034258817025886,2.2516062114767124
-8.549899026004482,-12.913480833201788,-8.260798849462857,-5.323233732890628,0.9591225662735496,-3.337352991449804,3.923875638116385,0.0460334090039964,-4.969469668000897,-0.803916423609337,1.293018345690541,-0.8055850902110819,2.7081907166318047,0.379030407308862
-8.081949954257652,-18.015341936911,-10.229531189754844,-8.653478064524705,-1.8150480193319536,-3.521746818623703,2.7968837470832,-1.302221738048189,-7.445578109769997,-6.465582527524447,-3.719042339131136,-2.646809924590343,-1.4636894004939336,-1.30191561434585
-5.918374951676611,-14.734353679479,-8.11161873084674,-8.742727434836468,-2.7828707274692306,-0.9829880929717154,1.7694992080029692,0.2562926509154977,-5.8346023584151965,-8.425427692059657,-8.208342238358796,-2.8072836297338317,-5.960106725718447,-0.3281556006616333
-3.8051678991421625,-7.074357686289432,-5.192275297223596,-5.836152639175651,-2.1862287826059514,1.5694917152374874,1.0468494187095985,3.263199996958804,-2.102119004422093,-7.031776470223463,-10.369325683674816,-1.702871129497339,-8.991567897647514,-0.2038724950417251
-3.233676551221805,-2.0245008113912206,0.1708225217524928,-1.7763407887262872,-1.0514139860117666,3.757755762183566,0.7640929643274887,5.3252779629659415,0.7462079072112431,-4.724440495210928,-9.792527046517336,-0.4973364964212976,-9.49484479419374,-0.2790392532494558
-3.707350047451016,-3.134768031197908,2.089236415685682,1.481202964722442,-0.0695883637847885,3.9453241448379073,1.0716302639210085,5.271166481045654,1.2266037012934845,-3.996780552084232,-7.1005298675990645,-0.0215644638761602,-7.444671948066968,-0.2676463731220939
-3.2424082624835364,-7.627435159052965,-0.0516591803695391,3.0107143343866625,0.7950029711309412,1.1924490584770373,1.981259082223147,3.997304710173154,0.2992435396013491,-5.35735437794294,-3.1699442821118,-0.1756790650200344,-3.651837140926872,-1.824780733593235
-0.7658531807461415,-9.551152147877346,-1.114118805370825,2.982080227100816,1.745833345419669,-0.1173958644002565,3.095252134987682,3.318777486899876,-0.0760520158933815,-7.035437833888366,1.1086857829615795,-0.4033373249464418,0.5310696128639876,-0.9530229529646398
2.3039279566596065,-5.645309123986259,-2.497394202441193,2.0656678847243803,2.502263499255889,-1.1133788222022052,3.658256018550041,4.112246512090458,0.8877158036346309,-6.624126239921832,4.637325278931744,-0.5941141083196513,3.5650566037680704,1.1600374666530486
3.375118886287336,1.8107195973573007,-2.453658046609352,1.046672701345134,2.477411328645509,-1.917338014729201,3.164246777018832,5.637635101694506,2.206001202428429,-3.122724149072056,6.305449152987887,-1.2493587080941833,4.38043731005568,1.502471678927528
1.758725689779613,7.640998676625802,-0.1869688829965221,0.8936166987075858,1.6656414605371277,-1.2567205421384522,2.0898228570908,6.596561236667039,2.6311791268964626,2.389006430745333,5.823153302384595,-2.62176028152844,3.1690743010658977,0.2195099904963376
0.0584893986068095,8.906390587134041,3.971894117654254,2.670806492534325,1.1325799216133774,-1.1186810266293443,1.9084160530366745,6.656369189732853,2.440437758776429,7.77384463008401,4.3156221393207375,-3.872489100994223,1.5457684831992466,-1.4633135365749266
1.8586131086172628,7.295665408773615,10.869146381366962,6.742031422290111,2.2584879463096783,0.5154130751843586,3.9992249479436737,6.7467747674141805,3.311525903879044,11.319297011720892,3.6632544992205434,-3.4813052833745246,1.4964067243678087,-1.6010620250172791
7.678224488126091,6.613642547831418,13.7638876740852,11.75790533537237,5.249192442375147,2.694461915643016,8.173283696057595,7.82324996402923,6.221615267654784,12.326107496839596,4.852808141638676,-0.8012475585863115,3.670480280312205,0.4526114885598794
13.476974148916623,8.284251822732358,12.388643629009664,14.733074052562912,8.443717508575872,2.7858370086898074,12.239566389890555,9.494107141448282,9.679893183360178,10.736094253309544,6.924936315496495,2.824598272491727,6.552809212531102,3.8999576028646143
13.84317202799933,9.693292920842708,6.445147661458287,12.876238076720028,9.397570318018694,1.3912036884461991,13.404727585320671,10.114572715720314,10.537482115982002,6.8317236890841855,7.804359377671744,4.827161525482552,7.585569364882431,5.407023641796251
7.23772467420801,7.115998455940925,-6.103334311281967,6.056323002284231,6.987324243370523,-2.712419030543176,10.647387254170807,8.423322025762928,6.971335083707004,1.6628740214398476,6.432939216520381,3.665202707187575,5.531111497558484,3.78744882281695
-1.8305898394095836,0.1517080107854553,-11.034008949444306,-2.335356432002328,2.6030727366596977,-6.391936721334346,6.017661748947958,5.1018420681474055,0.7256555682164958,-2.506807907470858,4.098132399144276,0.4790773507226902,1.9332122702825811,0.141490946840528
-6.228528806422474,-7.046033655557352,-8.140557460724759,-7.381129833015109,-0.8306823907772412,-5.375982034126952,3.408961876585039,2.542313055644513,-3.908775203224821,-3.020967140596298,3.4185783910489533,-1.6345173432536626,0.0543372960521821,-2.698968231865726
-2.4012428141158466,-9.260380686372116,-1.9677936181997957,-6.251466462890193,-1.2738768663523388,-1.6056980886002046,5.472458506984992,2.7938555991529483,-3.778521779719483,0.997350202293262,5.719013485409221,-0.3168152613933728,1.9192650339904844,-1.5677444794224875
6.300731496931064,-5.148099613538307,11.033300749745656,-0.5037494449201461,0.7028071364331083,4.203298777772025,11.160329385543037,5.507829889480149,0.1445575116608211,6.9353230083137305,9.266421087576449,3.774855568682256,6.042511130294372,1.739040603808026
12.283641272746934,1.2338372201565164,13.544151558513033,4.994497094937344,2.44665857961823,8.07965679511604,16.119088514160808,7.889903210226123,3.3969510189887444,9.627770190413427,10.231073548365655,7.260385781609074,8.11062137298245,4.249228894447876
9.992920537876046,3.937765914391832,4.539854726422646,5.764031324227886,1.5410507879984152,5.706034396399762,15.847941122169004,6.920885063764217,1.890851720542912,5.06322889031955,5.786761226029569,6.775900287860196,4.4002680040659925,2.43851210152027
0.2794143194750518,0.4196359088247163,-6.008664900225677,1.0380003485917657,-2.15172980957712,0.6375720474746908,9.152658463390251,2.0024932607926478,-4.39921000854423,-5.864439962263987,-3.2344055954665123,1.8171274333822964,-4.801917734963695,-5.974310494254159
-10.694173502168836,-6.362887878062196,-22.35830415999284,-5.930095386195575,-6.497051241799625,-4.706763707088405,-0.902623806721664,-4.319457914672995,-11.224430250755574,-17.025934123482187,-12.42493871414294,-4.751683657056958,-14.75049160274935,-16.35234067057952
-16.56257017827454,-10.923517294988358,-25.800976944386047,-10.63439024371749,-9.045792373790732,-7.122543910519223,-9.287729588678502,-8.283467355508435,-13.51772953096949,-21.082874372793952,-16.657361641069258,-8.903608779931915,-19.378068707718967,-19.32099670800682
-15.219301326707438,-10.2836420690507,-14.086834498918462,-10.730675507245252,-9.116346729181656,-3.9695053026471294,-12.64058668421552,-7.909433305720171,-9.52519130166894,-14.983698593101764,-13.550570932053716,-8.45537768893567,-15.666462183844004,-11.14329622808962
-9.186659259447223,-6.203985283693328,-3.050611539211258,-7.366887807945233,-8.129952929084737,0.168003526995861,-11.369101103199426,-4.542354617773668,-2.162024625784369,-2.4532981198087214,-5.030152356916631,-4.435880006193514,-5.862901456914983,3.2964502852652138
-2.4591854384210023,-2.69271178765311,12.017167234949516,-3.6495127138554153,-7.959794186002512,2.700554394269164,-8.766537508817947,-1.6864759434352834,3.376150325406968,8.679400761383533,3.977658821994368,0.0704620579695358,4.11107686002012,20.094163410990333
2.767579889146333,-1.6289325043392182,17.147769411088213,-1.8516148101570309,-8.884759743922189,3.537381808299988,-8.138024413306653,-2.1836521063220005,3.61906200219326,12.177774272674242,8.63149369432054,2.390433000812493,8.728070611332726,25.98990777746263
6.701373791033916,-1.1171412452719096,9.247463697591837,-1.7965378113713086,-9.122072779109828,2.247821414180199,-10.338118272278592,-6.078615266959531,-0.781946482129797,7.540729788666539,6.942755340050411,1.9898481676685265,6.320872533573947,15.727305741537302
10.07730557572674,1.774329178632172,5.4384597422533,-1.6088157543832151,-6.489872336801682,1.3788465330039683,-13.482386935389655,-10.754460822650316,-5.914787650025687,-0.4430822576547939,0.6262241939146804,0.3349766800096176,-0.3757763213683063,3.568574123899158
12.234379280464594,6.884513037776458,2.013833116999955,0.0804783288460555,-0.7668452160446009,2.964530634076646,-14.714270262180122,-12.961656318904772,-7.699456822267734,-5.810774598288958,-6.197121289931886,-0.6166310051735309,-6.557390309727111,-9.462412233938474
11.204016430165607,9.997243890126724,-0.4770478896756358,2.558638012733411,5.445935481946407,3.921424752059769,-12.42278033196274,-11.001091123428097,-4.676995211406194,-5.553408089272381,-9.456275356203603,0.0824990754818202,-8.555343609220898,-14.942994288048649
5.639823426074798,6.447244153445695,0.5726819124225109,3.506918055445737,8.353343371757148,2.452152494582681,-7.26816732607594,-5.568103044174791,1.4054878851491708,-0.7737928176637752,-7.314503946688433,1.898181356245089,-5.741728513545468,-6.555161019064746
-3.359991206652708,-4.007822266021137,-2.7800530967919563,1.1028704018887652,5.9044233140844256,0.8418056458180831,-1.5254268893154972,0.9401005083670242,7.193276717317247,5.143723672369731,-1.0012035424577164,3.4223566841178297,-0.2858991598745604,0.1282259092252294
-12.297510715670072,-15.866371470363871,-9.882356045854976,-4.108359798988914,-0.3770104239154221,-3.05289487641474,2.487006353805512,5.820167941602961,9.979057986956915,9.100345084264234,5.994837282249861,3.4275635833776903,4.56556588166265,5.326294285482941
-17.254624919308327,-21.7217784829128,-11.97905573231508,-9.253004806690711,-6.273107956619896,-6.4030915486190665,3.683056106270868,7.26152888761041,9.021651080242762,9.558441395160544,9.829377227650513,1.667238115714838,6.347558637976974,6.4435273113577685
-16.330044787413073,-18.063907750479345,-9.90658754526658,-11.14490083418022,-7.864759671732656,-5.624054585176682,2.466802797040131,4.956200693344982,5.3881864819581295,6.350124715688068,8.256753303564523,-0.99071829432674,4.345258571720834,-1.807694831097925
-10.836789051766146,-8.031872550811968,-6.809015002266421,-8.677390273078444,-4.316553198654702,-5.280642656773214,0.098050068292764,0.0997700379350732,0.8826751485394624,0.1473300836590425,1.6252011561571609,-3.155649788031198,-0.5770209798036916,-8.116037230321245
-4.5276037838524985,1.1393966566949416,-0.9990877491606712,-3.665720435683411,1.6726247563647831,-3.4556990832232444,-2.170663982419896,-5.171978130998625,-2.9966859459010635,-7.61760347676686,-7.504755865029423,-3.9013304496533294,-6.836492129995037,-13.107894755759382
-1.3456033242865288,3.658518621663333,2.742454342862344,0.5241232471007748,5.990494278870472,-0.0372402470966546,-3.58477894891611,-8.757108639030548,-5.481246556788747,-14.711375001748236,-15.72614228042245,-3.464699882501364,-12.91970643545595,-13.245332291960334
-2.9746049006180755,-0.858864792168248,3.9646909639377066,1.4542111050403292,6.064440407899497,1.123012595086034,-3.861201797193232,-9.517858834512268,-6.338154366943527,-18.664460379767903,-20.245348695495764,-2.999421900195614,-17.563000602378196,-4.168747222791088
-7.609347101998864,-7.80758105213782,6.319503770983375,-0.7248414467095614,2.418509603661228,2.1218277368862064,-2.9230556320861183,-7.588550767372958,-5.465340196096278,-17.937526301321945,-19.70624196241092,-3.403713735344141,-19.44609644519157,2.36865572164256
-10.858375120553012,-11.44288587201364,8.66110221071853,-3.613377237449392,-2.120243611992024,3.0621467888721927,-0.7629052373357013,-3.8977701991801297,-2.738488287974548,-12.817221689234373,-14.266321782389433,-4.1747225269823645,-17.11490862547702,9.670825444339822
-8.540893582003683,-8.82925228344314,9.58995374452232,-4.467369609396123,-4.647963207791179,2.1719587096611948,2.436217743828628,0.5801921296719996,1.7051272541958935,-5.236823092273092,-5.299179266455894,-3.4958688468762347,-9.743074835149317,13.55956147424294
0.2450546141106429,-1.1617073002404084,9.312990502056724,-2.098738477046595,-3.9936345394891646,1.4890857421545576,6.096537965684931,5.123237792875209,7.009354808621879,2.341137998404605,4.951896289213586,0.1957332954982931,1.58809616038846,8.696688232677797
12.005314123173576,7.797570243346705,9.869914977046086,2.582968122812374,-0.9158011010003976,2.676268595033319,9.249797331292072,8.966315594092212,11.528266870791771,8.071645588991423,13.823265185081926,6.39404225077109,13.360313722107932,9.078975365479916
20.83255746952711,14.40542597085426,11.143092133983174,7.502471277425592,3.0016248547247564,3.2678257472669223,10.878416321708498,11.025277410359523,13.498699466642355,11.164304540647926,18.986419316178747,12.227265054098863,20.93832427608537,8.361924190653204
22.322820281440578,16.962066205675562,10.578113764716845,10.81835540435805,6.471479594872308,2.600871235696766,10.423981312125074,10.294961220345671,12.150116890156688,11.679411979316068,19.380539431160585,14.278231535302936,21.326437207694266,3.855336744290765
16.541975641066255,15.861689041349663,8.427095374278647,11.705759564481935,8.72759012132825,0.9203509832411711,8.10525741420097,6.767149695197045,8.378176873936548,10.237262524806768,15.752810846493752,11.178708844669975,15.348295680153951,1.403474464738637
7.73192608671487,12.569098745120346,4.7045091578548375,10.275203946380945,9.119423886437998,-2.8607385830608667,4.783999205828728,1.9285914982597896,4.2845812109924015,7.908599235169553,10.283888439588594,4.770124129436667,7.251790956178586,-5.156885755842924
1.0430964709884023,8.474012775916973,-1.166889591648575,7.181730446651338,7.050208251705282,-6.484779884700498,1.4547357538603052,-1.9119051235169628,1.799732143058833,5.995640695049325,5.402952676095092,-1.227445334885381,1.7268841436697056,-11.093221248725593
-1.0290987876147175,4.405982589898489,-3.886909931951808,3.460322345771548,2.692293359211,-5.983767219198671,-1.257779433560863,-3.129025347228062,1.454159905214798,5.40437359795876,2.549743824615522,-3.93267937101934,0.63551420035731,-10.294477106415297
0.2214921443809956,0.9173532808145132,-3.2235568300618693,0.4785965219707222,-2.2747315641750063,-1.839324159742608,-3.215565706790233,-1.887059666347728,2.281789582065759,5.933217690287197,1.6846382000056437,-3.140837307087388,2.1547567734626334,-6.959836102752273
1.5054512349044735,-1.1815545423425675,-5.1106033052156254,-0.4811426713365421,-5.107618806380515,2.655057301432281,-4.478974615512577,0.1201161731577116,2.8381864066589984,6.263973592120266,1.7499984331603002,-0.9114712028594454,2.962906311058447,-4.905080287307133
0.3820795483905002,-0.7708971264850746,-8.56510888414909,0.9286981178437445,-3.8404786139318494,7.794625912410529,-4.981943538740978,1.0473291697862095,2.349940347625896,4.994357796013617,1.6069090828936794,0.4370450364101828,1.3965125602458457,-4.194673705160792
-3.180239840790378,2.804865404190025,-10.39819230609992,3.5360239481967355,0.8351180330082144,8.814303378888098,-4.566110049983138,0.1784623809161516,1.022346730943255,1.984157453946949,0.765954484274296,0.0483190582050099,-1.2738552233099298,-4.068639037695891
-7.346280838001512,8.634750483872757,-11.376162510846948,5.132962179684753,5.507969318862706,4.227077873236624,-3.358401276589902,-1.89999614582694,-0.5367661174274758,-1.258080350927642,-0.4631421932511088,-1.3242448793687416,-2.4141147886222427,-1.942947895625735
-10.06879254756386,13.940457293976683,-9.001698767556018,3.970475697720097,6.325834431579274,0.4369533314942492,-2.0347796148008825,-4.124542162619804,-1.964686370789245,-2.672562342630755,-1.3313321960174562,-2.425011074095167,-0.7122577189191901,2.761959907461348
-10.340580312096542,15.379291409507786,-2.5143520566393334,0.1603806424369622,2.0167184498009334,-4.985544869231672,-1.536312248743393,-5.807987913059179,-3.1510019219072447,-1.3306561319362942,-1.2031221004087058,-2.565452950901566,2.6490014840522207,8.675488753039726
-8.353208604629515,11.4351003907217,-0.0781562733964213,-4.230343775811164,-4.871838756243164,-8.314112766761921,-2.348770473771758,-6.76104197914642,-3.770898350430493,1.8338072427303016,0.0155503995311931,-1.8048738921186285,5.2808336758881325,10.50524658458474
-4.936825321505111,4.098064300846943,-1.4339022534723485,-6.568023839431703,-9.75271856595559,-5.770140849494295,-3.9978143713898575,-6.872166425816374,-3.1523773911087645,4.873333431260072,1.7678479346734406,-0.5154164091608635,5.826886172502881,6.283211120653721
-1.013168634986144,-1.8789427984546592,-2.2045190688912,-5.460549524186348,-9.517983943764804,-4.664475851828663,-5.339811613058615,-5.937731761949216,-0.9313559850274232,6.329290708063368,3.087412065851467,0.8857706101919405,4.87056830299079,3.4501297171667726
2.5817055801363296,-2.1059577056019805,-4.048585698735743,-1.6175522557646786,-4.955908276190755,-2.326046722305636,-5.513791253418773,-4.121080720492401,2.059777015343535,5.915035215793893,3.056823998592052,1.7906916348787547,3.793753769897293,1.2396220351184086
5.062806163876743,4.08641301183107,-3.9363656694144487,2.7577772739769983,-0.0444471725352997,0.9902804122813096,-4.721986703657706,-2.4767491355539164,3.772326385439413,3.959227960146848,1.2443842802524614,1.3577432611520237,3.021078262785565,0.5225961922289227
5.791827751049425,12.759125943767543,-1.2612234050410016,5.433756904206973,1.3246596001881414,0.8818284570929574,-4.054126355324691,-2.624376699782303,2.2528176681247203,0.6323370758178157,-2.0908582375313927,-0.9368529606328622,1.6018699022596508,2.2828043840793337
4.640400167420395,17.92108779966783,-1.1635429179863122,5.395601144859441,-1.5215776500120055,2.208229872237456,-4.422419695561544,-5.436893201510415,-2.5886160610064337,-3.883909109091931,-6.094891178323408,-4.493716773048888,-1.4656495630616746,-0.643827260523591
2.3810696128510926,15.777606876668798,-3.05218768802147,3.190589013587669,-5.642375131225819,3.96140056170107,-5.558280732776325,-9.808787555444034,-8.355006878121785,-8.49102338647102,-9.648890097489613,-7.479183263095678,-5.659813502119476,-5.785787291038999
0.6297712988057356,7.474181442178207,-3.1572749566983545,0.3938896318325362,-7.095468577942896,3.1725480914788027,-6.068258691558,-12.879712664946894,-11.538581028000578,-10.978449352594277,-11.794743466052012,-7.8924883412819185,-8.879791718997168,-8.501764397760823
1.0410620874362166,-1.766924151366695,-2.168803116819483,-1.3569250517779068,-4.280613286716559,2.510726729999236,-4.623221019614547,-11.954856799945546,-10.043353124892576,-9.456379341545151,-12.087161148662474,-5.103149380906572,-9.108583142533178,-8.232608501692338
4.080488257987341,-6.448012383871898,1.939687838911288,-1.2514270922150672,0.8262338706789052,2.2097527512470374,-1.270636938356489,-6.71569742817465,-4.86147204171769,-4.398353241016849,-10.69601696264668,-0.4957948051019087,-6.233783756702692,-3.6884416913114015
8.322831887633399,-4.649320875244342,10.068787649349192,0.2875367773156654,4.495926937611685,1.2139505734542857,2.3526463866846825,0.2325895991745739,0.5446714799466719,0.9176372137947196,-8.179134960649748,3.464031834207248,-2.273916844561924,2.312707886319819
11.140793974167906,0.8952333968789077,13.53459218914119,1.9218007545606213,4.420049382877991,0.8750124029610377,4.200701389259791,5.158664289898667,2.7432352424743414,2.6173666811415046,-5.065173130429173,5.000087719103533,0.2414120831041941,5.448341271738277
10.613539202312722,5.144342751596611,12.494049480593498,2.3423216855502176,1.4693912552744024,0.7440531813080999,3.424463202276229,5.977660871304586,0.7496522967790469,-0.4852085663450225,-1.5903257868785232,4.132479305790582,0.2937668859593714,4.238410088598204
7.236070435693271,4.605228018547507,9.651115234825369,1.2761488740466262,-1.323961999770134,-0.9084533234065332,1.0101468491525338,3.6915994150265448,-3.504596249689513,-5.520935188581234,2.146978034039023,2.281416550721964,-0.951638985122969,1.0165583051706162
3.805412687826525,-0.2163007446435898,2.977171824425944,-0.2171062444629825,-1.4364729221594814,-2.571315937629284,-1.1038905361275084,1.3132635402573172,-6.866736169701852,-7.660422243023291,5.73871650674996,0.920923055385785,-1.3301004881907943,-0.8550669715337202
3.218744785878407,-5.488730875832353,-0.2903912156392929,-0.5216114794239743,1.2305931014762166,-2.990595100185503,-1.625209599792143,1.282458908648522,-7.324349678463243,-4.089276182995718,8.215809868160662,0.5689145275205689,0.3650054083842704,-1.4991281578586522
5.847271852487246,-7.1663469166951685,0.2027096676766995,1.187252608034754,4.64701835738294,-2.720525888700912,-0.7943704253298804,3.64522648726021,-5.187269602443756,3.543260866563621,8.405186295916977,0.8457165808211613,3.3004481266759957,-0.580507956710115
8.836547466523122,-4.071137651099292,-0.3010031334432168,4.111910263879082,6.553807993366341,-2.1918063568357384,0.1706215883917892,6.455880800305778,-2.397657747261455,10.335661128843547,5.769582536972386,1.20168540303478,5.244296912958866,2.1860406948840567
8.231259455632305,1.3814962591421676,-0.1506891296941461,6.282169620063847,6.144924265118561,-2.1886467701064523,0.4498322601408446,7.8013548844361935,-0.808030193920473,11.940742119272224,1.0741175599503805,1.4139834903936972,4.385009759866158,2.475658374111386
2.3333226251386776,5.233506235991968,-1.1040592712549533,5.997608915129483,4.265511798672272,-2.404361358643126,0.4561935000987347,7.467669877372884,-0.9027846343619998,7.738695053440068,-3.7716700043668254,1.4636378474713965,0.9043725983625208,1.4837607542555924
-6.564494176923489,5.058211637783799,-3.719804085233703,3.105049182855538,2.35408112523988,-1.6286075008116865,1.3271706529114553,6.78730116113158,-1.8320591707746277,0.8991714349181876,-6.743750707050019,1.2051392180039286,-2.9142062757942497,1.4044241273083076
-13.667224900303609,1.5784639614958849,-5.6305670115473685,-0.9140651707199297,1.2902297699587422,0.1720550496049887,3.5921519326795064,7.021781743947365,-2.4614262126122384,-4.372321676166372,-6.930475987134415,0.3982764510258576,-4.196896537380539,-1.7313759787206648
-15.218878527808831,-2.351330709051432,-7.328825088950113,-4.049835790980495,1.0389547359530624,3.2675371309959216,6.363738187269071,7.983488742537219,-2.403696464280195,-5.90247368775967,-5.061882873003221,-0.9000443617913589,-1.5951384659605736,-3.790635662702626
-11.155744733679416,-4.341093629170072,-7.288621931122853,-5.102231394644679,1.085026710714338,5.078404413386189,7.945394022841974,8.256926588775972,-2.187847095089268,-4.58582923976558,-2.9323491810453888,-2.132280272779141,3.509465769735023,-3.090055963499661
-4.787866667359438,-4.316092076556114,-4.994863405588709,-4.2349978426729,1.055128541791536,3.889667868010053,7.39796117641616,6.746734155671998,-2.556524412447562,-3.047393602067721,-2.140410193713169,-2.6182412273165774,7.683325883167239,-2.650433772929918
-0.0700649064528136,-4.109455994748746,-2.213583922752796,-2.5327648062828843,0.9868057372064668,2.700870301754065,5.597529284060965,3.958167117879015,-3.6412560584350047,-3.4518737151844228,-3.0875669314275846,-2.2311266028865795,7.680501511012682,0.5560686465104197
1.0373154789356391,-5.408903998325089,1.5729471884971484,-1.1698743458445904,1.1209571757380807,1.5041573196502769,4.640872717756714,1.6710592003137883,-4.815425996290173,-6.208228949263599,-4.950818363275225,-1.664818315997309,2.735212947949609,3.8232354825258423
-0.8961576851657682,-8.135197173309486,1.982425004278953,-0.8977840792575407,1.4604590137143294,0.8757698463829067,5.922609678552114,1.253108180896536,-5.350719135238325,-10.143247646207984,-6.532157976025497,-1.9188717355482936,-4.765881820818741,4.233043718206963
-4.15730931143458,-10.748868730560591,-1.6130428271043284,-2.003981363435109,1.4859208735874423,1.418192409520271,8.549192792463385,2.2482657508263597,-5.203003461295612,-13.501888443680423,-7.180330356081988,-3.389393602374529,-10.806189626687532,3.332026825609703
-7.405393409568679,-11.966053073937967,-5.815002391901545,-4.387843235143248,0.3476945514658593,0.0004383755632504,9.673212615636462,2.6822913979668064,-5.096295119843041,-14.874127546958556,-7.012749819876875,-5.384111287606311,-12.409335045517745,-0.2263998684620826
-9.96490034692636,-11.963228572317412,-11.83820613718415,-7.465446992164599,-2.456060354206004,-3.3714573276556523,6.74163212617132,0.8836774346462848,-5.755235038367614,-13.67792055126456,-6.407953485828383,-6.544054029546029,-9.52159384482172,-4.288326102841019
