AF3,F7,F3,FC5,T7,P7,O1,O2,P8,T8,FC6,F4,F8,AF4
4.503069666728149,4.865184298168105,3.703184763084799,2.4904115898020187,-0.7217961727765051,-1.3283509765507318,-9.0503470266051,-6.601834097170368,2.877036785588134,0.9064791087668932,1.816963561501075,3.4702049975671696,4.985201534794872,0.6755815289633489
1.3821301751839008,1.547163415064953,4.213849338466694,-0.2671733858868333,0.4644850128549643,2.5078217437132806,-4.789846142811557,-2.591541265240444,7.427166728631061,3.563110360259646,5.16852756708842,5.389238043262674,8.700118862383032,1.3689210321506988
-2.466704346983729,-1.90538923144126,3.5807736859925967,-2.914688034669899,3.966977799383213,11.013355853050388,2.047782244921278,1.3337003265742098,14.201387332691851,8.163851346628554,10.481334271232395,7.257310880983044,10.12799705079772,0.8819624467525593
-4.537450249507641,-4.2881212099589865,2.2426279366050075,-3.9974540724502985,5.685222466127829,14.29511974668211,5.8613721789554205,4.734909790961492,16.46335433387626,12.913407980613885,13.112716205401403,7.744987064548758,10.301285479423534,-0.8853769834396781
-1.950996691862082,-2.292542933191481,0.971326068490182,-2.312939662387548,3.392219693178044,12.420672251133674,5.678910174309959,7.629828534261332,14.181791659839623,14.797914622161793,13.157544029827235,6.593530207865172,10.237866077660057,-1.9584764744706715
-0.0722257642747939,-0.3603007024292187,0.412701067122331,0.5949628431134861,2.206716355049651,9.54051295501723,6.317514969607741,10.030242928967525,11.893312709716792,12.209524867368014,10.63394445882077,5.57452504709103,10.062972563663967,-1.1420938067077748
1.4209413040427372,1.4763817197416182,0.7079864515906138,3.592539697653967,-0.9799500481284148,3.399725155712608,6.241843736062972,11.73320212286866,8.158460823182322,6.8117640035126605,4.290354543224333,4.346232047854454,9.391254074339772,1.229225265651678
2.055284931607996,2.759883347473555,1.4171540214157543,4.447301470471936,-3.4778860300965384,1.4791007495260042,6.7646455613826495,12.554913385961449,5.412439477586498,2.6392768665171467,1.3912113465889966,3.5479524656495096,8.178853083776932,2.888391912765474
0.0125134634925751,1.4269683680900598,1.8374026434728137,2.644374430544537,-1.166973428636049,4.430895452901054,8.45301025378206,12.66161802834629,4.357087645213632,2.896850287532775,1.9798994188266157,3.536029926267203,6.945386612630124,2.323927556950959
-0.977516102487028,-0.5248462440526632,1.516910427598873,0.000425792460633,0.1674659535689014,6.502793677186054,9.352939774549206,12.543734173114338,0.6367438201979202,7.173883845353728,3.837924440943521,2.7253382596461484,6.143989385202811,-0.2933296706535198
-1.5886346162782683,-3.034325218086088,0.5501571887570087,-3.2460797659038594,2.0839367605834727,9.471101000703523,9.884645495113077,12.594221024101127,-5.179212022239141,11.621777886185203,8.743490061487574,1.3197070626012004,5.460703580693853,-3.1548899202584977
-1.755310951816131,-4.469106070167438,-0.6059012717732877,-4.460298627469009,3.786873802831427,9.497315952553754,8.971739201706415,12.711859769695408,-7.606744062564367,12.078229926687342,9.84968355847813,0.8377555654364482,3.921300757098212,-3.1979899396048177
0.0783071480040352,-2.509499861497183,-1.6024277059264058,-2.0176995008054224,1.5311804219108582,5.614546492389902,6.220616743270787,12.345824051925431,-6.9471400626970405,7.482213250142049,6.845095923403796,1.1234389894485532,0.8358244623289224,0.0240941566058457
0.539443647586313,0.5697125255169633,-2.4590572956547234,0.6045884119462382,-0.629417450197475,2.3022421628409564,3.253823364290932,10.947349414451406,-5.657174083647439,0.6507896393261703,1.7571303574744126,1.1812826216090213,-3.2999978538082324,2.4785336421010684
0.9724311419355992,4.692894745380276,-3.3296917487858657,3.594438497481175,-2.995641982248862,-1.5258642280470016,-0.2689659252560081,8.390381092928163,-2.595805127202335,-4.160904971669012,-7.22350986417571,1.2555297081871932,-6.897337590831484,3.02411666284436
1.4537207438561703,6.617386251734802,-4.046030558644311,4.707611806050805,-5.08361193643094,-4.024739948535975,-3.301421913090635,4.989078705128097,-1.8666629458223165,-4.70340101475464,-12.02398974719486,0.0821079497232891,-8.450275777775623,1.1406553946974791
0.0275326189709891,3.080077695103002,-4.020753297162269,1.2704990053783085,-5.014846985447798,-4.410943923338968,-5.492542817478622,1.1733694929551923,-3.944929754772385,-2.2520197560688158,-12.290422889166058,-2.6164386238109327,-7.848934411050767,-2.6461257793975603
-0.1936535769991349,-1.8206770260879028,-2.7579025984143115,-2.3597196990291707,-5.235032823231879,-5.48745162112611,-8.746391566930852,-2.7952158559545914,-4.724390337101609,-0.1469661120168766,-11.283860122178504,-5.310256351728307,-6.63205501913572,-3.487838034360671
-0.8235792934997924,-7.879376120954415,-0.5328293075632651,-6.265798644871166,-5.121634283121964,-6.627957510289612,-12.780681586748068,-6.796802903640362,-5.152944258017899,-0.900462901528094,-6.955030101255213,-8.343752094165543,-6.810280848672052,-2.685388338653015
-1.663629412105373,-10.266628397658708,1.5101687143679996,-7.334676339726237,-4.897235264970872,-7.4445972706575505,-13.983289285627352,-10.612389231856596,-4.713908060907331,-4.386821260932281,-5.33963531166551,-8.988315922658416,-9.135805904488628,-0.9619109221737498
-0.7972691666232825,-5.276602658261253,2.127116642262653,-2.8353412903823387,-4.958534129365626,-8.291100942547427,-12.339807903003525,-13.77945121825717,-2.763815418045008,-8.347924296426006,-6.7893862880557085,-6.742793411951709,-12.26952042873556,1.4124657512544867
-0.7250197368751164,0.1324568623568672,1.0419693281780944,0.9358021224101172,-3.8034756636538862,-9.22732297167107,-11.073114268437172,-15.716346799511676,-0.7886970665662507,-10.3643437127212,-7.908765363936267,-3.596346145176045,-13.636785899448451,0.7198814815392238
-0.1399066521330367,6.1690219346534745,-0.6601224242124069,4.675087742165532,-2.66758723005324,-10.323470795405346,-9.47969091271674,-16.005909289790914,1.5269255934419952,-9.489745932886658,-10.149027894885856,1.2822781778111458,-11.378692114168471,0.6558115671880407
0.6588087107528225,8.939915649049999,-1.280822108093732,5.876024308874728,-1.7457310336766851,-10.340094080339618,-8.601991762708758,-14.613250096479092,2.2463123210185896,-6.483649061857054,-9.530907869208733,3.73355330680366,-5.869217652730962,1.006432216557268
0.5633166289921391,5.10238420625511,0.1317924309415179,2.382974851244346,-0.2459814358586836,-9.222730859162548,-9.050191973848518,-11.930830886778512,0.962457433451422,-2.9422469400406808,-5.535448878865106,3.268048620605507,0.40149990117437,0.2689620317493029
1.9754434622706727,3.0670848638820365,2.930274242973724,1.9655575390394864,0.7644136280567344,-6.746096628733949,-5.975377634220086,-8.681827213622132,-0.4566169565309956,-0.2867406035121611,-1.358976839274063,2.9900806500555857,4.472071259701533,2.394638124052596
3.5932149814561267,1.6770752646705398,5.269445767762054,2.3964299527154225,1.9115693459918857,-2.5112129774704277,0.513262266490874,-5.718531221404631,-2.579960899051018,0.7847563743262196,4.01584673798233,1.810554135632264,4.816043635823407,2.675430111292423
3.602849744396753,0.1303371004511877,5.488444556588798,2.0331191927572103,3.209731408502288,-0.3071824011497225,3.9511967348084434,-3.7080529434417127,-2.992925619763853,0.4017485028821665,6.098323230136093,1.0923291249053284,2.154255234316373,0.8757864104019499
2.158646250507128,0.5980763251326066,3.389329818591361,2.181872711953962,2.648186828884473,-0.2307217046450452,4.943941778097821,-2.78034155126117,-1.265818030429258,-0.6200689855456964,4.132990122894401,1.203517701274679,-1.2463511992262175,0.2688790867053969
-0.9759473734598008,-1.520303686220776,0.4028375922223572,-1.4859197960659245,1.4259295977490138,-0.0873085769756268,4.551697115691296,-2.3905244172097597,0.0223463054198241,-1.1677711025684374,3.154967727219742,0.8264404056461853,-3.120813001920693,-2.3796374092315533
-4.510417835367169,-5.012282311946387,-1.4863827433565264,-5.841909308189558,0.3012259264697453,-0.7516006737090258,1.409090762875406,-1.6462383928459663,1.502874752667134,-0.4983002747562306,2.0377626848820096,0.3679176222932097,-2.5171434615479984,-3.300065626139497
-5.270680770129934,-5.567411205712504,-1.2098975682889537,-6.348731573238328,-1.0973916131797918,-1.0004764360119498,1.0836045759756137,-0.0113252441057323,1.9277380745489077,1.1364950306141304,2.4571985444456974,0.3069782656420535,-0.1641638001878487,-1.4255675216368369
-3.038976929511725,-3.761986852318686,0.6620371410945824,-3.9171369945900505,-1.3370002179849068,-0.5952530417890327,3.695080498294792,2.1345824292957065,0.8242750277129511,2.4913611404394587,5.322079376376165,0.5719664415864153,2.1374023964354736,-0.3549711779970744
-0.8202068837750673,-1.2203702560728715,2.480293228047722,0.0162925955097099,-0.8872333579069627,-0.7945482924622831,5.403586127807295,3.646345816248642,-0.0326597638258145,2.2010540615182848,6.734504227866205,0.1520445033406504,2.654477965010063,1.1791383231886254
0.7782423893679693,1.718773450969602,2.8666162082557696,2.9825157055776805,-1.120761510513161,-1.2886456710207328,7.382403559513335,3.5087800581616317,-1.0512780081633983,-0.0343633115961887,7.230221551472633,-0.9445081186072236,0.7797730087737254,1.241465919023475
0.7830803358951075,2.1480216339184333,1.7477718438908456,2.307981323683187,-1.1558691895013569,-1.4323755050132454,7.623756227432187,1.8077784846851108,-2.229787209106996,-2.985532622467833,6.046836496570344,-1.5768237451348752,-2.562327667747468,-0.5870715224717875
-0.5063248256032739,-0.1297657375201373,0.2658627451127073,-0.5627032453169281,-0.1222101664695619,-1.325047169140341,5.517649800009096,-0.0968103013666814,-3.324297328153008,-4.717330330411065,2.3589557701779347,-1.909823269329046,-5.469849564592385,-1.3330486337610774
-0.3377349259921563,-0.6439042580199847,-0.2883884515283128,-1.8261816821416887,0.8224132688378045,-1.177202713347845,4.085449718985275,-0.4854992005390457,-4.744881750992788,-4.144935204588927,-0.9206940340722986,-0.8945103520525906,-6.3395863920984645,-1.250224965494496
1.0514781941047255,0.1129643678791513,0.4272563432756391,-0.7531160994687136,2.154154595679149,-0.871783972493956,2.7805667866168617,1.3592033497241522,-6.412925970037617,-2.010166022723031,-4.152437427041442,1.803692780407204,-5.026348247775545,0.2963717889074818
2.5424226860756765,1.6484513393539315,1.5963686994864583,1.9861290743319016,3.761761283558529,-1.0737354257356235,1.1980593107148223,4.443590386201544,-5.610457789907212,-0.3492687632349689,-4.261064476429316,3.063697465540981,-2.9341936745404524,2.645777373809093
3.3261175368039644,3.730152439674339,2.041606769636413,4.433215187578193,3.397021216261749,-1.848413520740117,-0.1953472412866843,6.653374137095409,-2.116779015342664,-0.7962840692595305,-0.3558067920596534,3.041970220108405,-1.8213989719981347,3.247409751872949
2.651011966906698,3.141949317770572,1.304633763372633,4.006044237790041,2.5954647371342485,-3.539103112463381,-3.3477889894261184,6.259601963440291,1.4330846939314932,-3.1271152461481826,1.3902030923598456,1.674230245276066,-2.233376741212962,2.168165490735519
1.4605363712010624,1.5629902838487923,0.101813669242051,2.1620080075367656,2.343661302994729,-6.399702753039896,-8.332426195032964,3.1920150744132068,5.660425088017662,-5.320761401887338,1.6963355139314826,-1.8177105550087052,-2.9708724895412697,-0.2202606519618005
0.1820669277324518,0.2215876444468366,-0.186286647964657,-0.0209648204835353,1.0667622426582803,-7.870265099621144,-10.336481757226778,-0.9192060619758196,7.971922795726583,-5.16016072585969,1.0049260924912122,-3.068056913677451,-2.2048309471817573,-2.657208317631329
-1.088007417177191,-0.986860192805333,1.426768115589871,-1.7023938770954712,0.1063143516157702,-7.931476313502269,-9.431736523626906,-3.9679538664349527,7.725393821482042,-2.076550207335841,-1.9202559360631692,-2.0821057932359084,0.6710995346814062,-2.974993005376257
-0.614238692960359,-0.0936672973374349,4.702143153104822,-0.6368393861776835,-0.4333312285283207,-7.304678480715535,-6.915324580666739,-4.889154576214135,8.82202232264157,2.300059265230177,-1.2795036535447,-0.4208529090583744,4.181652712383811,-0.7942265160962257
-0.1739682911260559,-0.4540201000880183,8.127785363653597,-0.3998558347584497,-2.4119610810504697,-5.346116506616049,-1.613949128774711,-4.278592809803939,10.597647095110757,5.359074790012333,2.976362610451093,2.9418418298496203,5.837316348974778,2.1224267358271898
-0.3871653753487676,-2.1068706049310784,9.68488217718573,-1.3146328568747234,-3.409997549383033,-3.919010422037751,0.5372831588361515,-3.6935275504443057,10.876138236604971,5.492414928168526,3.40835735594166,3.415080591019912,4.268051505177369,3.5672861592024496
-0.4732842373522367,-2.7384439211828098,7.993672110362987,-1.702631137559904,-2.9245059973844,-3.049607324418061,-0.7708206465918777,-4.312036299166083,10.12037055560972,3.2043245868496,0.8501400844258519,0.6730864897944244,0.4712762208078986,2.2028299121289288
-3.0913970520061365,-4.261553139014204,3.200751425904138,-4.260447380152242,-3.034656926541806,-1.19276286287181,-2.7133595900493326,-6.102023656051908,8.819749892849094,0.4689083528907432,-3.48129179451928,-1.9935841719000564,-3.0232460615022685,-1.895003912362116
-6.223993731293718,-3.208990911376917,-2.920708629513232,-5.002019825949965,-1.97381338130632,1.302138281051121,-6.78812836486183,-8.08558234153891,6.647176017997935,-1.0339864439039372,-11.071332030305538,-5.67365602871578,-4.314498395183927,-6.154438600285948
-6.601588546710522,0.2781592229054529,-7.803095260267728,-2.717567593740449,-0.7059675907922655,2.726937278401965,-7.673814066624134,-9.248233378980654,5.121795140174436,-1.2273394192566194,-13.171078937342282,-6.750095066790003,-3.5998988976640174,-7.081116509639776
-3.8803896721088753,2.307887097691893,-9.46151543922447,-0.2929366427285761,-0.3486914421177437,3.1391146094405,-4.898100845730301,-9.15733914759366,4.372105038734218,-1.372655833528469,-9.347161380890077,-4.562740155420617,-2.634670257470871,-3.7526580183575406
1.0802631894893593,3.14346159171412,-7.637415313025441,2.673598442649115,0.9808138600261406,2.6320803718565107,-0.9770585567337314,-7.85236425794917,1.5940065247709,-2.585470755482101,-6.844961172396252,-2.411397913291168,-2.846262035002452,1.1120057085143549
7.026381108421206,2.042688941738804,-3.979312151322025,4.412059864348267,2.4716896399463004,0.7526199676965659,5.524689719625918,-5.447667578788691,-3.0164124380919746,-4.613746885917584,-3.775291861639728,0.7061375238834715,-4.03643709340934,5.6466284120169945
9.65462514844166,-0.3119603501929405,-1.0831238837057366,3.692432343704425,3.539292411269096,0.1943027138503934,8.139069356844862,-2.134493400707628,-5.714877229228528,-6.077150912867452,-4.106780459566937,1.1423582425888723,-4.893448993744899,6.918584548999827
6.586386245125593,-1.1348972351723297,-0.9490584490845704,2.140945759812631,4.448184455338031,1.0047661045072835,6.334331207918324,1.3829791826993991,-6.785447778875708,-5.916509128130427,-9.184558654653596,-1.802593303396116,-4.619557890662653,3.7971791187941486
2.2160997697008984,0.2922880192960533,-3.820915652901639,1.3450947622985383,5.0666319759375575,2.0532678131364537,4.806233707386691,3.731790136076256,-7.341485300443344,-4.585311132853099,-11.886549214245504,-5.804502727894317,-3.871452505288984,0.65715870613914
-2.456213742833787,1.7991909837531026,-8.143760716231906,0.8813836961788515,5.61499772936026,3.9859205404027898,1.985053869319621,3.582213733155159,-6.59942781095932,-3.7469818940665096,-13.27407059963967,-12.001170203545506,-4.035290108215978,-1.583836576876784
-4.968917024814364,1.9737497499821453,-11.639148373402206,0.4337621238061088,5.27011607752893,4.596912402276417,1.3733488379571384,0.8359986296861521,-7.025098590956572,-4.727867796133581,-13.711302945768429,-14.126667147284032,-5.675788853400356,-2.2734722969657706
-3.0656620293427057,0.4035934486463988,-12.753891767166,-0.2285119897248204,4.317078813510352,3.712447167124802,3.730182544928984,-2.8644188929064285,-8.751043992489627,-7.237243215551167,-11.903493466939947,-11.564661342883555,-7.8511339412594685,-0.7279243313193892
-0.6756336842497237,-1.835083874028736,-11.504506903045632,-1.1644722045449196,3.124715023544802,2.6239627128840177,3.639283416249659,-5.048011774834104,-9.338032498842235,-9.616377801562711,-11.857782034169029,-7.7276335782077075,-9.007487544667276,-0.2574633604327418
0.4596776688495847,-2.4662846643753134,-9.190961449727675,-2.1680300302237185,0.6010125429224488,0.7757386120694498,1.887150277086632,-4.185491269912274,-9.26678599998717,-10.354838828967123,-13.399248321905525,-0.9085916782431672,-8.473795406719884,-1.463706724233898
0.3641532457609512,-1.2547221999517673,-7.275806306361302,-2.353967374461968,-0.3569785952759401,0.1929139353817056,0.6444267841868504,-0.8491536030852975,-9.049138772670444,-9.36108980056802,-12.19967811875337,2.096936222241046,-6.992179428003907,-2.280377413240409
-0.8367979772189964,0.6803336311122213,-6.31566102664879,-1.291977176333153,0.6678691522035218,1.121551309821813,-0.9025156445253968,2.758547703921596,-8.333264635101328,-7.770328772180324,-8.779186500168445,0.6333772853888264,-5.794140404558277,-1.8954645701124528
-1.5536769066896945,1.6237838083350549,-5.739536425694842,-0.6276609695307269,1.0521914700411683,1.9247242214698423,-0.3533356048099703,4.508140743440551,-8.072682175419551,-6.591579886063332,-3.6482905459870505,-0.1825366887753922,-5.243385282760342,-0.0115257444014946
0.0252517749806606,1.1598294987651196,-4.559202678552062,0.4457836741237129,3.0406319862742013,3.117244138921556,2.720554026600882,3.8352676614949694,-8.330683680402007,-5.661607972379327,4.066952160816999,-2.0272514832002515,-4.433391316711496,3.871559447537895
2.1298601856949104,0.0075244891716848,-2.349108431124271,1.3089974655394254,3.457910586616193,3.501505908936247,3.567261394147025,1.8575062750057487,-8.387136112824285,-3.993284674243012,6.69178434396316,-2.2465297376973306,-2.100193062374584,5.9137081755385
2.5375785084190534,-0.7576236371477912,0.3402039398934504,0.8281239572981478,0.5672259718671128,2.799627828554999,2.578538487076144,0.2117897224938563,-8.455515210285748,-1.1148661578652073,3.7674244316563295,-0.1170076252865555,2.0450965282817046,3.5345236031926754
1.7980153698089354,-0.3187451908062335,2.4391756240288998,0.7583588908652663,-1.4534465582368683,2.259306990201695,0.5182847873644533,-0.2592792259698191,-7.166662109273253,2.0460923765939256,1.7926384044769024,0.298294662182891,6.74094757989021,0.4548432197726269
-0.5683351237074036,0.3038654917942043,3.2374869576893595,0.3758510437053184,-5.050089900498579,1.537956777512686,-3.625750724881227,0.0896568674062061,-4.302144091897691,3.717065746676559,-0.9396792909957448,-0.3382555093203698,9.787140647370858,-3.7651757907936654
-2.7119925693172853,0.5357477895725432,2.91210162231865,-0.1926447303725816,-7.436459931579335,1.144982382313387,-5.1450658024908,0.3269353852681678,-1.5016187583653673,2.8024177341869256,-0.3645081428077377,-0.7101375596203854,9.37798539008068,-6.245798178633391
-2.4534409533910284,0.1145622902270639,2.291352209358096,-0.0715922046863824,-6.014640481855284,1.2749194016170753,-3.899853162268911,-0.1528391825260806,1.565272393060571,-0.0531596397600502,4.76628179642157,-1.411429077386504,5.33805649324275,-3.649795550800614
-1.44763973390857,-1.328182781423199,2.1253185140782698,-0.5398938205405144,-5.352537826836291,1.2115977187657276,-2.766730485487789,-1.2187095398725043,2.7379445678389103,-2.830454238391676,6.365097952708786,-0.8830297252167135,-0.4137737677626525,-1.1527404148804543
-0.6788227163689593,-2.5109412079869085,2.5275370843196896,-1.324001432692503,-3.33837459396449,1.119500019098517,-0.68677579063427,-2.235120766989503,1.532157836965818,-3.568041356813445,5.373990377950041,1.096781920894711,-4.540437049265721,1.3668066918653403
-0.2255726425236831,-2.329270577378527,3.041880330722896,-1.5351434857679116,-1.4823278661346482,1.0698531791996286,-0.0732142919005815,-2.5309594403330955,1.3955020722112763,-1.6197392434826203,5.102623011981374,1.9707726695710197,-4.029523251050989,3.0942874718051985
-0.4547677016097137,-0.8694857318833791,3.2010769940123387,-1.139332399262046,-1.885004296728355,0.9716929095460544,-1.37164210594146,-1.7168059101248043,1.8153086197799928,2.1745507664611456,4.215886922082111,2.0125448424656205,1.7716430472505715,1.6878729060472717
-0.2343788759471462,1.0379909664699132,3.013251583388197,-0.0800647603050331,-1.0185331692545128,1.260222384057003,-1.604181974000657,0.1788624428121856,5.117412332567757,6.269792753503072,6.182903003453146,2.0352516659410607,10.208581767148775,0.6374840297083542
1.6674195802942662,2.663582126996044,2.9129852928066207,1.3728773380926351,-0.4345516439702449,1.9559199062160035,-1.3472220553507404,2.6330573983642065,12.194408588114026,9.332919199474098,11.571770733115148,1.5709298553982016,16.56059239595966,0.1520400683469727
3.2071898755575363,2.9819719434857888,3.239484535542473,2.141125597748448,-0.268651472797819,2.4088813665016686,-0.369317565083584,4.711090890899745,15.066333160167204,10.687875377256738,13.85687483511076,2.1319570932545053,17.101435298104597,-0.3534944431803344
2.990138096449604,2.0364502594186638,3.776629523245946,1.821662464334364,0.1356221155790317,2.6818832098580963,1.8401194990946568,5.549327367936676,14.050234517429883,10.324936868552353,13.60301994246564,3.847976431712079,11.913682864836453,-0.1171191502573269
2.046933890266613,1.5142222771301053,3.859881510357818,1.2155950193092342,-0.4753720140175791,2.7756867350467798,3.6724864098047,5.12313472451206,10.162996848884946,8.817777534976123,13.66478068359777,4.66915867168527,5.106829750676612,-0.2497506633654873
-0.3111860537405203,1.0979487300629789,3.020386244747153,0.5188788424123127,-1.0357854549345595,2.5446646674871536,5.291873315542409,4.612416204985295,1.490913449336612,7.238985119168641,12.852270522297536,4.861503214933223,1.9092038288926012,-0.9901407545798916
-2.126659330526707,0.3762412548662732,1.5702884107680468,-0.3212598606996977,-1.3196192722419493,2.41139091669933,5.985291616603005,5.706425380801208,0.0078849579476549,6.8408932492087375,14.329261322679866,5.941662240699342,4.72921762449547,-1.1644698147713723
-1.2578303408872524,-0.134125621024756,0.5059438034556023,-0.8649502909462827,-0.9316420529933178,2.3394070522682715,5.344833661350179,9.123330780749296,6.155012409888401,8.401642791451959,18.57013462943574,7.647959130464404,11.367063667153914,-0.6844218268114081
-0.2717606136361442,-0.4526300250982313,0.7107146291740196,-0.7442020397223831,0.0193514265140011,2.1543502604062423,4.593549890708503,13.642344722680932,12.380208152891406,11.615262947188803,19.468587634057307,9.89676197055017,16.89732094786548,-0.1877009573177713
1.1704909460816846,0.3981590626278012,2.144617716033239,-0.0895599014170498,0.5700837460634186,1.929412276579043,3.4320745126859857,16.80777329029925,21.43116663236776,15.12125543951769,17.500092947052664,12.968233615959104,17.640427780643886,0.8148282195177882
2.2496811214834405,1.7974096258461292,3.8007347024517535,1.1237414485350068,0.9022574482465484,1.587691999554455,3.269813386212198,16.972313488275223,23.05631272731829,17.33620758522494,15.526403056144208,13.890190113218235,13.856406818909836,1.4804087275770157
0.5086540947179042,1.1490348952678138,4.53166215995677,1.717365029556828,0.2334216239643075,1.1123906322624892,4.4056903807590775,14.8600073090527,15.667689361428437,17.512982333936783,12.420826091077531,12.4809706746672,9.000034005312614,1.1641443984252178
-2.2888078747730765,-3.0534818253590665,4.021264552176978,-0.2906355277427788,-1.0214050473013496,0.6960968744658468,5.733063015625585,13.01384516547482,10.77592068842273,16.162788655929084,12.402753400720842,12.381283382988917,6.481521712910951,0.92059185370158
-6.190129435187138,-10.757334278331394,3.013528729965288,-3.821043925250979,-2.0152200719201065,0.3308312216280692,7.690408395960579,13.430862833270924,5.908561818651251,14.493360025024357,16.089170811491893,13.040754738500706,7.004721490078989,0.0303918460323765
-8.260037550144903,-14.995203458154233,2.6061955356094417,-6.098171669850774,-2.726412838519743,0.2021945798302495,8.008213099960168,15.55431039323758,3.43925044059943,13.381034102570212,16.39298671801445,12.595769664169335,8.746085670427128,-1.1067799661756297
-5.285287518221102,-10.220453808380354,3.288254472140917,-4.878126812755431,-1.9780036295927383,0.3780338788053243,6.40602745345292,16.620779902629494,5.360585724952367,12.777047850389753,14.069308369420735,11.554326710466624,9.768039401678529,-1.134295628984919
-0.1343964712039825,-0.1133037013130965,4.599034041239003,0.0349158699137132,-0.6891539282215048,0.4900623773317384,4.219387058492414,14.15809353343601,3.759838776759519,11.98569347807636,10.64582904151782,8.182636921290605,9.977767394139365,-0.8163271476626575
7.11237453239407,13.70094498593346,5.644034165917467,6.162822033471828,0.4413879266950093,0.5908048095130388,0.8088480197131427,8.320974322283142,-0.4883828127765022,10.419462132706688,4.749242658195661,2.0434671133928863,10.657848031701672,-0.0178442526183389
11.085330414041827,20.404814661000067,5.899894960902034,8.73957130326122,2.256636385687953,0.592042163831022,-0.3962334148325666,1.8698531113802408,-4.000193329447732,8.059971293055675,2.433315770071937,-0.1365754551682487,12.292870597467608,1.0519080333049673
7.662526343378362,13.315228951725592,5.560438261065906,5.535362076308972,3.3127745906442074,0.4143803389034263,0.9544670130637166,-2.1549140658665102,-8.05819051915273,5.270084458263336,4.001542474014111,1.6221523680719758,13.274782371227708,1.0525074444901032
2.9382850422232347,4.008688967187366,5.215373167022388,-0.2351973203101686,4.247656380892635,0.4238572298742583,2.45892389439582,-2.854137778560891,-12.456245465739256,2.323950862987969,2.6864180957281114,2.947264947295948,11.14773754513218,0.2434917500844578
-2.9799528226569425,-5.553044680109394,5.287600785370166,-5.678728671190386,6.430087717186842,0.5905185268045221,5.003022019021491,-1.8247034349384377,-16.914440120566873,-0.7217139066591165,-0.3992193752074714,5.2453802372635865,5.296838576957869,-0.6112117148811042
-6.792961418149555,-10.061532928507395,5.764470133358373,-7.30141129847305,6.964893363686806,0.8114195693895874,5.098289019493315,-1.3805403651173318,-18.922251084512308,-3.659817396962553,-3.303944197703289,4.855442407029543,-1.7349873001203235,-1.317822080235987
-4.983906526257004,-5.613828839964867,6.337278898123092,-4.516000322010733,6.7491951425509695,1.157987853605574,2.2326818477139283,-2.5418981643007537,-18.06275188885153,-5.773003787750243,-7.078122669767398,0.9744341177062296,-5.950542645463543,-1.5654873700136371
-2.063083929876841,-1.3545369703306602,6.650858312422326,0.0335672330824247,7.247724958838195,1.1544685338117229,-0.9375888885826252,-4.638818831725151,-14.688626627169652,-6.097140203410683,-6.691614464088012,-1.0452002331848689,-5.307040769379795,-0.2594093386481661
0.8258279395861827,0.668558155193498,6.375537441326779,3.8792570805350737,5.647136656811049,0.7623507974274507,-5.369737562560847,-6.543500748250139,-7.880721532472835,-4.302971412138593,-1.626693277854818,-2.0735964204769908,-1.711972896070189,1.3299635347412115
2.6352227972424744,0.6680244177771716,5.148290452743298,4.50836542509229,4.594648709482905,0.1138840636413302,-7.906010416031687,-7.963778020305552,-6.573848220189848,-1.4509790972030014,-3.048851189980144,-4.643784318873512,0.3244117763228171,1.9217018967831985
1.9749927270329692,-1.1532612538591298,2.640264776942636,2.756349100339025,4.366032372551701,-0.9295585993378996,-8.045167658439357,-9.462914418112682,-11.24328868865817,0.2116380490667819,-10.448270795621088,-8.047077620102737,-2.73574473217716,1.8637945810650731
0.3649365349868338,-1.891427941841446,-1.149396730053429,0.546723839089216,1.9681283375651757,-1.1844046932132402,-7.611243119591927,-11.471112916225549,-15.433048998669191,-1.497622709967887,-20.116725823215088,-12.154442157553978,-10.760350295446722,0.3465620689525235
-0.011048520267905,-0.095133855213482,-5.616071328006134,-0.6773601619182987,0.3853905776420914,-0.5725352548105234,-5.663652290509131,-13.647734184452736,-21.2157102149191,-7.2369974901377185,-34.49249123794823,-17.29954667062128,-20.337268080702884,-1.2239318661693936
0.391715844439786,2.117172058321941,-9.65632003650908,-0.3587509862323864,-1.080559781570171,-1.1531627477373954,-5.039851678042863,-15.37216107731465,-21.0689852805506,-15.57961783400432,-39.4877191734649,-19.180718151126165,-27.663071115364684,-1.1649775849200312
1.5108917118638865,3.756911159051382,-12.24224956203408,1.2435128367038402,-4.141535931100041,-2.767797254790131,-5.984472396825201,-16.65764606688183,-13.610092050937652,-23.79099671894461,-33.97847294609324,-17.476657187252354,-31.294627005112048,0.7017388111605516
1.4898264744923604,2.322010653392163,-13.091723959855848,0.8968851679873071,-6.184207001896174,-5.888623799007583,-8.186862240562292,-18.184111670420915,-8.868717579808987,-29.341774871987894,-30.50778510699358,-17.635959065209416,-32.558472255791514,1.555153287630432
-1.3155256025709694,-1.8168053012964127,-12.867120504646907,-1.8570995579493708,-8.653866876392383,-11.048353499495178,-12.507874132810215,-20.18645795426904,-5.072152558088025,-31.04194541879788,-25.882913181115345,-18.84392486906881,-33.64501566663375,0.4794136071164742
-2.984701418435746,-3.60523842268278,-12.639877069896226,-3.1554523260046894,-10.316667739974642,-12.020728562950575,-13.283437945195518,-21.44863659891503,-1.1330687240746646,-29.10981242056542,-22.73205663770161,-18.198439731142606,-35.30815831271428,-1.049331335350912
-2.7596458683799128,-3.2194477725581474,-12.963932088784889,-3.0988081768744618,-8.066064339621553,-8.593962260575843,-10.345557304262766,-19.834870222404252,1.31940830622249,-24.441387245029595,-22.97438621415685,-16.45096899526544,-36.12140017648144,-3.103561991795217
-1.8909478696223196,-1.083038594710115,-13.300392015380876,-1.8311016142552456,-5.096475835553981,-4.54204484969823,-5.087748085466895,-14.250823865404389,9.87297542123993,-17.941692569195116,-17.227179121127804,-11.599823958800028,-33.718543808280955,-3.2220419258443744
0.7077637459306885,2.008642340373928,-12.338399462799758,1.4018344639154467,-0.9703367174788716,1.590776664642802,3.9928728306503847,-6.2328504694883975,24.766297854292795,-10.506618699377285,-6.210186392136968,-3.015350568803604,-26.849499740022445,-1.086575431551522
1.8166924805437663,2.440394350916015,-9.059183600379653,2.817777162410356,2.324133285251004,3.478452276231668,6.9901688592634175,0.5935107017053287,29.100117650630864,-3.4136452619249766,-0.0485069876107194,0.5561677817491348,-16.620589511431696,0.9659285972365552
-0.2174274903783615,-0.0502264248999914,-3.7308617957121313,0.8898701449864492,1.2952716287378252,0.2503455872406054,3.358149000622138,3.0293072992947465,23.326283228139943,1.6484510593746036,2.3509506433303224,-0.899046900450785,-6.056640048706633,1.0907909612790854
-0.2296774916312052,-1.0796630691862097,2.0088834850279707,0.0607026185868301,0.2538013721286292,-0.8401253280581382,-0.7686340333371735,0.6995590295760303,12.722566177427913,3.338552538116496,3.346819572879391,-1.48184511313251,1.653670519149754,0.5130018373716759
0.4345720830400821,-0.7971365302553644,6.148776129907105,-0.7680992820190871,-1.0931309223818484,-1.251889677054901,-7.782009142411224,-3.755070633463204,-6.643322587968528,1.7282880101636242,0.9297208254346746,-3.0193042549094824,5.032903378826722,-0.2953058844033634
0.412612457129321,-0.4153417874678924,7.667261851924562,-1.625564508557627,-2.394728621806736,-1.058503597103079,-9.912513979892031,-6.810312019727908,-13.85451255256042,-1.3682642121047377,1.5318121886160647,-2.2066328868790053,5.086260524547673,-1.9166556534263537
1.642744515148928,1.2335228832594545,7.206065297092068,0.0949418207522396,-1.0551585749374854,0.8966283958037298,-6.027494414826699,-6.615443170789154,-7.498270686324637,-3.392942026415721,5.381584342710921,1.9097601421115893,4.4564650144614495,-1.3462355274487838
0.9318850228202892,1.5693458102187643,6.503365893271123,0.9524330482903152,-0.160001812924084,-0.275379587125882,-4.195341898371451,-3.899102037368664,-2.9128763222356397,-2.8130932756185256,8.421363125019727,4.37555717620714,5.4939801049307375,1.5953107128577102
-0.225798746377454,1.0328079307942677,7.0144503065772765,1.4997247340821485,0.2748059721872997,-4.505863989907315,-2.5294188727616445,-0.807839382922908,4.819828080442618,-0.2852953317166085,12.07710489988986,6.068393761298604,8.547978886892968,4.696266930194
-0.0060845391369734,0.9968341151489596,8.799671172467313,2.16079034890216,0.6775675363927214,-5.984464862729018,-1.9497357950563057,0.9699244297315968,7.498845441130053,1.8312182779780768,13.013728810517122,7.483309827927386,11.74239876337218,6.496533414415605
-0.4025637529075382,0.258268112837954,10.537736939554438,0.7888377367793508,-0.4767305158262814,-5.393232164052973,-3.687960327970106,1.175148362092572,2.8440096152598,1.3626130373315348,10.572597613785872,7.82481779790212,12.514001980503732,4.698976284669068
0.1270037298223117,-0.2389052229683827,10.604892259635996,-0.3992661566903521,-1.8025520200588925,-2.69670909999127,-2.5995628675948628,0.5995324818140073,0.8519780445158477,-1.829152946723953,6.484760870985068,7.425392078714373,9.833901150722468,-1.0420481071970953
-0.0651589864835237,-1.138579006775438,8.319532214188145,-2.076418180809534,-3.165826304913952,3.3540908606027107,0.9710359480069112,0.1486103187595349,-0.8248072181462864,-5.527464911111013,-0.3179257174409468,6.0449085308318224,5.343132243797571,-7.784823774875707
-1.1705644686595678,-1.873455652539633,4.383800808438179,-3.191863625422256,-3.986834767353157,5.293316654720552,2.7209715431640884,0.2966723486281122,0.0514353253681389,-6.699402946969127,-2.880092212431721,4.794747345188449,2.3240980984411674,-9.89454760928899
-0.6969186692505879,-1.1018299875978104,0.2848660920351058,-1.588050838900587,-3.2254395108566443,3.043414959131656,3.3985041813966506,1.1306243438458483,5.073682310883942,-3.74468737042425,-0.6393403839722799,3.7090986646113175,3.1492062538869803,-5.438209397299429
-0.2577594793133756,-0.3219339519588924,-2.730560090226549,0.1816593682887919,-2.19577291166162,-0.6041809709713817,1.4168951849790783,2.5406570275601084,10.30001472120119,2.2721432559590053,1.784466418912914,2.8377272214026923,7.243050895513106,1.9554907283516785
1.405679901880019,1.4368962270346683,-4.267263796199199,3.2452869997788274,-0.6764875490903849,-7.444851469762931,-4.184233280002834,4.215732549093837,16.753448762556523,8.352184993847446,6.140037159450057,2.5062132136224022,11.35444989598732,10.25001068023108
3.27604091863428,3.007988347472319,-4.656051739224896,5.397950271344302,0.6151595102524612,-8.561072515484126,-5.624396453145735,5.594846688065567,17.09840309029451,11.66350185950693,6.746364928896892,1.18233519834595,12.066198704293818,12.90319205844978
3.3280161908844086,2.7969300972802364,-4.456870878001085,3.984575200582568,1.0401957931382804,-3.2788279341476314,-3.0615063634071045,6.084677238272312,10.12991600077121,11.361038147912032,2.744952630754341,-1.0903880569115636,8.503908997417945,7.73073581169616
1.833881908076344,1.7187207764695662,-4.141533813516945,1.3551468968910032,1.8966610260930297,3.1530185566381537,1.91318805306715,5.49502149519796,3.475585989056821,8.755354824207801,-0.626484667887014,-3.2452977350406726,2.9449413889019023,0.5117969235137211
-1.2004337148589146,-0.5702824302225452,-4.112980885962796,-2.946974360515454,2.703089273713121,12.999484635289276,11.185915088516666,4.262426865756832,-4.778995112018994,5.85417879451462,-4.832869574644843,-5.562953012733532,-1.175907579575321,-7.350067449296215
-3.1830570528739783,-2.5665924439016523,-4.765769231776816,-5.580116445338997,3.234532647477057,16.179464196226775,14.2756677618748,3.154550888725717,-9.095277707284218,3.6378141876749326,-6.596522673750257,-6.225512893446639,-2.080606260529166,-10.37834996467433
-3.497179723096198,-3.102421844202348,-6.297200142219827,-4.214075770138058,3.562985900865744,11.50457102128612,10.725414706425385,2.6715937372209853,-7.909111892775404,1.5684699119498386,-4.984639923795184,-4.904425651619108,-0.8205604605534811,-6.8760930926239
-3.479778753356036,-3.180633286659387,-8.384795396235585,-2.5584448983173376,3.3162926732418243,7.268022266282779,6.214197633597575,2.7017289879828192,-10.259357001556577,-1.3378237743086991,-4.015189757046138,-4.074159391961621,0.1029421011176703,-4.189479300467358
-3.754710507981687,-3.5661303635697323,-10.1352853611965,-0.8476021249594615,2.882999214721164,0.9197425114834006,-1.7897147472909194,2.757946812859194,-14.717505783663537,-4.989397747810054,-2.7169645351513614,-3.304604265205737,-0.7297644016618312,-3.1862730091781373
-3.840386655665175,-3.3832570978691603,-10.51322512512464,0.1749309298449537,2.647912699155941,-1.003129508400795,-4.486377532342961,2.5489485835445667,-15.649138198059363,-7.76948142026535,-0.8479688844980143,-2.285387581103315,-2.3083925545612853,-2.9043437172261344
-3.118171158059944,-2.3833104184793386,-8.978618797676358,-0.6854125634421784,2.621525109781204,2.9914256007638445,-0.8406443666805072,2.314224279250805,-14.125147340742194,-7.679780485602269,1.0855408176354464,-1.4188138705336348,-2.1522134540599502,-3.301561596675356
-0.1125460024656011,-0.1779604527617471,-5.824633966477935,0.2729133672306094,2.6783968233309308,5.255865661243386,1.5609887419931,2.591524245438759,-10.359039463108362,-4.103823650579523,4.451580496926502,0.0389055795820367,1.413787935860869,-0.1035373606272643
5.759082950981324,4.640957340409662,-1.9646347458577829,3.135163454060959,2.6444877159605498,7.571868463870951,4.882007116933106,3.6384110086252193,-3.336063859920092,1.4082120781032348,9.214839682577315,2.0418002151738683,7.728394087475721,7.139963209065499
8.684294847038178,7.43902846744856,1.6051893973947724,4.122678237985351,2.1985804573970538,7.593335669785862,5.960573716170556,5.056644222599875,0.2576666287755098,6.11190011529869,12.140744368343524,3.6786102201322985,14.26084154433155,10.690089542230764
6.63369726729443,5.875469756233982,4.229534778563881,3.177421727545801,1.6301704333862077,4.016626398823321,3.622961508309119,5.986001479311078,0.2034863055067789,8.044691214638155,13.236979031546776,5.019621549602601,18.532329146302978,8.193462166940993
3.3338267538960444,3.492400310384738,5.683218643248871,1.2992216403391457,1.0184786338615242,0.5216683445640482,2.271488802983136,5.738162650722117,2.9084978832759467,7.381605540761196,14.85839660607974,8.158238852222485,19.804105060967093,3.949513300840629
-1.9125069749837549,-1.1481405836122889,6.063031834335542,-1.620824871994871,0.0463483197032725,-3.8329430510497495,0.9017583525809476,4.375076119380031,7.077131500286163,6.088571520508642,16.342084468896893,13.092088200574164,19.22281146293284,-2.651089196546866
-4.687908933909447,-4.496460033235177,5.729938259339633,-2.428667599669426,-0.1666312212089263,-5.407984264440146,1.1914210046507336,2.7868468317835084,9.457112287179656,6.240316512778152,17.541209761817395,15.996234452439577,18.524356997481505,-6.2574848616516165
-2.3085367335988787,-3.000536686647842,5.334627726338514,-0.6872433114676199,0.2332477966504652,-3.392660157385412,3.922214197056289,2.2107471341312426,10.763414706913125,8.446398075591787,18.72402199508423,17.066543459382075,18.554441667731247,-3.918443356837213
-0.8573913893445729,-1.767488821848241,5.713232155485166,-0.105720570844162,0.4429714228156695,-0.0559221550917175,7.935392040940341,3.5139583419888183,9.988306552684657,11.635302660810389,18.94125849569369,16.76939450918835,18.84898255411308,-2.297798502165532
-0.0925803074728464,-0.3035916798696123,7.483708189535555,-0.1851001348672517,1.489433007071396,5.809460724892654,13.98230741931784,6.677573334921044,6.463208805121576,14.222141472630303,18.17648655552876,14.190597413993604,18.45809895391035,-1.280913701419628
0.1056099282020159,1.3208881176397642,10.505386940810268,-0.7678973293358244,1.7596617282751337,7.595233963767793,15.955141610781984,10.746579959952818,5.378578215976915,15.528358594541592,17.767505943727095,12.818158559477563,17.085802862778543,-0.1691920111832365
-1.6711219728147146,0.3355290287957984,13.652262423564224,-1.8506613151975355,0.6842635456476944,4.710045320218367,13.364388044886674,14.23791534157466,6.637346298233618,16.20243140062339,17.58849409131071,12.629649858238306,15.421708168554073,-0.0428479660077665
-1.8630799671474512,-0.7618944341680676,15.246957168804668,-0.960282573262358,0.0904911113607614,0.7657578942340011,8.819220231825382,15.791998907102654,7.573914042359757,17.344252564662387,16.631476391789178,11.384331411219462,14.389863105220808,1.4907689468191414
-0.4069661974239099,-1.1551391159842406,14.019076401773068,0.7903406458688715,-1.2865823067866766,-6.002760066680359,0.6289036618019317,14.76844019653981,9.284936488112502,19.184739394640093,15.095751663045736,9.775923226983586,14.1013227147541,5.171749597810942
1.009791939822255,-1.4083355831762228,9.975623806933664,1.798118697707241,-2.074858029568568,-8.65885952105877,-3.016855564977288,11.506509208511773,9.774438481020288,20.545085435223697,11.58779266194864,7.078966543146192,13.56819048368569,6.561067626645578
2.376349107980435,-0.3710269663860547,4.535575106048203,2.2219347045710567,-1.0709802398775798,-6.508478002087856,-1.529390349429695,7.110124012943947,8.70963659188346,19.612600924759164,5.7890662006505895,2.98435341041395,11.472071693783551,4.429818965740062
1.571555147703865,0.8376756052191782,-0.2318937995188434,0.2433723366728407,-0.4109088742132666,-4.396588389718416,0.317282847152868,2.867454386477057,6.681212689095672,15.436315572114776,-0.5296395353992489,-1.3389075544685631,7.260796280287803,1.0332383671430223
-0.3456862895584505,1.1556559019287491,-2.7819632320470458,-2.3136609434156528,0.8864196839419227,-0.5598772331721638,4.588870477819429,-0.347862657609042,3.050274444534926,8.915339021618445,-7.74976938837709,-6.118533812107259,1.5818592264450793,-4.672247938590186
-1.4862087192411155,0.8799037099046848,-2.9085527822884565,-2.789957298508752,1.9895269453135749,0.4420529803500168,4.676610174125959,-2.328480834776318,0.8360330808356473,2.42748893700648,-11.432004535086524,-8.214141112064443,-4.225462637854861,-7.709933086883144
-1.905940001077476,0.0484426653193925,-1.6985184352747638,-1.8010644863725016,1.883560383282867,-2.1826772572408686,-0.2347641580464276,-3.3494267369205843,0.1353963970883584,-1.6762844632835865,-10.854479420378263,-7.118396660465607,-8.958236639258043,-5.654641678460582
-0.3813663555260108,-0.2871790224241647,-0.731213712876535,1.0389643768037533,2.2093172292069814,-3.478220776930601,-5.368769857684392,-3.803124108292552,0.8392426106806159,-2.5859225836482924,-11.777487689746604,-6.337411583858182,-11.93113256460582,-4.176803088693718
0.7034729077782678,0.4007227114693593,-1.0961648648313955,4.023418094485207,2.2683012019047637,-4.58502928774327,-12.459020725859869,-3.989867942247328,3.809819852848248,-1.4247173270789038,-13.153513568674638,-5.071584355578124,-12.823712320335815,-2.181268126884077
0.3122150168982043,1.383670267627784,-2.833848363488766,4.257696391198787,2.177869777705153,-4.496345603400566,-14.025441509135463,-4.140278576453493,3.45555156420482,-0.2792458226832401,-12.92513752108627,-4.92242928159751,-11.555367932903089,-0.1453099126673947
-0.3933049907275943,1.6365892438767289,-5.059912796024159,1.77503495812493,1.9852548169398203,-2.404124521692782,-8.983408419108457,-4.452937832655499,-0.333519579476296,-0.6786323660769025,-11.867066199411818,-6.5597057862824375,-8.576949026062644,-0.0232072264895548
-1.60768189179871,0.8327376286685402,-6.59548991707384,-1.2028309026349089,1.1943874398567718,-2.01495392158856,-3.620346759577799,-4.956561616761928,-5.466181641060084,-2.686792732515473,-7.234469359567564,-6.34091699810786,-5.203477522642279,1.6448402138745533
-0.9663986867854546,-1.1307196693983563,-6.680030076006222,-3.810551739369824,0.4524447517136502,-3.0193320425604395,4.055341975982097,-5.322862399001192,-13.31998557029564,-5.17565682163503,1.4391181113857614,-4.685941264796693,-3.259092739497333,4.514416123497443
0.9884639474553414,-3.2046012964877746,-5.366137991705557,-4.262749997255357,-0.3244811695101764,-3.750913561120375,7.01752217621547,-4.948322269791262,-16.894476838779017,-6.866310531316568,3.699837559508486,-4.267344208771737,-3.950993865042662,5.064164538941527
2.089383529980121,-3.324923449128592,-3.419949406268099,-1.6462420877807544,-0.3185611519033863,-4.8650604421808525,3.963647250294268,-3.399373719942197,-15.672731735356308,-7.219564408175017,-0.527367235162861,-4.607918481051883,-6.903511413730264,3.565695663248692
2.842522951420954,-1.3120104026659587,-1.8350119706030876,0.8112114854382498,0.1150169960165675,-4.6290302369658445,2.227164177142904,-0.8851627909692468,-15.011113554546126,-6.583713124212263,-4.011632001802044,-5.223586480110497,-10.427645593697196,2.0011639790279507
2.2847669341357832,1.9464433642449976,-1.2753670243930308,2.862563234031342,0.0789316095292048,-2.756204430152564,-0.0608412778605005,1.698699175498156,-13.264233878385156,-5.743352076482836,-8.964791353628279,-6.561952625093471,-12.976476958384549,-0.5591118821932157
0.6976228339991727,4.561633947392176,-1.793972722677374,3.3842117419940365,0.328228315361227,-1.4789036191304967,-1.25259436323017,3.241585358535538,-13.135886163502215,-5.426980822032174,-12.202768222505938,-7.499274183675835,-14.444812430937487,-1.9290930645047064
-0.2678151686360847,4.2618843718547055,-2.984062353178292,1.3009085216914416,-0.2352327976804765,-0.4071403874969695,-0.2455493906541494,3.011037517941073,-15.445899085499448,-6.13025638040561,-12.632795765585804,-8.017316883831167,-16.002590981677656,-1.1794849301212456
-1.0256089773880577,1.1805310794543795,-4.396798569657175,-0.2574048000597424,-1.377491732301086,0.0734539830696551,-1.0355878563526222,0.917373532525172,-14.46415504404104,-8.159945568910217,-16.802593912639228,-9.364044930641302,-18.661866301786592,-1.3187918969446613
-2.1870215377200903,-1.8995288029133184,-5.838719313000855,-1.496332918172718,-1.767166402340911,-0.4678984523078203,-3.0285750810291066,-2.6018930873257133,-10.751782470408209,-11.624061452987856,-23.970749566271365,-11.362628962557034,-22.18906771944016,-1.1366813817165105
-2.4654622884684136,-3.133018976537421,-7.272467783249048,-1.8081813856016185,-2.4268290596088664,-0.1773112295044557,-4.156378997168079,-6.772588563850153,-8.45481269384295,-16.299518266426784,-28.298612567554237,-12.452171464186655,-25.62937609418108,-0.605122083411197
-1.6324740213189337,-2.217254625736089,-8.460352544377926,-0.4544640950023162,-2.3683966291505145,0.8000311635753243,-4.938337443759632,-10.554931942631349,-6.749098034538224,-21.554637097234508,-30.55025930339326,-12.720664322235816,-28.827004411216087,-0.86589956956742
-0.9320663114737986,-0.1458630065450376,-8.832896562744299,-0.2310751093165183,-1.3891353682032967,2.580683211161827,-4.25542807845804,-12.7960740973237,-8.168031418670536,-26.47653463914895,-33.22827699361658,-12.572243524830624,-32.9797297005815,-0.8354856492271854
0.633152465600344,-0.8661301077496032,-7.913916971757963,-0.3520654523459583,-1.1316441744008263,5.5944743452584405,-1.6807355431417998,-12.746336422233268,-13.692090041469994,-30.133054751321875,-35.35281751698814,-11.652358644132493,-39.15982909883194,-1.0826143824357466
1.596667155640666,-3.0867855110449702,-6.012578659078297,-0.2822562204900458,-0.927959056533734,6.085057145101411,-1.087098818605897,-10.759534896041888,-14.804472861515585,-31.799093530505854,-34.99160606449067,-10.879147604150477,-46.12221248557343,-1.438011611408472
0.9424453100880104,-3.205937462941057,-4.404484230587045,-0.5258814446972153,-1.2927457494277688,3.9369735625069895,-2.3394114290462493,-8.476160284548664,-11.86103367689415,-31.09349439548617,-32.124623538825354,-10.26240683513359,-49.977799297496055,-0.5001438898281777
0.3533292855473121,-1.770160024361833,-4.513690967699414,0.3479075870604342,-2.691356627351994,0.4604849166723954,-6.015903757756559,-7.943006150020533,-6.265142865082528,-28.092287900010525,-25.17944359756793,-10.577842528485965,-46.77085297065519,-0.0111084618150072
-0.5370811355638438,4.200639455396695,-6.583594978100022,1.350968469540155,-3.645300720912237,-5.310158834422492,-13.166643250182164,-10.04274637203112,3.981659270404737,-23.39927375118863,-13.39526538016579,-12.152331003182912,-35.96643289458349,0.3806697016434675
-0.5558595738792038,9.46070831622738,-9.057664856339503,1.3343682515733937,-4.483801337288496,-7.747787413129609,-16.95615451802163,-13.4800941620005,9.238966974724615,-18.001935998046978,-4.273302045051792,-11.5997312837385,-21.48578948004613,1.3196549906326294
0.5954226542640395,7.221950618459254,-9.482059626021186,0.6383840389930858,-5.63985618307837,-6.461461209439495,-17.43585486505388,-15.414807576820676,9.243921314578998,-12.812888657079124,2.2906018939536734,-8.97615004860359,-8.912668425134756,1.4007304901732904
0.9278941398977032,1.8576431920459784,-6.387984969596944,-0.743881014933857,-6.374690301753662,-4.719508399315627,-15.891456178830689,-13.538244704455876,9.484711230213565,-8.12754869513003,9.271896273674734,-3.058833396931741,-1.1122169582040673,2.14709991334585
1.0537973469838635,-7.205151939592959,-0.5742931176551345,-2.1647008531957166,-7.395104079266426,-1.1000555729581525,-10.61396668487407,-8.021774987972426,7.761852824913565,-3.4699141540336704,14.965392404431883,7.181652495915348,3.792642077393454,3.43728673952053
0.419962664098461,-12.954123644680548,5.393456205107173,-2.453250033004298,-7.642752075365378,0.7203232185137269,-7.046816874553925,-1.6346611296682276,8.56466306232159,1.9134214798332945,19.07100327330188,12.755106651759014,10.165452449796682,2.7662366096263478
-1.6769435994097326,-8.399548676070841,9.086439995691842,-1.7185342980746017,-5.65831661875484,0.2745817467269151,-5.138922866366571,2.255332941498974,12.629433417447586,8.213133316030676,21.425420522763822,13.66396382579698,20.33335112660953,-0.2664733516950103
-0.984586515607973,-1.0919592212246785,9.885935617759356,-0.3031225047197427,-2.991752486726395,-0.1107408768544757,-3.3056132507510485,2.258698748833524,14.923096485901905,14.55909025596861,24.24353647082424,12.902338301017815,31.93580920825181,-1.982128806971607
0.3415036222516091,7.680227407038094,9.063253056089994,1.350409539291748,0.5703339544500166,-1.4292807127910274,-2.8041906949048205,-0.0212337144130607,16.50665637448251,19.344280433693392,27.49750922793239,8.303293349869026,39.60082803194554,-3.721142413680744
0.3128839695813356,11.863872120858131,8.394188351510381,2.0851036330650543,2.7035101910131942,-1.2371280272646652,-1.0670132151247285,-1.4131047569869342,16.5287299798995,21.190419493592767,28.614981600541785,6.899824581872238,39.48892304583753,-4.458553798470944
1.044950879038246,6.484887608283756,8.674052774491551,1.933515158223981,1.8349603662757696,0.7822268400139698,1.9003525116562077,0.1624380835764443,14.12771788599437,19.84289008916651,27.92958446432587,9.020639204957549,32.69332735416076,-1.4070435893705997
-0.3939279792465415,0.6391363718008413,9.35850345911958,1.7028812876152322,0.67576324351449,3.358947516207803,5.555753058673321,4.05864327596095,11.833705861494067,16.3482079367687,24.251074707658503,9.725686958273686,24.537097496816443,-0.0513622817465183
-1.5263498287695096,-4.466375711935681,9.357025175771165,1.9403981439742517,-1.6362534484812763,7.18322847486595,10.503200968641586,7.626651459656077,9.225513715655172,12.431473282211993,16.923786967946448,10.568685512808363,20.403174368102672,1.895800571349633
-0.4822973363231496,-6.437276166568919,8.02514020901591,2.0822000267910923,-2.4910135723800395,8.177933893269753,11.557226949557306,8.554702660740784,8.338546750010396,9.55399228372399,13.288906968031991,9.602816375082952,21.63731219323002,3.925155362003248
0.6485156695752694,-2.257102010798532,5.50607018500839,1.6141691829791496,-1.1385569198687806,5.975110192343049,8.376113464465915,6.733051721463863,9.812750392185324,8.258270918452002,13.409329912406282,6.1421004229364655,24.849958654579964,2.720742007748123
1.3708188547604956,0.2323227589704841,2.413667539911856,0.1350697062796835,-0.7121793402879352,3.9360882578123286,5.562163313263693,4.112544352595775,10.904255896880915,8.108926498983484,11.448387465033488,3.771279814991396,25.00330102324877,1.2946455478629764
0.4578162905199041,1.0522782946235822,-0.5736459034209354,-3.046760528172952,0.9863798035248528,1.0841513018108138,1.9662452085730373,2.8752403950717422,12.247650832771718,8.137140943254785,8.87194423215129,1.9930310891042824,19.620086308796484,-2.079477765669528
-0.7637955219033377,1.6142732500427712,-2.838615933747519,-4.922289749910702,1.8663336190828328,1.054574835594117,0.9282893057209444,3.642913206177852,10.709218274446432,7.471204411134627,5.912844752967229,1.6963661098689873,10.757958175286683,-4.277332241621652
-1.1479152283324991,-0.107540669747826,-3.848284083833203,-3.928705547396568,1.5678147943401082,4.591208184847856,3.41300257756962,5.207271159038013,5.587462648680743,5.822197568697614,1.7954205112701458,3.6639612838469175,3.362804397954875,-2.4607062161642808
-0.9577062414656938,-0.567641312197002,-3.397811708186392,-2.237378104952955,2.9836563480222917,6.956382771645092,2.231489375252358,5.781698354087851,0.4789194521040593,3.591748932898488,-0.4801840212130015,4.185614045167792,1.4620025533557133,-0.5446298534686446
0.4135650805540581,-0.1493592567079314,-1.9735135517323543,0.8603154428099173,3.23094150645107,9.06230673633578,-1.9212331986804476,4.512961841195043,-5.496854944044878,1.5485404896568813,-0.9147512209166768,3.552514105546293,5.164449805384066,2.7873206494470564
1.3710580252891091,-0.4893830238780553,-0.724588674315549,3.00671744605202,3.4942268455120065,9.46377105674356,-3.516991726717136,2.014886775772472,-8.5269711883412,0.2829750421115493,-1.2318405853580223,3.0253115215286988,10.6563331935237,4.53045635256606
1.1382218056214557,-0.2766268187188858,-0.7520334858537165,1.9379506483605784,4.68957242210271,7.236466267879891,-3.5641731086200807,-0.2765857678451882,-7.743702835231216,-0.1431466683628866,-0.8027408152727363,1.8942598085003064,13.090387152975516,2.118087170890333
0.7403838379083008,-0.0560196480253268,-2.1532489053289297,0.9746574246584286,4.430778066086856,5.85188816704818,-1.0927920978104686,-1.174925877939466,-7.854050324211636,-0.0409146447132879,-0.3146051874069068,2.286184194396513,10.175785970145323,0.5139031391269332
-0.3327056478983439,0.0045531692701008,-3.714713671009784,-0.0793809196051817,4.815501613946283,4.776439077607242,5.005802083496981,-0.3974954217681836,-7.817706517019267,0.4210940641202247,0.0365111517796735,4.3825140398562805,3.812499094939664,-1.4820934396131775
-1.3126135307029765,0.2630821594287814,-3.7147716892750906,-1.0867199527838838,5.473275047972667,4.6918755089503605,8.045066227627201,1.4656057045388002,-6.957289129151398,1.5239969476013222,1.4989726909054235,5.719995275971526,-1.4198260173232278,-2.7213226646831576
-1.1876528544355662,0.4489264722130859,-1.2797081734857445,-0.2309161983521011,5.02133840178589,6.296096899169417,8.194967945287218,3.4092282760959742,-5.891259072971591,3.6685023470364735,3.9254712291177194,6.7129834597774,-1.737951405813737,-1.1369412286893104
-0.6583466178081263,0.7289129541766511,2.876500571899664,0.7569951065873455,5.1538622882688845,7.305227039802729,9.735692779352268,4.554760217067885,-3.2996473693351303,6.679746187153146,7.706741200341336,7.196238975654285,3.104174069661931,-1.256936837350187
0.3319758301531544,1.3276250121365718,7.020432838195315,1.2982858122344147,4.99078790104635,8.049065892149017,11.37859310771418,4.592394065303962,0.8387031410973462,9.563214316699616,13.140428355337315,6.7058971532388165,9.922657495130666,-1.9412476340445168
1.04007861310845,1.454905747594063,9.79331315222569,1.4654124463065288,4.907550217946883,7.095799282702475,11.830762498943548,3.9949818355668896,3.068478257744748,11.193578523755171,15.27098553517773,6.4663088316170985,14.832516759397338,-2.091426539252632
-0.054090604986968,0.4322558817951341,11.19151028240921,0.3558181991601575,6.198362603106542,3.877082691867447,11.433580242299028,3.823923862797951,3.3881967930532304,11.38932229716971,13.8610049066132,6.311612723407985,16.19340488417238,-3.09532071350045
-0.2707586944559614,-0.2780015623591917,12.283221595156252,-0.7562145977838796,7.337118891235468,1.2449982309293297,9.174553057232696,5.073103713692827,5.8711450098557,11.2039968689407,13.597585212758585,7.567916452818814,15.280899520361162,-0.4327916844483578
0.7097731100102407,-0.7154859529444322,13.966876571784791,-1.2336196668381203,8.838050151169151,-1.2178208251778182,4.721920798985774,7.88091139111204,9.966691620689684,11.903396260657136,13.450268991655571,10.599502939238238,14.333872063884105,4.311978737772985
1.1115722824534544,-0.791467598712104,15.915163894473082,-1.0597654356788713,9.55952035566922,-2.712287461735992,3.4831955595784443,11.217778311096476,11.53898116675454,13.50478909305691,12.57088740551974,11.51867121217444,14.03803200267398,6.201210081710438
1.646612818343828,-0.0331469691493199,16.647551169684487,-0.0690802289041342,7.9111086692561905,-2.619651845153635,5.557227575406827,13.425992062946316,10.991708400277322,14.431169328641584,11.589347254093092,10.497672769206217,12.91630599179803,5.499141858452695
0.5197915128135644,-0.661054841950693,14.69492019962103,0.1880335188810485,6.2372419561972725,-4.163947168924951,6.828176632700178,13.313891878447231,7.363969232453731,12.86911793716283,7.1857583039225545,7.007135598143306,9.1379986317771,1.4379856657564165
-2.8195242766157627,-2.4409674461932496,9.931926772830227,-0.4733258269233632,3.765459506780709,-7.119001390402231,8.431590025454174,10.98509198970527,-0.3993134918195543,8.652158499785731,-0.9078562558594484,0.0161529635904778,2.851352324116254,-4.12834888139338
-4.598728902832361,-3.2452906847227414,4.018712654014768,-1.2528906664544175,1.08177600850608,-8.8605400313339,8.332308097938107,7.740831304707315,-4.62664670897007,3.7641336726669694,-5.087506804253043,-3.25232686336711,-3.372641302006059,-6.089692731641797
-2.696738957620328,-2.0806374316745493,-0.4716408707537738,-1.347857018703799,0.4386960348970178,-9.866087074295807,5.817573813356525,5.145930273134786,-5.381327368585805,0.7715242806774434,-5.626374478267871,-2.7834850912102764,-6.558770131245893,-3.204422021893089
-0.0013967581638973,0.5217190291426618,-1.7367048055253456,-0.2171896954957083,-0.8363912795370402,-9.789731150937984,5.350905814921108,4.022341027741863,-6.500998395342284,0.5495266057422228,-6.310482379357195,-1.8604827410453653,-5.985562325422151,0.5870126857457492
3.7628597953166376,4.106429523351688,-0.1024033728968571,1.7941828594779936,-2.615144563018038,-8.12108397530438,6.466125708917177,4.122691070282139,-6.3116480782549225,1.4807160526082992,-5.562953281115799,1.167506948927574,-3.988689166728815,3.485749913186459
6.191493863241284,5.7578983319555554,2.000122122412952,3.239068936094416,-3.0022548086424905,-7.806647332626567,5.84763942234256,4.588277134427077,-7.081994672188034,0.9782115157045403,-7.169069495031041,0.419090336442051,-4.074623023452162,4.205150060776584
3.4006462360592837,3.246747691627327,1.6196548205698171,2.5413674175020344,-4.211460308787303,-8.783474328623198,4.1085720021280485,4.645946271932081,-9.171090681802708,-2.04081288330217,-11.694547896300294,-4.6906102162615415,-7.946719367206043,1.257202969595597
-0.1562054105116993,-0.3811901514377017,-2.5760578717843448,0.258316973515184,-5.520506062780207,-8.956436038876548,0.7022745279670739,3.940188348949494,-10.145517978773722,-6.058784836223303,-14.513141741795671,-8.750757211067514,-14.037674747366914,-1.893953686755366
-3.6826388319279215,-4.562900225060882,-9.21299582164716,-2.454216004263796,-5.170713136635831,-8.877686608086861,-5.030083968774877,2.4021114278183298,-10.5194856216104,-8.300274978796725,-16.46143796302613,-13.113157555118448,-18.8170784082693,-3.413369764316787
-5.333261882406124,-6.276246471737255,-15.125857176561189,-3.549660940169063,-6.156597314160004,-8.188675946017923,-7.771762421778735,0.0420407773807394,-10.093959473672015,-7.299102867572296,-16.691696063912442,-14.399824695273216,-19.708195331344022,-3.072427521002761
-2.394113623288323,-3.0330281459427444,-17.655812441294835,-1.6811761988703775,-7.346612403656136,-6.576337169856108,-7.476513714381993,-2.9947106694130188,-8.475092776808907,-4.339636897519858,-14.321061581415684,-11.541928089647358,-17.080148147682756,-0.3691871389488373
1.059563441584304,0.4265770832254986,-16.515177239219383,0.9849876287498192,-7.092031411937876,-5.459281206469385,-7.399042466904911,-6.23944327566268,-8.16582059972647,-2.459404123580896,-12.589402338232327,-10.391768923058237,-13.674296464871832,2.120500213442923
4.113339965945759,3.927877641319715,-13.72302599682718,3.1108897250058587,-8.319396590085116,-4.72971684596948,-6.385692646636681,-8.9917196630596,-9.16692770480748,-3.8991727728724346,-11.127174007991284,-10.05600665239058,-12.14181771015672,3.530301579086349
4.552691060010037,5.414602721088149,-11.76469247754474,3.18862572812856,-8.232236821337727,-4.017214066625795,-6.686070482376807,-10.800306742969385,-8.847053920363152,-8.218175523654477,-10.657102062159684,-10.24108925813927,-12.975481044722244,3.0077065560050937
1.192200168695501,2.621494980087374,-11.637185259798148,0.6519935480290985,-6.159725448154691,-3.606020331567462,-8.785346772479338,-11.863365898531036,-7.6203426012839905,-12.63105117830948,-11.911748722965749,-12.00108146962314,-14.58220070045424,0.3465793370446005
-1.5190416678741996,0.4552978652147317,-12.419123969739976,-1.631258705260726,-5.084516849282957,-2.85217258510161,-10.641229905869002,-12.777489323427226,-2.600322695680411,-14.1810555553088,-12.265777276855594,-11.764982440231732,-15.14316539059916,-1.5746846783071833
-4.190141891603305,-1.5341191827825191,-12.506965464862246,-3.261272340367204,-2.210968369252436,-1.7425512130180336,-12.89868858506499,-13.716733281678644,7.01259489768141,-11.90549766489619,-12.05265788650084,-9.642887413522558,-14.300067341313133,-3.6811573553283696
-4.82893279537188,-2.7466242989933933,-11.154254179974204,-3.1840223290647613,-0.1790169565355053,-0.5392912879002618,-13.131697767010236,-13.893409234317808,10.62128538156204,-7.343077354575804,-10.573525931650495,-7.893174373993333,-13.083141851484667,-4.371274347539916
-1.8562805580718,-1.431623372100141,-8.860579311334682,-1.035502388954606,-1.0387824100944687,0.9058156278960026,-10.90736427661486,-12.085122336259635,8.382287075978951,-3.209182741787153,-7.243308142081895,-5.857073053391846,-12.374131973040114,-2.3731579778216565
0.3037318393865655,-0.1419829694805743,-6.46888567440686,0.878474513703696,-0.8919374886421207,2.111179432124544,-6.429459864442755,-7.963189787112546,3.839571415652984,-1.4581606736338024,-2.708611303091528,-3.323463756790131,-11.643904614114453,-0.1691363762722148
3.76233105376176,1.5637821141947688,-4.14901410615029,3.387029519173787,-1.949586130677606,3.0387703976316582,1.179336780755702,-2.949080468755424,-5.491003715244205,-2.1995805667044257,3.478551375079995,-0.5339683440684031,-9.332210327164995,4.05012251801842
5.819496108361606,2.190799875640407,-1.4361916062098237,4.1150480755019485,-2.912070810352697,2.690873646978848,4.059668609199454,0.4607440164817564,-8.645552462760053,-4.068248469954429,6.367498668400393,1.0901844471469884,-4.519946273019061,6.312971420307106
2.961837556493918,0.2925532358376448,1.7710987062635706,1.589693583717109,-1.6024117353735037,0.8147214907076299,1.865632772292769,0.5446266141867984,-4.910214769636386,-5.518131084136932,5.549539227840568,1.3544727937486156,1.765984088716369,3.5046248536808107
0.1247722219078576,-1.9557012533434397,4.500596695918592,-0.8315494092166129,-1.3921607077016125,-0.7459528550280317,-1.9798097619744224,-2.22328964037094,-3.0976202698773294,-5.947029758650249,3.128429792302434,0.3338300543440854,6.945831463617816,0.1534051476836975
-5.183540841892598,-4.998504096081334,5.302877140952239,-4.8020545897559685,-0.9174481782998424,-2.227376236666612,-9.487651538325116,-5.516606646457435,-0.7440475428532862,-5.835128812319922,-2.281601225600145,-2.485076884879283,8.74169040239655,-5.385641945652921
-9.139987585548644,-5.918890582361957,3.754055082434663,-6.833047135435547,0.149134483921372,-1.81546874329966,-11.75372005371965,-6.992715270139445,0.9049531900070928,-5.898520449101264,-3.5051831938240667,-2.8018044225643286,6.953943030380038,-8.407260654059876
-6.396325308053389,-2.8217549624869918,1.3266856887576068,-3.831976310594048,0.2944941974279653,1.047741524681044,-8.063396072795275,-5.984353624025671,0.6851373287202688,-6.057082383288179,-0.0222965511960647,-0.4543838848661999,3.697186649350769,-4.69609395490588
-2.368908594471244,0.1393132279236691,0.5094265693018833,-0.7603243545244552,1.1077121974763948,3.001189707198833,-4.918701423695275,-3.638082544353183,3.9557798708841223,-5.21624432202279,3.45088764395895,2.28728717156078,1.9096152029992528,-1.052495958288918
4.411302642406759,4.066168061893874,2.739596324683583,4.0562816928690015,2.1799301892454905,4.515556244247936,-0.174117016591325,-1.6171125171645455,10.368173201316749,-2.222706760649181,8.676146412415854,6.465614452256281,3.292186560411669,3.59508966399793
9.64678452109034,6.387505618425008,7.003005544986198,7.114862752021219,2.3896687912380283,4.728935732023923,0.8876952578859609,-0.7334460552851958,12.476840594623113,2.7364059054318792,10.039898865813209,8.102538637233542,7.186544636098507,6.359205615625042
7.651220291207499,4.378449779596418,10.480746550313638,4.535921970697673,2.360725790361125,2.903152278523554,-2.8458319614409717,-0.6772323916251102,10.76751168218433,7.630670879854659,6.669054902138985,6.753320401308118,11.114368930204536,3.6675326699344746
4.532419729539186,3.3789514958943845,10.75852044739742,2.548525063055469,2.157284604246948,1.2041403546338014,-5.37729076374778,-0.7666736858314067,7.134194612560807,9.720062071622468,3.4071451749876607,5.696823362488071,12.474603983383158,2.643681283563502
0.520056721976264,1.78649504352456,7.6552727169935455,-0.2485931893313474,1.3781339112428317,-0.7864792873761053,-8.10822922494662,-0.7283783930910754,-0.0573796914525315,7.596162875879981,-1.240119777409525,3.948064847979427,10.164544606631452,2.3570005140881736
-2.869414520874522,-0.3959171082472529,3.1105247593646173,-2.642867175173016,0.8683574009656633,-1.862671355762286,-7.832254871309055,-0.7617197790491641,-3.1205752641975915,2.3951491514967955,-3.934487488291489,2.1989532771944047,5.098107954513065,1.565069129928944
-1.5109610507219702,-0.1441543618730443,-0.6021745998450538,-0.9966796954193792,0.8088846650067066,-1.5648139212481045,-3.3861712983378296,-1.0623312824076336,-1.6422139680175774,-2.987602290434596,-3.865000742274408,0.8589748844099008,-0.5377345971371632,2.292387019888189
-0.740561811149072,-1.3436093718816349,-2.5980393790068312,-0.9162747126008578,0.3087085536965631,-0.4084497040089337,0.5471811744448697,-1.4911766600738767,-1.1631006338209569,-6.075044319534541,-4.755561948399753,-2.05401606538636,-4.623886512397015,-0.3658877594522217
-2.181988576048765,-3.0797206916708517,-3.564239090547982,-1.3149420123461837,-0.1175335848128951,2.13482462402684,4.984876759743571,-1.733679782550185,0.0648251829019134,-6.465465168252079,-5.658533954477328,-6.361567358523375,-6.157612253966752,-5.254240704855562
-2.5280776714159874,-2.665242622041593,-4.5320772637765145,-0.2841440569195346,-0.2440528741531848,3.8142392932050977,7.018484081216196,-1.6512627092066197,-0.7230848247361374,-5.564032050002874,-6.43840830585915,-7.951659984611517,-5.512140032446558,-6.660516149761654
-2.7443576792927624,-2.081770568116441,-5.656749046441785,-0.5068868435328036,-0.7523573627726683,4.575896609981747,5.667572843643936,-1.3648624866617238,-4.350917552557313,-4.863655845248235,-7.548895473242207,-6.836882685601719,-4.001030617576221,-4.86074904639359
-2.6707244219078534,-1.5579970493589543,-6.200939647707573,-0.2366095940453148,-1.024161889466169,4.437190539372368,4.457069763562243,-1.0212836463513302,-6.0980388646169095,-4.60994739004593,-7.904749491006192,-4.974879264763247,-3.171812702167113,-1.0172023067099736
0.0529973262723604,-0.6354391087294912,-5.568957274834979,0.2223531809381962,-0.9661935122287518,2.7616075965530045,2.4209148047084006,-0.6004201859671916,-6.644274618551659,-4.125746779163678,-7.571396995618705,-1.411734392602598,-4.181815089040635,4.036709735151423
2.178281815217624,-0.5495561962143343,-4.188864993902447,-0.4559496145298018,-1.3279019837383963,1.62513712457655,1.6078091473727982,-0.0178595145999125,-6.499259874445346,-3.202315041760759,-7.002711664599984,-0.3540185655064228,-7.356735958478312,5.566789162762728
1.7921932505376597,-0.7488671562942517,-3.2794564213556416,-0.5657102255925516,-1.1329703067452592,0.8808429643117639,2.622124720121525,0.6539146087824559,-4.815838001987831,-2.788668092464615,-5.99893007917708,-2.24083004600484,-11.926989827980378,2.76660236560871
2.1880032850176354,0.7087459651152949,-3.721332881309076,0.3527208797868147,-0.6635901720603417,1.1204586977559203,3.9588936640289742,1.2092548660146925,-5.317440101458219,-4.0217639856841485,-5.1462626461645335,-3.5580442314347667,-16.08044720526688,0.4148610880729372
1.74852786693911,2.9356408770306346,-5.1599973102926775,1.9279408695440887,-0.623232499089897,2.874613906469137,6.338604815791897,1.6147576139740831,-8.078507785094788,-6.594097816291851,-4.521545267274969,-5.331432499608088,-17.598718280887287,-0.999403284194914
0.1613071679514701,3.656223266298701,-6.243606584340862,2.7224988015392446,-0.1473930543918994,4.161895300811137,7.67448254760232,2.1971772934044687,-9.0922054169095,-8.40912979162633,-4.460642817124632,-5.7245672020253,-15.089513992767492,-1.2853060659615
-0.3452320416785295,2.454313515244709,-5.801609438730912,1.34971028950463,-0.5304800979085706,5.2403501257783685,7.767953837724409,3.3509822991428937,-8.994889742465851,-7.278543071048956,-5.1973293152139375,-4.167112597405925,-9.187996039576936,-0.2280814503106484
-1.4925679482881071,-0.0761170436075539,-3.8689816899582894,-1.3819076307166658,-1.483977378172021,5.022498125607813,6.892528603973382,4.954984207778839,-6.658805105246434,-3.200470244560142,-4.974221033913287,-3.1660341471571845,-2.675982501998272,-0.9974217360465156
-3.3678079462369084,-3.4539466147112767,-1.5985899426682444,-5.016212573935278,-1.7032363107869346,3.0117322735169694,4.410417566394149,6.14734125856568,-1.2093687283864487,1.1335724212840148,-3.841580519865106,-2.1857315076671773,1.03963201309943,-3.8444135269047295
-3.4914274625567785,-4.487752904420191,-0.1464520443575727,-6.216567202167132,-2.4546743263924964,1.61346225546962,3.222499625617368,5.879737104387631,1.6156262126413097,2.425887379781699,-1.7124539132160914,-0.1594108852892314,0.309165320491374,-5.181656663983167
-2.208288472351646,-2.15828156801485,0.4157476705277529,-3.420991769163111,-2.377848353010647,0.4986250500909849,3.331263848101703,3.8865342051037537,2.011712048319403,-0.2835292266373184,1.8760489564477163,2.650646373204515,-3.3588045693597195,-3.850808576383293
-0.3070027634354079,-0.1356250300529446,1.1297213049156003,0.0503947496166181,-1.3143129278378065,0.093637769211605,3.4486780717054986,1.1739459002864336,3.198451761823259,-4.56370384052944,5.818749273881508,7.122826315122625,-6.2595577420314665,-0.4038705303490955
3.247457358786597,1.5587653752491786,3.095040549758762,4.214219026433235,-1.2851478533245504,0.9071564450340166,4.228623977581369,-0.5258893640508386,4.048187285721608,-6.516429000278599,10.287989818158866,13.522079314350268,-5.27286188726463,5.026237023130332
5.171002092416744,2.0896976494091213,6.340549782213417,5.873218882281962,-0.2251064280906949,0.4876896478249001,3.227260893521732,0.0501854679348108,6.932359583282694,-3.981585970398437,14.585116379538857,16.697241681536124,-0.1942845347115303,7.428041814893499
3.67947617274902,0.6458447408683761,9.703232907148156,3.2667377932938364,1.4643399005847906,-1.0224215041459634,0.2044891733893946,2.847785154450574,12.36476395506027,1.856111949539628,18.447538342898067,16.50373554657837,6.394755321913765,4.916946105602336
1.7114723309864386,0.7647585208919095,11.822215876070585,1.5254209579968103,2.260585894433283,-1.853416405774696,-1.433234618196534,6.650464767586797,15.57475623576612,7.781018129409463,21.457390065256604,15.443919654109456,11.532645723961071,2.0460905695378213
-1.706295838893543,1.8823028710265823,12.29097423893134,-0.0803746427866732,4.652257101399767,-2.4067714356409766,-2.128209659426068,9.97700902841796,16.97819648001333,11.372537004977303,23.2336867149818,12.258981513668925,14.279849168388523,-1.2134307597428835
-4.336623825740647,1.7421729312110696,11.886793625814846,-1.2912417005302326,5.839152641937613,-1.1825628425578305,-1.5602543270372502,11.88635317440419,15.811102421637766,12.691451402219991,22.274777057679497,10.47762480410105,15.93660252469615,-2.9151754734476376
-3.461162921719334,0.1749243499923254,11.714028584484623,-0.8007793110182739,4.391380453504031,2.248005765265545,0.996598821563687,12.138491988481672,10.916360673391535,13.491452838880257,18.07941679837882,10.440972153894256,18.100513506944036,-1.6572978352787109
-1.7593950969658931,-1.7936258715244238,12.119097385695124,-1.572423414890497,3.719576705467504,3.1339578358658478,0.3543808385985576,10.88917129304918,8.061833180194197,15.03345883485869,15.237828832698025,9.745914327211246,20.68199715126593,-1.067384050541683
0.834397250952356,-3.597526361882517,12.383979312312476,-2.948020444669405,1.4936690661153704,1.633438819237672,-3.537329932069317,8.45650411612922,6.985927324818067,16.71421649941493,13.49752341229694,9.272375890415804,21.88729345260403,-0.9366648781886447
3.3380413510752183,-2.860758198006572,11.405872775867422,-2.4860922385600133,-0.0792294602199568,0.3335976641784855,-5.52586978370013,5.385130054397425,6.393466653573497,16.685359447424645,11.855593205925397,7.866918559809424,20.084837234033145,-0.2404962735257958
3.3754632853201625,0.90806674704387,8.675533871845355,-0.3151196359376532,1.7266098721764174,-1.7231138007663611,-6.532676695903659,2.516652611245444,7.567957772483454,13.689878565136508,11.33038520500692,5.253720958532202,15.594500121974264,0.3415936573450435
1.918066392903739,3.0374406759473924,4.709926250638455,2.431057425781704,2.7491967074017345,-0.1073634138492572,-3.966912831449591,0.7077515971611978,5.912476630786072,8.370974982134229,6.920959421319957,1.304586296458931,10.631014387749945,0.6482634818725437
0.1464538578047262,4.234672370040549,0.6951516803922133,5.931101876447381,4.448145319872508,5.824224374458566,3.3567900497527767,0.2874950944502963,1.3102459293222155,2.9938774063569524,-1.5998076433142232,-4.434325328979479,7.535945238963723,0.7258103189213185
-1.6441058390480665,3.2029567374577166,-2.244517657477005,6.395704576215022,5.645472368919015,7.947672728976997,5.887195593860692,0.7674308561933718,-0.0973376242795501,-0.0573004843646254,-5.209366593475907,-7.113892912540992,7.020441776949538,-0.2378127067982373
-1.6375743927518542,-0.1275441636608871,-3.6000993639058043,2.9587809723783387,3.638880371975246,6.993130144081751,4.002189213835372,1.1838311121976648,1.0237890413737112,0.1976690883559158,-4.465646067200994,-6.542506278993574,7.91881702034296,-0.7504910158703334
-0.3926450388037572,-0.8781033126739357,-3.6290611111607274,-0.3871880345133528,1.869991916647916,4.331461611874868,1.801874496318205,0.8551386062756334,2.7295044616238155,2.794198909716676,-2.8489623291644546,-5.083901434751649,8.385061290602437,-0.400631349062489
0.0016120525191826,-2.029587418992249,-3.179572622753601,-4.892186733769137,-0.438368642301238,-1.7308928153513188,-2.7030417882761624,-0.1059981571172623,6.158627481274234,5.48162755605207,1.4867470765458124,-1.5316561931812955,7.258429084099571,0.2077043624790507
0.5615969434267954,-2.455471046949298,-3.2814481193430054,-6.677344142278582,-1.879001254367046,-3.5243020504637528,-2.7254168881181893,-0.9951213322691164,5.745259049837533,6.1024375725195705,1.6637280050219645,-0.254039381358446,4.533650843385015,1.6499468646205189
0.2991497547883535,-1.238402594190748,-4.549626969282056,-4.158442857227716,-0.5071592958306903,-0.8067753651580469,2.4672275113027253,-1.2309887099409909,0.9895818888017736,3.888607344173298,-2.9757995956402805,-1.6673914276733413,0.959148925007467,1.4234608275776337
-2.1088599960809464,-3.4054343445627726,-6.615545164538757,-3.725687093572091,0.6340863282340803,0.182205364253174,4.921356611586063,-0.8885253507983322,-1.950857818782782,-0.0762477105043517,-4.765792317423407,-1.4828344981548451,-2.537647269706284,-1.432920803834248
-3.629849037066589,-4.093555088841433,-8.05161962426596,-2.914640843160125,2.7152237142849254,1.0136496333724974,6.049941627319644,-0.5352920753991501,-4.237476318344321,-3.5561545623347186,-5.138236867370883,-0.6671930383205051,-5.159701997925872,-4.672692356963248
-3.8703015426333542,-2.480263237785109,-7.135154979408498,-1.6569293126300195,4.03411084365992,0.6554509632684098,6.372520019400753,-0.5618462158952298,-5.514491689890969,-4.643454975337012,-4.2797649459858205,-0.3516319084923404,-6.416798900254975,-6.454647237275712
-3.3781611017466786,-1.6796654361291288,-3.156858821692926,-2.1389467129643798,3.0834957461554624,-1.8431404777973333,4.54928760273244,-0.7284623256296392,-4.7020269554382494,-3.0343374105283187,-0.9044239409518042,-0.0191071416797708,-6.364707610010656,-5.56134766784366
0.3702641675810306,1.9640957586807868,2.686469103502927,0.7498451332532756,3.1185740086558003,-1.928697999163632,6.25750919952403,-0.461747504163422,-5.781348515518428,-0.1554420862025178,0.712846012658615,-0.9574438659917563,-5.688231873820649,-0.5735525855841128
4.002884658219763,4.2468419824541,7.720050862813521,4.466289507863161,2.37637236040862,0.107743114879209,11.528268996500382,0.3489816473700005,-8.49990925148648,1.9745100419747093,0.747174494981389,-3.366344695245066,-5.268752490552211,4.8338596511731655
4.968445580978522,3.240976847162301,9.489572874692495,5.503794976367184,1.7934278191067317,0.9626337460220814,12.426548608973809,0.9099936391687472,-7.6229494949142,2.2539591367085814,1.638283740282165,-3.6779494622080224,-5.383936820467886,6.636932805157801
5.030485114576207,3.1199723697426207,7.550693555707922,5.911980047354856,3.32363791166206,1.3645213207808995,9.685491462301377,0.0567550636450464,-3.5356198383421487,1.189831373422744,2.596206898643796,-1.9766640873030836,-5.277460754979863,6.124895620785559
3.3829467485871034,2.791510716943369,3.902171444770244,5.042277191338992,3.968124731665002,1.308675864060315,4.911183697076917,-2.574627071209528,1.1142685864362842,0.3095283279458254,4.34636435235841,-0.2542457376913532,-3.677131266386965,4.442201168404202
2.5433107745578067,3.9437502757754768,1.5787163158784343,4.304084474428497,4.872409713915447,0.2693141644153785,-3.5391329924108126,-5.854401042040519,7.3157083179341935,0.905524543398216,7.205853029862984,2.2285900401498147,0.0602140098473515,4.66354916891336
2.2947886089655856,4.976662825938173,2.387912815166894,3.660434797753799,5.293764326164635,-0.7770234706502391,-8.217325207161657,-7.815223217151021,8.676425709703292,3.148662227769025,5.360419423157587,1.892633547599169,5.173473751124259,5.494475686203083
0.5065526364413183,2.435388495676069,5.517167155511611,1.443787232062565,2.614204246714992,-1.9975064193141625,-8.809054773375054,-7.332759057318144,4.341458204740918,6.077159747741486,-1.440242726305446,-1.7719297924890949,9.761778152646398,3.655166743334443
-0.1932483963884114,-0.3393423574053278,8.092397933344813,-0.7390784810827826,-0.5473449131957847,-4.789980313084966,-11.446677749207346,-5.408090212030406,3.333146735517832,8.154328817854184,-8.433241933883131,-4.299188570080352,11.78747503389656,0.4221712169527007
-2.1508328956292684,-4.292122353900612,7.254643040169189,-4.583576487003292,-4.308612378520769,-9.143706293611862,-14.566741256223462,-4.734754573159487,4.3435169118682895,7.843381537377627,-16.888765148876875,-6.491027809773194,9.984377635085224,-6.514317892256379
-3.524015739019896,-6.36767487198763,2.1671422332437498,-6.861342155685911,-7.914743083990817,-11.751517107816902,-16.200734315632804,-7.6208897028638,2.9497764515844014,4.054425693170493,-20.87747670749428,-8.066109779666487,4.227371045596586,-10.90842506788348
-2.4885042818247487,-4.25614018615927,-5.500470209947,-5.516281325606337,-9.482659321690464,-12.666991008888765,-16.961456530475505,-13.861026118750823,0.4442623471484236,-3.3278653375667524,-19.18789245347941,-8.222529352283356,-4.424186263076916,-8.416446863050142
-5.12260474029671,-4.84587380331301,-12.803000454031691,-6.428529293810295,-11.087412551113085,-12.310290400454331,-15.498957003105213,-20.4058067137856,-7.791489705712919,-12.889274521302646,-19.522559955617183,-10.774069453446252,-13.764342572625791,-7.019708706492571
-8.07192799108566,-5.720114664802184,-17.36237964027795,-6.387096371442734,-12.743723737536303,-9.826287621730822,-11.3992333211025,-23.30404840480109,-22.797604188024145,-21.687722385336457,-20.37721857604108,-15.613840805260468,-20.82898570554491,-4.189699755648062
-7.853974962191306,-4.546055364053428,-18.4358915419066,-3.9923610448929767,-12.465182962658186,-8.101684248142037,-8.622935417421827,-20.4941906405386,-26.914174376429862,-26.3469758476775,-17.88345553726514,-15.61097417287725,-23.028843389282663,-0.9469917387905122
-4.83807257990346,-2.4414407836320944,-16.685929691921654,-1.4012516619300568,-9.759873297344203,-7.066324340871154,-6.990829427193323,-13.249949515292908,-20.153776109142814,-24.89000379970286,-12.89180961789422,-11.004292428646345,-19.67923239107587,-0.6380411185481623
2.75243872326598,3.0341510736723496,-13.254650136045676,3.8905607109669376,-5.470009489636591,-6.01638931104671,-4.376397833294366,-5.159703814856512,-11.851208507751789,-18.051161603232305,-6.690679360792936,-4.986329336399323,-12.733990124479702,3.033184256103336
11.621971104581384,9.346811905382037,-9.121960751166537,9.524574094420794,0.8525134972218389,-5.610485304638695,-1.5513826989915156,0.4701368908485932,1.935427144334575,-8.934199816757685,1.2574248474383043,3.9848989371723262,-5.782069716580146,8.270302153957472
13.910466520587182,10.141830489336222,-5.129026533907682,9.65558389595324,4.301702427414316,-4.658461696832343,0.3327240883782874,2.6840774286866527,5.813305507924626,-1.1368745612782618,3.6454548354287377,6.67900466996178,-1.7846973164043494,9.36851955132141
8.195217796165991,5.285673622596754,-2.2197920215251514,5.043374119461375,2.4777596919393723,-3.212625316767149,1.3224814184713345,2.9076916402905653,-2.174972412109089,3.2687605414960466,-0.3729906709041531,2.1180913180782954,-1.282192230817076,6.915544770975237
0.7676740647428953,0.1866026845809396,-1.2776416728791924,0.9225337592664072,0.2862665986062407,-1.3787975448814929,2.445707369137019,3.2250220661530964,-6.155751472497625,4.436700739052096,-0.082570784977935,-0.4049129849618698,-2.510982279371845,2.96974291698958
-6.573662951981067,-4.833164448244825,-2.5239114918780547,-3.471898850692571,-4.040435090832286,1.1061184712452203,3.475986059702412,4.566062176870227,-9.751485844425837,3.847049058929363,3.110307077698822,-3.0115655467222378,-3.206887459420292,-2.253936780675427
-8.441838082198169,-5.837754901074036,-5.086213547349297,-4.636735365580387,-6.432676508820851,2.013500800316086,4.367076973034223,6.286234783648719,-10.471810271911664,2.8308730401816917,4.415045614416477,-3.16284764067622,-2.433016978722476,-4.219278407638689
-3.1679804516755325,-1.8102570172842696,-7.310917707259091,-1.4305863901551172,-4.487246134458809,1.231892955285974,5.275774735780146,7.213204809425843,-5.760135793388365,1.804358146891861,5.505662408739728,0.7564625522179105,-0.9288045475776469,-1.7510320413284743
0.4510684366411257,-0.2229984627349052,-7.7209471529855165,-1.0236692558067493,-3.974766452547176,0.7987169095893872,5.484521973826043,6.965770494266147,-5.2146254902529785,0.611270320505346,1.5443408360703743,2.009403051387224,0.0202404635241002,-0.2855702031186672
2.312440548727454,0.7607856948971214,-5.915555409202549,-0.6975982684799963,-2.1596312781563145,0.2465695442578683,4.9854880820573895,6.302237267385362,-7.832625013990765,-0.701714178302244,-8.421720650830386,1.4389433169766288,-0.1205279599255684,0.6015862111435666
2.090200351519094,1.2223169706111618,-2.756924383388011,0.0789567238719484,-0.8455223682706613,1.7217199659171851,5.9860439224428434,6.30520715816305,-8.566961370958976,-1.6174588851580491,-11.672601728939307,1.1009998865300452,-0.8991884538162314,0.2367441814109748
-0.9921870517646226,-0.4473467714559197,0.2240993080480979,-0.9371493028896344,-1.4036947828556918,5.745360977899605,8.514700187432988,7.285422305427408,-8.903215912354757,-1.6599285524682266,-8.723577854065786,-0.1290390473555877,-1.6993985039838329,-2.495032095719764
-1.2843338688856305,0.3636935157617845,1.7334645073635468,0.2120018346587087,0.146502948865678,8.87641424625667,10.393739638628336,8.446189162817788,-7.354620845497995,-1.083735909599933,-5.02770097067132,-0.7628318130435312,-2.559267117932487,-4.110640054124
-0.2179810541842912,1.1717106520344038,1.375706407641804,1.1186025649492266,0.8251552909046082,11.638971123173118,12.03459421688513,8.577440149750826,-3.1523744518521406,-0.9080404381991762,2.0869630761124323,-0.6726390769299662,-4.046229145287576,-5.314869301973384
0.1765845436179905,0.4117362819323573,-0.2075932309064061,0.3664356805974857,1.6878768570003977,12.545140047380627,12.061128159923475,7.123994990159306,-1.1703010987139202,-2.0730553528917373,5.4938948638799845,-0.4389787925423445,-6.31761829678497,-4.945044585482664
0.6972617821781107,0.122612607947906,-1.702550129740609,0.2458086373284126,4.01552812046002,10.798618986205073,9.956296057557054,4.695654417173135,-1.1225462722189017,-4.383682195555008,4.428875654405246,0.317347422131651,-8.391051662456436,-1.5369978364875003
-0.1752477344689253,-0.8904021143489829,-1.798947762660957,-0.506685939186869,4.755204960929519,9.25527645334333,8.172878964673545,2.6159807632474426,-1.2553098828277534,-6.255013630600417,4.572332021840428,1.55407509403026,-8.491295154695067,1.4366971286913088
-0.2883006052025767,-0.8695676408784817,0.110577016231308,-0.6397374077697913,6.524888588055661,7.361318289577397,6.30105306123386,1.9209671126253716,-2.5579287053981283,-5.704567354189107,4.195342223873091,3.3260272779053026,-5.317399326224436,5.891889593108338
0.8763767319311959,0.4022825741427529,3.5525891241382848,0.1690148203712114,7.696443149663183,5.342510286457455,3.5132409363778354,2.633968822029372,-1.9458800894529829,-1.9547427708356289,5.083399647264991,4.7823536230901205,0.8132818837950166,8.18441697816535
1.1892842408191333,0.7117763645202415,7.17277669369381,0.3077407370413513,5.330220441207828,3.6713573172958553,0.1553212107411483,3.856521074019408,0.8395822544071783,3.66138360458118,7.993769619982626,5.8723202616561405,7.915387585465822,4.912573577124682
0.8643335899420297,0.3770038961287519,9.468710574069997,0.6932063155724506,3.3746147209523865,1.8497115976602128,-3.744159727935602,4.518827535993259,3.6260399654567808,8.388237279571081,10.758547926207632,6.3704978682722135,13.438462666126467,2.4589045577432835
-1.52809046969226,-1.2077203782112782,9.650005275156534,0.6333583026529257,0.2941665124607049,0.1336890204748068,-8.236179819438336,4.130672616079583,7.157879574168464,9.958582101077916,14.008203057345415,5.988405487051449,15.69035749140485,-2.102346079634531
-4.081197585825651,-2.6308222133540338,8.084428989921367,0.0532913414363883,-2.662881215482891,-0.6737588134202296,-10.342113502816847,2.968042435052089,9.368131660103307,8.268655795051727,14.624942173643472,5.498076112810878,14.627887448890402,-5.616997228716048
-3.76701862181183,-1.88712231475219,6.0296161924039104,-0.1614101856395417,-1.1601379904430411,-0.4620240311808755,-9.760516390569382,1.6820707264238504,9.87061570273695,5.44023589262863,12.07364992908612,4.748826282799492,11.6588772287222,-3.2929879959523167
-1.4619628194295702,-0.3691999449366652,4.821625225249516,-0.5211398602782658,0.3043947633951001,-1.1949202220174853,-10.440466105831264,0.7956406662272109,10.768936833554626,4.168966568709639,10.196312347407916,4.963233853028178,8.769230622007505,-1.8666811891330028
2.614089309093784,1.737710403206313,5.056490997130428,-0.3957794776880764,1.6609333067492842,-2.774303991537871,-11.782662631053366,0.5281086946604727,11.513341049641165,5.676253192567641,8.236923494692626,6.384667702311281,7.526696442615931,0.7718440902155008
5.229822765660124,2.8091948111593914,6.299135902343863,0.1457945613733042,3.368540003279701,-3.186446086864935,-11.145637510781487,0.9512342593744858,13.401909537667237,8.897656796326347,8.275147274910758,6.833772453296651,8.372918094796953,3.07316288899052
3.909828104911397,1.5379972519608602,7.4797373097399955,0.3273491188866133,1.7294422947970365,-2.714320050908032,-9.010479486659776,2.118708219726294,16.827505059225253,11.475707797889328,11.147837752448307,6.561314595445122,10.430475440042098,1.0435870754331362
1.3093388949126212,0.4055147645238122,7.660960539224277,0.2242147845008104,-0.2705606435965902,-2.141781309744838,-4.371554194965254,3.918416223334585,20.15153235485372,11.62480194049829,11.190683908973474,5.194132001837614,11.934761341141318,-0.0136974343012221
-1.3265838486037034,-0.4046018289790573,6.632240108836271,-0.5469204530715087,-1.417272529552284,-1.141062634334252,3.369390700614379,5.823669225223796,23.76851962471765,9.322149525797176,8.846994281097693,2.2362076375618454,11.188482808951145,-1.3366340026261023
-2.2436632865939217,-0.5758954566689971,4.966286891221007,-1.2301014136786603,-2.16791208131059,-1.3289009539141026,5.949534672253657,6.960623108644121,24.418627034009347,6.015617914474696,6.261764573997033,1.270345854221207,7.584912895498345,-2.5753246174598363
-0.1608936481601126,0.4985137415271303,3.585926883052302,-0.6568571195850639,-0.2677797639564545,-2.917845752819547,3.1197634390350912,6.643017264034349,21.54938682984672,3.347487271060036,2.356938376076339,2.2892106040759144,2.0557413013252983,-0.7318370776823453
0.8056212567208995,0.26791551942173,3.179531158782577,0.0915018830211986,2.570865103400849,-1.7332478824584563,1.2802111197101993,4.986136654403303,18.11316018124609,2.0694597340588494,0.0930073752111121,3.173805737774093,-3.4171056585908843,-0.208210714200555
-0.1384584154146027,-0.7639197569768649,3.792886510321946,1.1542124060039405,5.466065372663392,2.094573486412269,-1.3445719600080723,2.9852997523542584,13.20174319420061,1.8857677707280656,-0.2175831909005082,4.684839171239014,-6.945972680997155,0.9017214059772652
-0.8001217784044614,-0.941769910014609,4.743823524682281,1.9715687173048049,7.185395417106801,4.094101576827683,-1.7845625432147512,1.833899372422202,9.41871235934428,2.0154546045169823,-1.3713827114151942,4.3558713755088965,-7.781335945199544,3.237905812980832
-1.303871034436944,-0.6444502042421549,4.892009890323646,1.2117656095112872,6.038768322441393,4.892945875469941,1.038635973692779,1.9587956802168665,7.317497888190707,1.778034225445584,-2.6965221078694985,1.7716700973032464,-6.592994667438074,3.0224684178171835
-0.5766410039603275,0.5248219612768431,3.253906799091343,0.2389897790435434,4.50264547839793,3.162398215763732,1.3067328479879563,2.5955429927867044,4.15254077300466,0.7939965451323623,-4.553539206521962,-0.47974560922417,-4.88374951812801,2.199354866070022
1.2451924284940337,1.7198368018970462,-0.2232100769767768,-1.0774605420397243,2.2456039176745564,-2.137668850739147,-0.2119921557490603,2.335746694803831,0.6460147722640639,-1.0609361021894443,-7.367073625347143,-3.02623209515043,-3.98976426316295,-0.9978560733529156
1.510580936457058,1.4609764985581402,-4.22622910242438,-2.160295535212487,0.3687168592171602,-3.0212006092819337,0.2561162386718765,0.253841477188395,-1.7040933019002031,-3.6557151396657375,-8.730773813870815,-4.699234545507708,-4.319496061322134,-5.321735420115551
0.243775341218635,0.4040723606568247,-6.552726829011412,-1.6339579743410375,0.8147351763042059,0.3964550589219919,1.9538671912069607,-3.3017801212595472,-3.0770318077052154,-6.54476634346409,-8.709446111436312,-5.029111111567388,-5.276234653707942,-5.3831405555410266
0.1398417777544385,0.1207425977525125,-5.527841402747885,-0.2818222590539985,0.6191695291133443,4.226311208444579,4.581527187556212,-6.910356172305395,-5.180466200102441,-9.068156508408304,-8.288592553857837,-4.892434348233039,-5.869085292676836,-2.1507080276399697
1.565761307772446,0.8712538620817105,-1.4743026298088182,1.8151956451392215,0.264441652201937,10.196404563020208,8.771133028541598,-9.103521657375506,-7.838642219882311,-10.672891038775877,-6.9505988222307495,-3.812405639544744,-5.568914833164779,3.8386873660422
2.8242967469894413,1.262845656012781,3.0577086907126514,2.8929435461594326,0.362915933029437,10.973737243262184,10.202297562241306,-9.378730591937,-8.876825482826204,-11.202360122434412,-6.260979860506255,-3.317236474809077,-4.761719498098348,8.437174045255212
2.2053714632724613,0.0770295743997229,4.834603076718079,1.414362594364877,-1.2627906137411806,5.691986730178987,8.671811676815157,-8.423563465783516,-8.458576554283153,-10.875564820505758,-6.365310379579353,-3.516775371819174,-4.404187109069163,6.155920078845663
-1.9288862261701247,-2.8415123493680507,2.2956817882415805,-1.051035123318992,-2.9663414674467603,1.552134835044613,7.636817392846555,-7.458502756588423,-5.985321503521114,-9.997261932195212,-6.210811977500851,-5.020425147155821,-5.112563095924564,-0.4911136786056091
-9.07375367249464,-7.000593213104907,-3.135818562191723,-3.873207492263017,-3.985026242676896,-3.177845521937892,6.153454579444046,-7.289988155384997,-0.8701224810051944,-8.71132965013961,-6.187831886494636,-8.360653114059224,-6.44420391854656,-8.213863550449451
-12.34350830614301,-7.736121377292291,-7.970103898777893,-4.494656457256959,-5.177569945086108,-5.1272567608743325,4.796788725779779,-7.804500040373682,0.8573318901228555,-7.005294843914427,-5.420644828745687,-9.068726230670412,-7.035239267048162,-11.37839624343814
-8.221839674677852,-3.485919068453194,-9.174712498296913,-1.8493147186172767,-4.978435663800032,-2.9552602459554507,4.048892270659723,-8.210289615358018,-0.9283360742006316,-4.861638974235195,-3.752883240731899,-7.164488843572355,-5.551663022698893,-6.900405749604481
-0.0124074263577242,1.4478977506158324,-6.321709487166782,0.6628853910970741,-3.7775129455000966,-2.827169498239138,2.5745403375549767,-7.76811261813662,-2.1156078589763,-2.347305039314481,-1.6233550141679984,-3.5079136460313225,-1.7190634942463774,0.9645494829360906
10.967489844038369,7.220374338441075,-1.689935804883287,2.651345093287165,-2.883020533886155,-3.746264051736321,0.6292616607318391,-6.456136832112424,-4.018533878910412,0.3792231729604545,1.239845392011141,3.031201402836184,3.348957439200717,8.1849318439836
15.522479234754693,8.581461855199343,1.6281790934762483,2.793364832179346,-2.478929376193291,-4.334156013890612,-0.4799876540154987,-5.093576814831749,-3.5442984606328314,3.013085569371551,2.2007512161367213,5.6036232832706725,7.717418134983109,9.52596684507088
9.433235261460473,3.625976617058544,1.9732245691152135,0.9177221109459804,-2.88992357596658,-5.549646624176459,-0.8256137749091261,-4.781808417027799,0.0244818028001188,5.019718726937128,1.0271191753660924,3.9066041020560704,9.653879506422282,4.710929483589831
2.070812843398086,0.9354664872574492,-0.0370618140114871,1.0158444146723775,-3.7098336872700246,-6.31151475385841,-2.6322596277670782,-5.958410013688589,2.932649580322819,5.768975785120976,-0.2285869356348916,2.0148841383961087,8.49711985415746,-0.0232212100607921
-5.883187140630563,-1.911946314995856,-2.487522081334234,2.004104998051364,-4.686034037751841,-6.622493098820526,-5.791543394436107,-7.724586295590207,6.010644887147706,4.99900110983776,-2.215061581609353,-1.6956176921820658,4.981847602892358,-2.753821317606415
-9.192665851152658,-3.2885446634186746,-3.881395966223586,2.227266989872905,-5.070191694653574,-7.1120355100822445,-7.616548355927179,-8.116284377611109,5.642234125712704,3.2480699387035035,-3.026230872236261,-3.404715285344227,0.90752179979874,-2.431125958681079
-3.66709133941328,-0.17190461566523,-4.110845046973763,1.9094224224061096,-4.89343728012248,-7.587059014072211,-8.396759260834452,-5.422934803060828,0.907614280925872,1.6641282987626873,-2.270355519470411,-2.515460630579128,-1.7643521091062997,0.3878101518613696
-0.4689386798097523,-1.3824156804172274,-4.092244985108839,-0.8504868998494286,-5.076644929848218,-6.859112685892674,-7.178812345514219,0.2528773477050468,-3.7136366771309626,1.0937242980025983,-2.250150415581998,-2.466341639344095,-2.035359613948451,0.7291986619842761
0.7746770446049341,-2.7371787444512217,-4.68807053494918,-3.942597800402401,-4.88577391860578,-4.872581627818101,-3.2703808351501125,6.5070992965456025,-9.262027735583333,1.1990061295637426,-2.473953106043892,-2.273074102806784,-0.5585930645818529,-0.975227372418278
1.9546228760213589,-0.8928067559238886,-5.972814806497639,-3.673199269339578,-4.014657249147228,-3.2839344870975893,-1.7530420672089069,9.949422602766726,-12.05603570781489,0.5886568070018239,-2.373691395836901,-2.0742577178028125,0.7430374325752762,-1.7843831819558411
0.0800800376296493,0.1002432894078644,-7.333377897735278,-1.1338291298528222,-2.960979246469817,-1.8894329026171568,-2.500666887434902,8.611578638899864,-11.09488726029496,-1.8960614953797503,-2.238915094524025,-2.260634768814775,0.0969537732730785,-1.7493434342279577
0.608995796923745,3.469719062454544,-8.047177459432627,1.303567692716639,-1.1792728288071324,-0.7503703704284731,-3.2102530680259336,3.611551551752579,-12.34042637804778,-5.813301673775003,-2.274999555301016,-2.5502226039942566,-2.62235382820754,-0.5471313921722258
3.1882305869595866,6.056248877760102,-7.69546802178909,2.6541864148185823,1.3375799433544286,-0.2193283808628781,-4.967545307963261,-1.411518123515786,-14.84986996610743,-9.042587780281218,-2.486129654162632,-3.1304822178009384,-5.59590958029538,1.2668987906852691
3.203581744247808,3.675995852510039,-6.179570496528569,1.2575706605054164,2.584156205987919,0.3515263900861795,-4.620189306850208,-2.8394373001192266,-15.841891062475426,-9.28333461309883,-2.571946934488996,-2.6491307271877544,-6.406545715275593,1.6294525323000475
1.4146578566561268,-0.4922264136963722,-3.6183925096855374,-1.5937338993350654,3.07508915811149,0.8199522661065894,-1.8106082586083023,0.3447950303084104,-16.12016849200984,-5.921370674070821,-2.574897286553566,-1.0127024915033462,-4.05947446733096,0.8300926433362988
-0.1949520369872732,-2.3816712085325253,-0.4206005817834501,-0.8770510272344378,3.892273665538703,1.550024993436245,0.2086897500906778,5.970044577923986,-14.81478544442454,-0.6370416617846466,-2.022656656223411,1.1879157830013154,0.0195097389964917,0.7107149482480266
-2.19377888847411,-2.2812590628616647,2.592477371062476,1.7806813804358077,3.52239271427027,2.663745302154917,2.141890286381209,10.48006946041199,-11.470379460598384,3.7579555723177727,-0.8066875586499039,4.316220294298766,2.9606826146264997,0.8440537396649498
-3.1112827515805472,-1.0868685861085416,4.397609433496928,2.9262625519377496,3.459396763454243,3.327045086310914,2.9502141889046825,11.579897826553385,-11.315821975744116,5.209238387560969,-1.3212845116192822,4.998795551240352,2.6661777485530926,0.1772351940919645
-2.2357538375041384,-0.0711669677118056,4.39799229398405,1.9096924701076927,3.737030251606982,3.619319350202365,2.0317129009631216,9.61847235339302,-14.42237309402084,3.4905993951958223,-3.620347714048296,2.9341413418344486,-0.6109525007533207,-1.2065270636068728
-3.0495715821681446,-3.2565401088306345,2.98776226500204,-2.8907699213582183,2.6828520667405824,3.273178653259955,2.4077659671225637,6.811027183402871,-15.849109914618229,-0.1581932173045714,-4.937114540653587,1.541309809407556,-4.694786776328947,-3.0991899589797995
-4.291718933126084,-7.973778009048852,1.4261222162593867,-8.59246134671255,1.9302795296922064,2.077841360014509,3.786827839885357,5.212291075859966,-16.575080700356004,-4.142585672370153,-5.684709656887221,0.0699571327576216,-7.502513726359545,-5.269222571839178
-3.389261484562895,-8.5065238688296,0.9507970757080244,-9.132624875716097,1.986027752978715,1.718996976163371,4.551788470566015,5.19263272703666,-15.2947142587469,-7.299801311968359,-3.91220715214753,0.0719788014859659,-8.757360153338652,-4.75581227861486
-1.045015990717188,-4.035005084800496,1.8336949567589824,-4.186514901728894,2.559411401452675,2.178526795111061,5.190436906237736,5.493095850800302,-11.048195518573518,-8.977726543867789,1.1198349678114683,2.225147971918906,-9.772206248720757,-1.3565650977106531
1.647379990323672,1.8767853829729455,3.2586288843015154,1.4984818339141417,3.977669317219324,2.6835046127939925,5.026781249654671,4.537992368805064,-9.480754528175918,-8.838097393451818,2.8346176134585703,2.8012398382615964,-11.5251737284578,0.8011314672962813
4.167568759148949,7.558918706695008,4.195063293276995,6.636168706556539,5.791928291172135,3.6075751018513342,3.802051603110856,1.7967765637682191,-10.304565228932686,-6.870817044591348,1.5055995068726282,2.204215239121141,-12.97185104989839,3.1997758737465984
4.22911047192025,9.280841384125372,4.47113926214233,7.97453978140145,6.297981753315747,3.170127298179892,2.427384998402355,-1.8124410754471256,-8.902632702885741,-3.5438350207568448,1.6349087179427786,1.9428988540025924,-11.433833860630417,4.154144337851611
2.2538052973057496,5.7626458607848114,4.96842996986075,4.813974238067903,5.432316412113573,1.1831609066403936,0.6816445782740754,-4.608679390483047,-6.176230671298296,0.3240634810890128,2.0295923156857176,1.3875212322165889,-4.960754112946624,2.5012665209869587
2.851565985089042,4.279792642983625,6.642360437852624,3.861327923082297,4.417690710981342,-0.9397168097139036,-2.093367220103471,-5.306266180128048,-0.1492618857609585,4.038516998185713,7.819261144162029,1.9599181775770784,5.413966584923884,4.031035966549045
4.798774404828878,4.559599270093573,9.245296411905258,4.226913135099303,2.527025747177771,-3.642916835814941,-5.847636275717573,-3.8654753607617702,10.17704428714602,7.387880199490439,20.12801931092431,3.8894258765928496,15.685935024400628,5.886978796931776
5.624352121977864,3.956909402989216,11.05766445242108,3.4476138708692043,1.1183060489095589,-4.822253210443535,-8.440745398886678,-1.571493041454751,14.039665718187663,10.43823293121951,23.453619981801765,4.110152897512291,21.374743538171003,5.320477194223661
4.389813599565725,2.508846640344448,10.097627393289322,2.19602995068516,0.6146308576907631,-4.1263995591659866,-9.818805265492404,-0.3333457154262973,11.41368222914587,12.957842999049298,18.226695109398054,2.8075107151940206,20.53147262766593,3.38759510574194
-0.4013939865406883,-1.205909581090113,5.871058560583762,-1.40349403968049,-0.6053990611612783,-4.077689529146174,-11.396970147960015,-1.56360631082282,7.691059955223864,14.17733506824812,9.305391732109006,0.7872589753675039,14.879017160986637,-1.6649319715146074
-6.6959451613753735,-7.097069377095998,0.0707633575342114,-6.639897632067735,-1.5498539054182274,-4.165101028398023,-12.686977501478248,-5.225205373778174,0.4369709647569514,13.324602348724326,-6.864951457705309,-2.612072902546531,8.348096569386215,-7.722828769635137
-9.575282092229047,-10.150115261016357,-4.542289390016606,-8.323780708117816,-2.1903133805596817,-3.831978878585265,-12.026771211026322,-9.643015976658331,-0.8746936258139322,10.526515330875776,-12.309449532697805,-3.748216563506877,4.367511585172181,-9.71065883736531
-7.631292685599348,-8.009973977403876,-6.21921973722327,-5.951008009604399,-2.6943280784748262,-3.4215203860786656,-9.361606185533692,-12.340160519355637,4.855134872686832,7.145113323367269,-5.821598278991036,-2.3887921633586835,3.9940764760886935,-7.086860815312422
-4.303600883416894,-5.513358129348617,-5.4821530313855575,-3.8801660441426993,-2.5543691455656963,-1.7170702882809006,-5.043440545359505,-11.526471842824913,9.107969917264883,5.023937750882794,-0.4877941705654087,-0.9730047560338222,5.944490506665325,-3.085320256469581
-1.4190512677570029,-1.9587556236491768,-4.464680509547321,-1.1392231868196336,-2.241339208300454,1.3906467104716935,1.4117792488710672,-7.317878932838937,14.181480826885192,5.12685193058973,7.915742180368793,1.3726946481540072,8.00185597881471,1.822936997664816
0.2378385156059341,1.4745899183041122,-4.939275919943839,0.8049476458431613,-1.5791088024715227,2.4514309668297005,4.425860831917285,-1.7934191096817995,16.089321240030227,6.708320824040847,10.794630583733213,2.249679426702033,8.512677848494022,5.007516694266937
0.5178785575925595,2.175974815226023,-6.790028576136031,0.4734064824402224,-0.850439465833966,1.4982427519749584,3.604415432410251,2.2631261053963456,13.39072337319774,7.811570194884993,6.05488341053071,1.235187361226486,7.1059988485937495,4.356114302739614
1.17570772262099,2.749998930922143,-8.234530589776078,1.960277494236469,0.0396003248573039,0.8330480515656825,3.4770331830540626,3.129612548896681,10.776247679012458,6.809979180329826,3.3521336536942723,0.7688176353977775,4.604109577837079,2.541414307596962
4.205061535069396,3.696688488764728,-7.501445052829837,4.102439197706524,1.7074795527381,-0.2519766699035782,2.74128882075371,1.1986319244550143,6.893567444429531,3.793688494032306,0.2675269166157871,0.2273704194900956,2.499821508748326,0.3382617418234797
5.965748112680556,3.3267542317394803,-4.417210477691221,4.073341134346646,2.3349340795340394,0.4920599555391988,2.6812423154365725,-1.40703701870855,5.485803442665332,0.6355307013781939,-0.6790820947475024,-0.2877378716832174,2.239722568867297,-2.068737295069259
4.372811914821503,2.288551805197355,-0.5469337076500409,2.9407771686508952,2.194716754800785,3.540704166250202,3.939722353138584,-2.3488348905282592,7.417495237106595,-0.4254334517956586,2.006481334343138,-0.4560648597511522,4.397654757342295,-2.4411924712568096
3.493752831757227,3.038897683431073,2.114839172618588,1.689472015868666,2.379036432428908,5.586891919290737,4.113139948615824,-0.6359230759186616,10.472989239178936,1.3699867845547118,5.020266423531879,-0.7909401246453029,8.04134766488463,0.0947251171529613
0.7901711419955937,3.267203698388333,2.679272469522381,-0.0049788353169845,1.3143906598378496,7.160225458982756,3.621285967252176,2.810767336695978,15.90591985596257,4.523789362000208,9.470514706703238,-1.1626386581952308,10.883855255252511,2.262037202776884
-1.597484264699031,2.650116448310173,1.842617499942744,-0.473538404673997,0.6804431428171078,7.398516094992184,3.8489883849432656,5.90519683056667,16.75064846782443,6.3029799288560255,9.772727480359372,-1.3229536906415829,10.538723275469223,3.2554939472075306
-0.7676663657041887,1.7775254560564693,1.051381105576688,0.1687451115945105,0.4889701909356722,5.60853217902038,4.533007744596856,6.883430019155078,12.42293700065412,4.832975795814697,5.125346790039459,-1.301719905894482,6.2549846923551335,2.776629457434572
-1.869982828682516,-1.6355791114056577,1.2057405830735384,-0.6931074544223439,-0.9844358080037608,4.142000477446764,4.047900262421292,5.501185971255463,7.572342998442244,0.5654278048202563,0.4599272925621349,-1.3760520379212708,-0.2706460988203112,-1.1502599308789077
-2.364615735024155,-4.929218976194158,2.020326652844709,-1.58645661306116,-1.9180434263428583,2.6279296839912107,2.4843031647801883,3.125298044307895,0.4464077626825122,-4.1434118836439175,-5.689861185676692,-1.515841822149841,-5.983250708328487,-3.314988660268268
-1.3568103781625651,-5.468400055928827,2.4804892642253997,-1.5147130340229629,-2.440894016225833,2.057676196232228,2.345408219963895,1.6558378532989106,-1.7588837225128613,-7.010686815002682,-7.441713953963378,-0.8803417141268766,-8.825049408529903,-2.3029984523965368
-1.5023259961051392,-3.9725535707872575,1.8873383478540688,-1.331649034023756,-2.701502690610269,2.95001755315863,3.4721373569540974,2.0608730429561763,1.9760975639422071,-7.624693375334173,-3.678862674345907,0.554991090830272,-9.33137112799648,-1.0109908411578383
-1.0110980024397294,-1.723915225266848,0.5643529699348306,-0.9222723079400214,-1.9485178507706924,4.146324917295406,6.4374534886912045,3.666274635672237,3.829193557355092,-7.448392768417819,-3.617235769902199,1.027727341162868,-9.863983999101144,1.11668190380152
-1.8014030215781582,-0.6593278359074386,-0.3400396490248933,-1.5774628723960835,-1.230530615085476,6.084458077955681,11.916509035725834,4.833877506206576,5.516340707587567,-8.066699239177549,-5.984592565590888,0.6078677619505456,-12.03947511668541,-0.1972387679639673
-3.511399150567634,-1.2530340294645126,0.2471072430023495,-2.93535309507414,-1.0544901942429077,7.1520780680168015,13.31948658599264,4.526553300012753,6.469208057566828,-9.40681909738375,-7.4991972921449905,0.4641725028260578,-14.812604373659996,-3.600556666303224
-2.823183024845604,-2.0057085399965877,2.4549056216813145,-2.9001618899175305,-1.3206650171654857,7.13154595815194,10.506681520543864,3.3862927403990657,5.458897639480411,-9.726673773268816,-9.633521478635872,0.2632201226129742,-15.251219373586023,-3.904270868838083
-0.7656178246052964,-0.716267629904172,5.301595222030331,-0.645836629084012,-1.8280100444423928,6.129968612891897,7.19239476108639,3.221205007867227,6.882290426066373,-7.448360473250655,-6.929265655541495,2.756596087348376,-11.454216275089008,-2.158083941825192
3.432803162987494,3.60575479867012,7.338529621339481,3.986123612718744,-2.3540885606968014,3.601744944493274,1.8603284486718272,5.181963415839504,10.41046547510092,-3.0329111291929425,1.3154247154727412,8.368696370836114,-4.814465504072368,3.1316897463135027
6.675798589930392,7.073216491856405,7.609869291746261,7.115984328819787,-2.6991102724821427,1.6095620215470563,-0.3255310155352567,8.247455153822937,11.773220467638147,1.0446426679062792,4.719761128575029,9.963371578572112,0.7145691107381262,7.574701013136114
5.092104994939499,6.6312536590092686,6.221422469228788,5.653518061266477,-2.7248540691155214,0.0746182776952713,1.337867972427482,9.60454482553913,11.521253567498324,2.3376582515863618,4.0801286618563,7.80526440968442,1.8431400466142192,6.061240551736473
2.322873189886316,3.5875593337660248,4.128476062190609,1.620055285985615,-2.7860811715019898,-1.0715506632563556,1.0550704813439344,6.907165017304353,12.468905093068727,0.5876753555037038,2.22025977747804,3.342432656722339,-1.2854728114077876,2.8538025573383594
-0.9297545803927,-2.0699346660732205,2.35462148860109,-4.056389495009469,-2.936999402706049,-1.326963412252783,0.0104793886940741,0.5846808419753025,14.006013071049924,-2.069089896835256,-2.996959737458301,-5.108986273471286,-5.320658893837656,-1.5101467935108732
-2.4894548752471817,-5.971974636807061,1.2835110891923502,-6.957383450075353,-2.9015390725878345,-1.9383088194638145,-1.234858700743772,-5.943936215040116,14.401047357451356,-3.04316032942895,-4.241564775121802,-8.243439059915001,-6.636091459427519,-4.035822380328551
-0.4572503693374183,-4.223779705315983,0.577320424744487,-4.004378066623812,-2.935286947258718,-2.770459137625329,-3.542339562397657,-8.63478980917782,13.943200727198937,-1.5204687211655692,-1.1485822759961108,-5.644758903901888,-4.244137820019288,-1.68641573812419
0.6159900444624383,-0.9669335849794936,-0.2765618676253556,-0.0462073512184243,-3.1422310411575785,-3.411807199158523,-3.985210787704705,-5.986061447811768,10.325738672392047,1.0688165202262194,0.7446493872843288,-3.840084936246479,-0.213130389699792,0.3848069213159772
-0.4890880800003138,2.615602676704003,-1.347198610390851,3.5050944037815643,-3.048258234925738,-4.069816408014796,-2.5415115053176938,-0.3829488599826156,2.9619923700344537,2.59450543565897,3.0357934456056714,-0.7289708643199779,2.430361823900096,1.3343810516354098
-2.435069024929782,4.690103998770286,-2.1736242720221703,4.712314546219297,-2.908677667079129,-4.741513198898415,-2.7526319029641,3.5978493401959533,-1.400729605070166,2.14251582971003,2.7871750009133693,-0.1707831950345683,2.172283456545141,1.0125321026799716
-3.778126116405104,2.236107542910723,-2.280731490775505,1.686976687986148,-3.079694108944504,-5.423146109690985,-4.1885486865885655,2.6429159702972638,-3.036792565400744,0.5262630934007433,-0.930123497747624,-3.1780740416238085,-0.2242420365008932,-1.5758933250522067
-2.187772017863741,-1.653068141464563,-1.7460756273896187,-1.0766486869469736,-2.8134468658602305,-6.798152627012991,-6.038928266645056,-2.82201830107169,-5.000444979018685,-0.8115449423711922,-3.842183914322333,-3.630797677314519,-2.8789220770497863,-3.332439854958577
1.8825307963545652,-4.849215679765632,-1.1875606518058923,-2.386380050504205,-2.5110718233149547,-8.943448955844572,-8.968288871668438,-9.054376354472318,-5.895322938360948,-1.1864440385216604,-6.790094610394374,-2.463340787184666,-4.445884873922655,-4.343810517124322
4.997218871057788,-5.666293322931391,-1.136022452299997,-2.182134699758822,-2.3398622425503244,-9.403610496998144,-8.522548351721142,-11.863734939312554,-6.560614203933859,-1.0249271070920578,-6.59309346823363,-1.3809532665911584,-4.799365661589462,-3.8736132952095215
4.848760780487338,-2.6343023419497054,-1.4422809089175246,-0.0675751183332158,-0.772794983929068,-8.161457152825143,-4.37496760107768,-9.580509993416022,-7.156361857502813,-1.117017115605865,-2.2463703500708903,0.5794656808316792,-4.5368215168048565,-1.0041106873102197
1.664904476719156,1.952080165356204,-1.4067231632626689,1.2360495493155252,1.1366414378578018,-5.577715430350756,0.250995035064016,-3.8897433477606818,-5.899084243604552,-1.7391699371732017,1.698796793717141,0.8380747644162656,-4.145442337753131,1.4004568149137748
-1.5458972056006095,6.407133387591158,-0.6055265957795903,1.5633158783154826,2.8206299823290784,-0.9939305138385046,6.429745099960432,1.8214702879147675,-2.8678396633032857,-2.474202577169919,6.201277027097977,-0.8430907293746854,-3.668750388001552,4.722187451633622
-2.81670991042871,7.029489572604021,0.3885912991551343,1.0137085543780977,4.619452587545858,1.2243703432992243,8.801562878956641,4.997463745910146,-2.490319996691443,-2.6788185802437816,6.031888555533018,-1.727027622759894,-2.9548451623222824,5.976073810447349
-2.5844223583233408,2.5517384319069016,0.2115360214910957,-0.4749867032310985,4.493757992508999,0.9028970001959378,6.537624399559786,5.294284386687412,-4.774039192105236,-2.021247067287387,-0.0322250846086265,-2.347681387541474,-2.013689734140655,2.808236926507865
-1.825613973865335,-2.715836043585414,-2.1734997468061934,-1.145239749132868,3.4690678640929518,-0.0873697802079147,4.197262063641588,4.030806779982857,-6.233831242999262,-0.7153692489915393,-5.543983438974808,-2.3089015966254918,-1.105621881515514,0.7062691375634649
-4.207727860345109,-8.7248744100593,-6.369626276907429,-1.951124656921841,2.918601452706353,-2.8485198160886966,0.3218285683400579,2.601879675395569,-7.761895008686477,0.5210491276110432,-11.961122890528152,-1.1170112136347763,-0.596241955071438,-2.6632463730343083
-6.494441232359934,-10.41335284264592,-10.482353495938789,-2.145035036900516,2.0881711126186584,-3.7592406296328025,-1.82815029424182,1.3766580815155542,-9.545533642408031,0.7032909506869096,-14.666689153464883,-1.0608695557151615,-0.7909508018292151,-4.583791799341569
-4.58079364209878,-5.0156908675620535,-12.28420238889418,-0.7641395776152218,2.196493846769204,-2.5581100664635783,-1.5071382075497712,-0.1383243165464804,-11.134812993122932,-0.936976970601819,-12.263174934091907,-2.00786009857604,-1.8154459828215683,-1.5122380241449278
-1.169498804421066,0.0885444583099848,-10.748171569325692,0.0853441738216614,2.897687640511254,-0.814579334451201,-1.251455859704804,-2.3328572512249046,-15.91127297028248,-4.315286398809683,-11.528586386128431,-3.2359586970784657,-3.475750362115772,-0.9116405350364992
6.320740309126908,6.442069407577471,-6.76600992788093,1.8279923892418315,2.7439886645424654,2.424837813836693,-0.048719332880031,-4.787426669875956,-24.059992085284826,-8.182220105951043,-11.13446257766598,-5.2150654944199735,-5.147847321822681,0.1100172637640986
11.22944426436832,9.84046068745158,-2.520444983990405,2.944206013245858,2.7737475915543106,3.550227835761026,-0.1830119133921392,-6.469286519551396,-26.77844030061666,-10.62306069343464,-8.95567535482583,-5.649509805153868,-5.906768334418668,1.7381812390878126
7.697914212367521,5.912306599676443,-0.0341847942933242,1.5060669788856906,2.968794490855479,2.305246483237076,-1.9897821189258704,-6.576136557631678,-24.19473758184265,-10.214561745755397,-5.854358117936317,-4.362196241942355,-4.971015510750778,0.2683815955000661
4.068809914383582,3.394266175607535,0.0122408937271512,0.6143190421690646,2.7024812398195417,0.6966827067284665,-4.512922115604955,-5.227562023073363,-19.63749973076721,-6.9662882154872445,-0.9815661613860436,-3.095362551047617,-2.1753394821330083,1.2204306608236175
-1.4321297407599756,0.1864132566910202,-1.5822826775686494,-1.2919934708711838,2.953854773529013,-2.184673513727091,-8.43998902506002,-3.400899685335389,-11.059748636141515,-2.249993759405889,5.91608866821566,-1.304475842950131,1.9456867344524549,1.8043196020857557
-5.3839590825699535,-2.9900170393925203,-3.3615171889123108,-2.8910739228933013,2.635005590495223,-3.1840906545861087,-9.405424378160822,-2.1809484442299016,-8.545965034125153,2.169176970967772,7.323278774700527,-0.3281419223956108,6.512254754010407,0.196255187623623
-2.793283821801334,-1.7924765677278112,-4.242480544517564,-1.6363034273218453,1.173063075769173,-1.943815048505024,-7.099028564547739,-1.958569644104456,-12.907054348650586,5.082762104630431,2.809626587904245,-0.4745418874370422,10.661234992109096,-0.5723429573274379
-1.7489203265967668,-2.0193001590723108,-4.015066745036313,-0.8755549954266509,-0.2462243010159933,-1.320631265585386,-5.114030485076086,-2.230927704221319,-15.425179812951448,6.038744159467187,-0.2174277306736572,-0.0749857646666561,13.53408572526065,-1.865456263810679
-0.901414709742989,-2.575147813758145,-3.127228777649041,0.8801610570389582,-2.407187255455597,-0.5607324761751171,-2.4494301747060967,-2.138045239362432,-18.402397594193747,4.983906181337877,-3.339046806927422,0.5157758163031918,14.125324537649265,-1.953154182916367
0.672100959255409,-1.2569817916263428,-2.122418801587873,2.980464375055187,-3.308868743082217,-0.3311536132890958,-1.3119022829309837,-1.2517680546452965,-18.71625532942493,2.100566682641851,-2.9976167775693656,1.2131929453676042,11.632135210531626,-0.0222393548934555
-0.233149136980299,-0.5772909522799372,-1.222981592953445,2.547199314591612,-2.133364299128658,-1.056176653942611,-2.3521573090923,0.0712018490733239,-14.94818888102957,-1.8614172268814075,2.330997222943233,2.260520847500473,6.423321095837393,1.7580761328256498
-0.3941869080672439,0.3159092000446666,-0.2741426843106822,2.0024474877103,-1.1187411902985616,-1.7742048855910806,-1.7031303006179446,1.0656980048182358,-13.744617860136875,-5.328308519666113,4.544748535812773,3.1957579565857386,0.7086960807968108,2.6733238651946185
-0.6449881377614877,1.937083584900196,1.050838361955277,0.5459099465899437,1.2632506202842837,-2.780826891200594,0.0886541429142436,1.310733332276044,-14.20992597252997,-6.454164923006028,4.604960496486851,4.070031521645665,-2.259813654279577,2.3292682819659376
-1.9257191231546789,2.093290788442661,2.9771774182929667,-1.5273408806015414,2.5592134665328183,-3.2054633452984858,0.8177761357050126,1.1663483954369678,-14.126862034541562,-4.357426640653754,4.34415869103688,4.239562428554326,-0.4024735035690074,0.4451752518643699
-1.6389493141170393,1.1752186110249128,5.4045779272293375,-1.643436732889075,1.3899334921501347,-2.876650875544007,1.0012169694564663,1.4746055879047475,-14.557033033604933,0.0163891553056574,2.2948208095423674,3.5487346431927613,5.278118340636186,-1.364525967329736
