AF3,F7,F3,FC5,T7,P7,O1,O2,P8,T8,FC6,F4,F8,AF4
-20.25019214148893,-8.999500665877443,-5.440617083459662,1.7105871407937985,-1.8325102393264427,0.3244912742011975,-11.665409013166212,-10.593860537418454,-4.893078752895437,10.9409993691538,1.3530829971610778,-2.31807973146213,10.307391440388615,-5.058156643443698
-20.80081475257896,-2.7234525925843576,-6.3187500420609055,1.2706168534602282,-1.1346023837534989,0.394059893170664,-12.51134414576294,-13.643079125406652,-0.9290180687041216,9.59941988680648,2.6689669653878205,0.8702250484823553,9.40745112378345,1.9963930418780784
-13.282605305732746,6.8769267096844935,-4.303612027841989,2.374276546223015,-0.4163516727153245,0.3466512740120712,-11.710757542301378,-18.041224623899545,4.755994629046933,5.812451720228801,5.662255352804994,4.231957290764085,11.051366724264833,9.53826197389874
1.0173741211260603,12.298855401424584,-0.5103900118129303,3.741227388523568,-2.245213340684093,0.3518487878747591,-10.724062783468892,-18.36879851721084,7.726997598978583,5.713787762779584,8.677884386999569,7.19025653753779,13.300774318617464,13.538385703185323
16.97832459927125,8.078861822983832,3.1697832634410936,2.370766374004208,-7.357940784965294,-0.0481315086796375,-8.96720965408135,-14.862408870191452,6.976272365476645,9.147999921348624,11.19683094139857,9.463841820634732,13.916417995780163,6.040105250814806
27.64036636980478,5.29081664356608,5.44693890418861,0.9408951008875904,-11.320258990208268,-0.3402560698302355,-8.341561889465764,-7.427219532677802,6.967784016428181,12.303740539390386,13.40836899259,12.297821603874182,12.356389283976371,2.080360903247721
28.206356390009766,-0.9302889644444736,6.220890866098845,-2.90847111921593,-14.781360959390904,-0.6238148230731965,-9.122721457419155,5.360812271957843,6.431132006251775,16.41714849480566,15.21781139268626,15.659755889999929,10.136410807489604,-2.9493802851510496
19.3406709254899,-5.611568430045561,6.113596202910632,-6.030937077761826,-16.522739640068032,-0.6525189714622457,-7.805936299472444,10.51487375001948,5.72452926709063,16.564679111259476,16.019726487719527,17.249677212530866,9.276033332632217,-8.159641008489903
6.897883840384644,-3.614648961370469,5.669077296146384,-4.212372304812171,-15.578261043998104,0.0105385071215729,-4.694555789445471,7.526131393718765,5.367133924318789,11.867425312038414,15.417303600253067,15.688782107707192,10.284409441696184,-6.041957811444259
-2.0702052027583626,-4.883859254828549,5.070469739021608,-2.545043374085464,-15.719018095414407,0.4293982786125742,-0.773386553112148,4.354898196291087,4.181425475785319,8.60793498447508,13.842503788847528,13.007884754493713,11.563477947729552,-7.615000180296191
-3.8967679896256255,-4.77322471821117,4.477992494570611,0.64597301792808,-16.469941745875925,0.943827056918848,4.6544240466748095,-2.0500160381489185,2.3844175022989806,5.606259451000778,12.17999368368319,8.565947880479392,10.807410338633884,-8.492635415378489
0.2051594446835096,-2.53243144395066,4.367113969970891,3.5325006175664893,-15.069848849949093,1.2618985057561578,6.803889950760269,-2.5717216379284307,1.4760874225483736,2.005889773113896,10.790961465780438,6.69380454164842,7.143180008647292,-4.285180165514312
6.496957218260416,-1.246251595896677,5.316517289221622,2.2949918650897185,-11.97781635756229,0.9215999700157188,5.28949924972785,4.199337600254586,1.4279097290274405,-1.230995386651381,9.174102536207071,10.558540214970035,2.0886599011148768,-0.7937838480691066
12.169886266992236,3.388242164333137,7.411933324066595,1.947947838284164,-8.32735144690544,0.5317082362542087,4.623491921738599,9.342254334117388,1.0038865138064923,-7.062296712750036,6.813338837823977,14.293009645584917,-1.5060265563683863,5.126911686063752
16.585840665781113,9.30686509679798,9.939658783325502,1.6685413852211703,-3.699939228654487,-0.6470879080374976,3.739189494933724,15.161781697721066,0.4916051061086735,-15.538443265848052,4.277965282014048,19.79023597624092,-1.5975669180933814,12.194474736865944
19.76685778413815,11.449453614772914,11.772419213628492,0.170306313354741,-0.0231602395268656,-1.921551658052842,3.858127820828963,16.370072194143532,0.5288634379149324,-18.09429810623571,3.1241174838939223,22.1647374820792,1.5809948922576886,11.615704146673773
20.598203290569945,10.17794857617628,12.119418769987142,-0.5177431798476855,2.403936412260366,-2.183762550866174,5.746691587311294,11.2977414027867,0.9970309414611358,-14.6631275598634,4.354706528690894,16.186857497285736,5.731278482805788,5.03822247067297
17.214466101260765,7.765716504063956,10.933168585199898,-2.092120627724749,8.341345695654642,-1.824998016096188,5.541233806366427,7.429967062525559,2.1443829062025985,-10.07166905930328,6.903929391082254,9.896740674088496,7.985116197322242,-0.2115917139881787
9.23435209589573,2.9955874887949,8.640681772867978,-4.669388143351711,17.586574950948528,-0.4203840614489283,3.575019105330593,3.2066373238490256,4.121097280610676,-2.3764676907433526,7.883788832231339,1.1650044580151837,6.511548793497816,-7.0576129804356365
-0.8426485131797783,-0.0328484322367893,5.559092706895278,-4.869391866515325,21.95965574105883,1.1909546808559652,2.7763163570523903,-0.5905893894462003,4.456475536947638,1.5950433271913336,4.687411071845943,-9.392296580747146,1.3346295493260882,-8.505010792185567
-9.02392212938103,0.1772837668745165,1.6316689829500357,-2.60012940871914,21.825666518350086,1.2668469415108488,2.5871995631554405,-2.7464762202363797,3.046099096243747,0.8965560673056114,-2.869485357200233,-17.54642333341739,-5.825067828155728,-1.081738894365643
-12.93658708167598,-1.323551215927472,-3.281376746962879,-0.1100060094072305,18.63537807342116,0.6064413460580718,3.2374657180038606,-7.9475839724957265,1.1924344140314953,1.934555630093596,-12.32237015144959,-28.382250965845152,-12.416926901723713,0.4088254948443695
-13.645519440607169,-2.1827951249185595,-8.916431120464203,3.8204966529638136,10.440614950786491,-0.052779148081108,5.269963631295592,-15.83554373415688,-1.7167115016885262,3.0014570686009674,-20.372716192397174,-41.71335814986244,-16.244954572499395,2.016245402114002
-14.357420660755231,-2.9104902696484114,-14.452319974824668,5.986780359190917,4.88296278555243,-0.5339196827101693,5.035767476355857,-19.288821527036934,-3.6539582118759935,2.0376228648942507,-24.993451785504515,-47.24139501741624,-16.49969634569939,3.1990709206752435
-17.281451030211784,-5.808074137812094,-18.842445714483425,4.318965473096949,2.061949057877144,0.1953838517568428,2.507739983781041,-18.629780369994,-4.3989330565846485,-0.3878433720689184,-26.07758165147787,-43.425367438685946,-14.099812793460591,-2.7740736826781505
-21.676647976698757,-7.456335305352756,-21.321963276477984,3.0636339683785585,-3.2008763854118425,1.6412335872167296,-0.8574996418382724,-16.92777123365772,-4.770765396482264,-3.1936688468546333,-24.59598340833795,-36.72642593962781,-11.070814512464018,-2.926597940771837
-24.81679886812672,-8.96734484959227,-21.687488252114782,0.4311603810916469,-9.326127655653972,2.209181253893217,-5.924908404366738,-12.666829246965674,-4.187087034168044,-6.600740309417922,-21.63956677728417,-22.63543888720649,-9.314285897985584,-3.8757797728515726
-24.69416380701235,-10.37237859638688,-20.23332292724666,-2.576343994909772,-11.820974076875553,1.7066442354277818,-8.055382532739339,-9.992062305748538,-4.615212274849121,-8.243055968463494,-18.33746735570784,-13.52096264657442,-9.609670192474203,-6.063678119051284
-21.739868589758004,-8.7218159457012,-17.529782023479004,-2.544156998520608,-10.7713822716707,0.7529725360808046,-6.857049367249456,-9.342032096762289,-6.1453173944539286,-7.673328325226925,-16.143337816496597,-15.646537325190716,-11.48148533324728,-2.255787988540872
-18.07043943892004,-6.768352185097672,-14.253054421415255,-2.511737531224481,-7.431471049327294,-0.7053688267771442,-5.168487118146076,-6.676110146027941,-8.8296103162819,-8.477556465916548,-16.354285021308442,-14.01792583387278,-13.809736931809947,-2.6409453978642614
-15.332472141586974,-4.346635319009852,-11.089794378364104,-1.9498085549769548,-0.6454096164590594,-1.647042036660357,-1.795804221058247,-2.9224589149606266,-13.25040123874233,-10.115690049950413,-18.811409701636883,-15.236917671800484,-15.512900969605315,-1.3178147035648529
-13.458874559898383,-1.7300631307370788,-8.61457184019409,0.2343780046474717,2.539596402427517,-1.43288222929396,-1.5826160680348738,-1.6318050248144491,-14.726526096280914,-9.307863039623198,-21.20796789717113,-15.788378826309884,-15.821481851868208,2.264724681743844
-11.448219635095835,-2.865977762700276,-7.107684791511345,1.2361489294988508,1.7013460076146054,-1.2762940696416345,-5.125430784547563,-2.584817964862356,-13.127061156468043,-6.394607199007821,-20.340331698991363,-9.22053795437628,-14.26943975357672,2.843863528937506
-9.04851670477166,-4.0435187888841,-6.432273512201334,0.8866448460269891,0.0854386053104106,-1.4766879772078556,-8.511160207037424,-3.2443327592747013,-10.2329613291394,-3.7692258811228543,-14.762814359374769,-6.520001549242826,-10.81347570108534,9.72597599939209
-7.334194385459075,-4.537993252068386,-6.114626033382503,1.2755547720612317,-4.140078638105922,-1.8221890738888404,-12.982087986417246,-4.263614191722045,-4.865490494626147,-0.9266648438557618,-6.547743161015466,-3.364499715106657,-6.146516871209508,17.722130036825288
-7.47184306427886,-6.279138476957946,-5.620422262851896,1.101566542918189,-5.709917248601121,-1.7477679052450714,-12.702407408036596,-2.965880522405472,-2.0720039809496638,-0.1671285317126627,-0.2224224997149427,1.5857307062832788,-1.7831885592936954,17.64263524194121
-9.029380308322096,-4.522589056043436,-4.644915350335641,0.2628560951662462,-4.235202878051291,-0.7738193363615211,-6.708842447762026,1.2741762754313202,-2.1937161501087687,-2.126880883458567,0.648539584474439,3.6776208419530527,0.4954123581601597,9.853966300145808
-9.788819445771782,-1.9160798845100264,-3.2127207280284216,0.9726562164556865,-0.8982325774346781,0.6964857671305785,-0.6538604365080866,4.441078305160802,-1.9182173347488187,-1.5463617169897783,-3.469216500868812,7.592661166438839,-0.3196838379072866,-4.674491234896498
-7.5114214211380625,-1.4600405322349426,-1.5461186042699464,-0.218355163558831,5.794968999002846,2.576709422345831,7.01128244952864,7.19955750716441,-2.4619116367282885,1.1304046413202722,-8.018592572986398,11.89324426232747,-3.6519518432298743,-22.58902257041013
-2.023386748341588,1.0907743819489943,0.1568015149587807,-2.289970029483813,7.3821859208418195,3.116346699530012,10.643926352484078,10.033876925934788,-0.9599025965098676,2.4829194900567875,-7.580645486175886,14.204970239412626,-7.4255685112272385,-27.71692760755664
4.479978959164808,1.7731183642452455,1.8597979806457987,-2.104620099594001,3.530428707752519,1.9554829905386075,9.004026464912346,12.274478293706744,3.103157358807974,3.35314084446999,0.0028026534411402,17.29125106592066,-9.099368054981571,-15.035816985406536
9.332118488408652,0.3407529065297852,3.6884090751626513,-2.2423030135133537,-0.6112131362114309,1.1353697552788826,9.390505338882129,15.148512496031504,7.517889215021979,2.985595660969619,11.787124204758214,20.11059134050757,-7.012882051499767,-0.4662404681680674
11.73010447710416,2.020108424806163,5.84841416343326,-0.4222062015708873,-7.009571969328365,-0.4815166429982445,10.334561234735352,18.5669483705984,13.0991212866297,0.8020380235955001,21.614694737826877,21.57235364734069,-1.2165837669473918,15.360706683599934
13.275305579268538,3.2409442601456377,8.5026717217361,2.2468110007908795,-9.513568067186942,-1.8809563597804984,9.767088580742085,17.88068154344349,14.818078702672649,0.3783878566720825,24.35725254749377,23.047370735717827,6.635657333485339,20.484794267578614
16.22920903831055,5.961657190392465,11.590388692816164,2.0654092630398577,-7.181596642165079,-1.5704084906078204,8.629429258797083,12.874100385535712,12.025320697789752,1.5795692894851494,19.377706822838714,23.767329468083798,14.125926535688905,7.909419529455469
21.20371322661013,12.00829589397689,14.640251731268986,1.3349412491532515,-7.29382929012434,-1.4399766829271723,4.71882352085708,7.205367484959785,8.735317413544308,1.8918522127665025,10.724100951276444,22.7447663428228,19.08109940305909,0.4915613070791495
26.483354116297757,16.36718113342893,16.790364369053975,-0.1096276477728029,-8.426245030021775,-0.3836140626267613,-2.3030199377855407,-0.1812112786529908,3.616613592340273,1.956744516800985,4.0806432870919735,21.34132961543117,20.295704132633087,-4.202951534404288
29.50251817134181,17.417925664912794,17.21054895403597,-1.3955045411450189,-6.3024228875960135,1.297799196659417,-4.626728784015527,-3.1395305542949856,1.581877405366079,1.8166089281461784,2.905047555956232,19.2341235057114,17.839984219561277,-6.276816382174969
28.92630733888918,13.877959076005142,15.763456974302976,-0.6390208859023583,-1.670506645926942,1.4386388029194208,-2.216502318120575,-0.6220020239235596,3.474533954764286,1.1297723753840423,6.584617172461677,14.447123307645644,12.99576872939578,-0.294720819440265
25.38494842732708,6.883275366326542,13.334344385656705,0.0297055891232289,4.18775581185798,0.8179527418036823,-0.1886039336507879,-0.0845248335961094,3.6052839032416224,0.5454480650461696,11.621870108442751,8.637563330519196,7.796826140497533,-2.1199981835559623
20.438367128830944,-2.047433293074723,11.340254966724396,-0.0383966203605813,11.97978923303315,-0.1596608561819522,3.1275662492185554,-0.0202040332812557,3.1874653597449703,-0.0230047985736777,14.460749173080716,1.970027981039,4.1663978999985485,-7.059893737562796
15.104457955358168,-6.8798360902342495,10.627060016087231,-0.4685266485760957,13.893129172855282,-1.1561508970923244,4.155029084464005,-0.1198786202304277,2.38905312841403,-0.9947634826678794,13.625823697010508,-4.489947099404727,2.964879260345179,-6.310441712874488
9.478784330238568,-5.128902737370562,10.668259260644115,-1.3112330798205936,9.132847975528048,-1.0004322228035982,2.0437293704806416,-1.5372402823110003,0.3609535180435184,-2.2958484676457407,9.929222882193349,-7.126249116361032,3.594219106982637,-2.741965860452729
3.582779995116331,-3.2332759789884054,9.882262556397034,-0.5995483231403447,7.662819509994766,0.0644179350683718,1.8256675298465692,-1.2456198877771265,-0.5155496136311971,-2.7230561461635685,5.279851727821746,-8.817813525342025,4.583018461260959,4.079744968792132
-1.787343407404605,1.0036209168267003,6.91827679888554,1.4573647074419416,7.894572618226799,0.5918523206491346,2.606643268443529,0.5646434649539467,-0.3766431612172015,-2.2320094235779298,1.4017328295880451,-10.807470854860718,4.754009872325316,10.277720189497106
-5.348848056624821,2.595034471040237,1.8249896538277328,2.6446580704940783,6.559095525496518,0.4781078787828358,3.8994031277567154,1.4380755305164683,-0.5198640745429993,-1.3682417700381433,-0.8179643996216273,-10.966242498324444,3.9406574483448074,8.429300687557449
-6.556914410191059,-2.459567417265104,-3.9129654192224974,2.4688797610796485,5.174592285309155,0.1657312038850269,6.51735970646904,1.8099973958238655,-0.5269892549140864,0.1785889246970796,-1.4762270790553975,-11.11965570049508,2.607509812122172,0.0630397957399341
-6.46149636766053,-5.904210094496555,-8.445441793036942,0.8477184457733993,0.3253749241998548,-0.3802205929574522,8.690544299051876,3.592161395162712,-0.549079309846839,1.321578051768004,-1.5293237259254449,-10.962751897944267,0.902189664539808,-5.679141433136466
-7.160352546576185,-10.900139143594073,-10.745442406391795,-1.2208990807843414,-8.465053849850147,-0.0512482709521369,10.52276480998161,6.531530745653456,-0.7336859258372451,1.9747380154757983,-2.2553998951385363,-7.904966154389636,-1.6527753625655368,-8.805982759919855
-10.15345840460382,-14.248882728648312,-10.97879515081716,-1.791414008231199,-10.788022209776994,0.6105804535734236,10.037239342919555,8.011954552494199,-1.483355617278845,2.182662182992292,-4.268029479169206,-6.325722291749006,-5.34069265148868,-6.494264961046245
-14.991782054137136,-10.852917429789654,-10.006765306013689,-0.5133878295783344,-6.732979353268828,0.5662227088564811,6.630223984590979,8.176554742476041,-2.9468464506090664,1.6100421769893254,-6.754366976388123,-7.675682937015586,-9.249195099545195,0.6677958440710354
-19.43145470025941,-8.530132507032421,-8.699141594914522,0.8453288568254971,-5.987470591830064,0.3100460615274246,3.1565425276907866,7.137643835928805,-4.2888066489049175,0.6754899884913139,-7.900263754305917,-7.644115911086934,-11.48649442518925,0.9811115219414724
-21.022277707258684,-4.571386165413881,-7.616909576157057,1.6803163941553223,-6.6995010313753305,-0.439648038071572,-0.984466399628118,4.242323490058144,-5.627890308476525,-0.7605799521610878,-6.515448556009876,-8.92130633132326,-10.773808409740733,-0.5402429821821488
-18.82736226714108,-0.6970721105157958,-7.01236243208129,1.4321769477256507,-7.636267079455812,-0.8363067554935963,-3.459046318020088,1.85491665838389,-5.680396510915453,-1.645550228203677,-3.446867383681312,-8.283494530052756,-7.892663073792275,-1.152849292935589
-13.87400867894562,-2.676058988438457,-6.8035163998812695,-0.5758313325129595,-10.338372648303562,-0.385103163646111,-3.595879255437238,-0.1154691119365598,-4.154194393190227,-1.848588614273303,-1.174807863165964,-1.9931432332285268,-5.313646492015026,-1.81973791785811
-8.079448441165265,-3.302965144731126,-6.48365663186469,-3.0356969353741645,-6.529050419474633,-0.4338012626234713,-5.537005330940564,-2.8341359989554835,-2.8623879107671075,-0.8601813742717496,-1.6294765117116512,4.23200975943179,-5.082445037245653,6.014460942168215
-2.760815677655927,-3.822355048158488,-5.2878828103863,-6.203254396451471,4.196265956052962,-0.8131935447336192,-8.698358438452937,-5.839153390516895,-1.4700684397215722,1.7358204951283067,-4.216901906900578,12.222711112704047,-6.909452190747843,15.049733594052253
1.8504295284595005,-4.923282177926581,-2.774581889040117,-7.655467674768649,8.77037591641145,-1.2536249445545593,-10.16657618672398,-8.263167561501682,-0.9499588450609376,3.06081366260701,-6.120284780108449,16.797936404585126,-8.349745350268073,15.612943658443411
5.770143735151688,-0.6905574208135661,0.5804198038175943,-5.175503245593989,8.331704615807883,-1.5335385704476543,-10.440606463250871,-10.084768926035885,-1.7067379948970065,3.2048995681797745,-4.804692192337477,12.920671946955236,-6.954427344992584,7.994805517799957
8.239775846353654,3.96299553735631,3.430365143099092,-0.748441717557646,5.9289078280933545,-0.4396925612787598,-9.504641991721403,-12.261351971676396,-1.655436937129435,1.1625148350362748,-0.4078551994634494,8.472762982127671,-2.385100108108129,-5.121121387213533
7.94104068392196,7.693254648955017,4.426762401899012,6.188976552555521,-1.1247465933385803,1.266711290019365,-6.796870965878101,-14.614506359159506,-1.069920376074715,-3.907439928059453,4.2798447620221065,0.7281890505524211,3.386115573829333,-18.81098772989072
4.531812172567862,11.886513343076544,3.2985858394446046,10.66938242281956,-2.2038476358869694,2.316433746785461,-5.818670238112355,-15.31546420858696,-0.5346201979780341,-5.058907598871917,6.204289252612337,-4.673765210966851,7.771995169653014,-21.299774957527337
-0.0645921333483352,12.09668589855675,1.2171307449893516,8.775606626898194,3.161195493428026,2.468469427806844,-6.628535919454314,-14.342024145767104,0.3008224939629543,-2.334779519165429,4.508880167387117,-2.5487407700422957,9.477971032078788,-9.710590666170614
-2.3209170197389777,10.608455399875549,0.0509626028475467,5.386754009760848,7.768655992433786,1.6305872063263132,-6.151247000360375,-12.615666381039016,0.5304035626959078,2.721962101881008,0.8817222488475158,-2.2214636666317875,9.055794894271816,2.9268176962400534
0.3387438230812281,10.087936523402432,1.0362079787853895,0.6114703397813022,14.004412042366894,1.0719354057428852,-5.060745851361594,-9.696971215570116,0.0840193421872761,11.839347222202342,-2.1758753913629225,-0.3410463059169936,8.019757709,15.218693991340146
7.160454944161812,8.70445278849056,3.8833314268834815,-3.2355613677072537,15.608736490968791,0.8059116233584274,-3.233233052874126,-6.551677899388749,0.846183782619929,15.17060181182125,-3.216822978287491,1.7007547320700385,7.628613866716513,18.043800483961896
14.112266316956305,7.307809578437844,6.9914808151010766,-2.568930148204034,11.297872597229736,0.2032830468418307,-0.1797046049709368,-3.286246751742306,2.7326593447646848,12.252592460895883,-2.213969580268599,0.6944945176695988,8.303662033422723,7.006775950100235
16.619648447280568,6.352915814316114,8.572806763323394,-1.5766539303957536,7.198387579419975,0.0111340634054222,2.150256644816684,2.1115891165731457,5.167742789469234,9.64285145555115,0.3119535729856665,2.029235963671733,9.71964109354794,-0.9788131430576564
12.880810149446484,3.74522784045652,7.821902614736124,-1.9150355155417684,1.5611526669990816,-1.2165571724496802,3.838625813973708,9.537333610191462,8.56995775996877,5.067366177327016,3.91891440781798,3.448833275722163,11.06751105875732,-7.210476939519128
5.118931107389689,2.0116327903092635,5.302515680376918,-1.5810071404440549,-1.398990300586004,-2.3201076832746166,3.643913857951013,13.031742223912476,9.46266541095683,3.2943394410901825,7.889055938247974,3.96931855329466,11.277848924649035,-8.36297174980474
-2.1505518047279693,3.755226559390545,2.373212581236161,-1.6671300228110546,-0.5848955921760975,-1.8614263454619344,0.9602628084320528,12.481840944916552,7.561212737646191,5.3372525996657165,10.753854861702612,3.5334145861138126,9.44956666841268,-1.412939327321551
-5.375418069785841,5.5023162330104025,0.179831961743794,-2.96784184782775,-0.9941414100630244,-2.271731872904267,-1.3928835554751218,10.679624364072598,5.185377396358187,4.363041904771345,10.914738352083097,1.497908843823469,5.57443625696801,-1.8255238264098708
-4.246319388370182,8.152414934656335,-1.0213119171726674,-2.368149345608794,-1.412602124825912,-2.133189037541844,-3.815615585579064,6.170265863214109,1.454826941402856,1.4803905069799488,8.153627703835765,-0.20302218573449,1.01866691569276,-5.442202177862599
-1.4665078944989849,9.335421242537198,-1.7936856449085825,-0.9631551645222128,-2.0906592374632926,-1.2112645799792436,-3.8524521624059904,4.401540631384742,0.0627050016500499,0.1629002998066163,4.351079396235457,-2.2946347826664386,-1.9885574460150748,-6.796222738682828
-0.4465181442233366,4.8530830234603455,-2.8815148199892704,-0.095619255465169,-3.714157514902391,-0.7488738228916038,-0.7151834195287938,5.883075685768617,1.5252194521267686,-0.4712300762128864,2.1734011459545908,-3.361173038988116,-1.859821698678063,-6.767804905887213
-2.7587669590061585,-0.2240473591919033,-4.546542650282886,2.744478355443808,-4.278346038190369,0.8948426445956872,1.4877343766136286,6.836531314080416,2.2035284883226574,0.6766976581563462,2.6524537639869394,-3.0881702764590653,0.9602267423582758,1.3059169056488793
-7.137656147397386,-6.226236947830788,-6.343846002384969,4.613959417816494,-3.982473767781316,2.6512596039356624,3.453890176873865,8.626115893730624,3.013792017644118,4.243016447788251,4.106382850923016,-4.494806226505442,4.072449478170995,11.607741887722517
-10.558952909934412,-10.605081538170037,-7.409978374161737,3.21435550568869,-3.0681184135942887,2.8780147807280847,4.389360017235376,9.442813917332412,3.626832639658833,4.850134668334609,3.810424389958629,-3.757780789589891,4.892137741958451,14.087462457289156
-10.457602062784916,-8.870873437238147,-6.978628434613201,0.5961832509433014,-1.1425284733434664,2.141632694412864,3.493150555333437,8.841202781436827,3.53347759551376,2.575331083713894,1.030284115701832,0.2454398491168989,2.743486202355896,8.54397986033703
-6.449046425505078,-6.8872203156392295,-4.761170939727886,-2.397418827490187,0.810749508955493,1.088776321825328,2.829313230418808,7.899681593825146,5.0124850127746265,0.336588587777411,-1.6297052287305327,3.422508359788968,-0.5672741058193091,-1.3479114029572443
-0.4063017108514857,-3.926699397172717,-1.0283316781285765,-4.889693119586138,2.837491862815185,0.2367309903742644,1.9626775725382135,6.030111329517301,7.957744518516147,-3.0020750562370018,-0.2261189245297536,9.496323982776117,-2.2943714768886725,-10.717545803944976
5.00658650154258,-0.3720545356869268,3.5153996394805715,-4.132308235467009,3.3716076091260927,0.0245486263339148,0.330719176094263,2.824725825630219,8.664248353208926,-3.6688322509670055,6.736102177536761,13.453900384262653,-1.0927761463663512,-12.302415190939318
8.16295194606106,-0.0372054808970152,7.890445782655832,-1.1949001682234994,2.019954661147589,0.0211419001231626,-1.8300488814413225,-1.811626609177944,7.306422489954622,-1.100595262069414,16.170804060039984,9.921405189965997,1.9123536734743327,-6.287461770088891
9.321773869297706,1.5840134282808536,10.998170734741011,0.1544167923889529,1.1949675509177993,-0.470419693159352,-3.398120316421956,-7.67443399725888,4.922110720232896,1.6092071487368278,22.03814781811635,7.059370079312331,4.223012231393692,0.4388416938586352
9.97062834741192,4.555718110113577,11.904618096941196,1.3670064665504729,0.4831883268492629,-1.8112203994661464,-4.301104034332325,-14.938442630018656,0.6726126570573292,5.46994165680355,19.574734344205726,2.23457699716438,4.140883526664856,5.211818323486059
11.277492846546576,4.949935299511409,10.3166801859047,1.8085484117146915,0.5057160342913185,-2.530703741807686,-4.3468861027015135,-18.10785768426814,-1.4157717272995944,6.006229167619127,8.81598511200847,-2.7189654006395485,2.031178380628986,5.890678906652716
12.90820870486252,4.960756271320309,6.999485439015428,0.9897062492112548,1.749843914968585,-1.649249321361904,-3.148678734952298,-16.663615632267387,-1.1075647357799356,2.490554363946187,-5.188389620316016,-0.7788933055170197,-0.3081044206974592,3.393716710897913
13.182879165513736,4.890970591766434,3.6462006282712176,2.552962505247605,3.013624833223272,-0.3671110816597887,-3.6582542837813135,-14.684540165023597,-1.3561546500148665,-1.9376426058274248,-15.454594200799232,0.5413983075390629,-1.3441956791973482,2.477343720321592
10.52206011042118,2.096044358525085,1.9627474803978764,4.308566659613556,4.606605397736288,1.91957358610993,-5.901582046936744,-10.759605581861496,-1.239492619143169,-8.580107037310235,-17.2424319053192,0.9627111123728536,-0.9238584926630392,4.12355339123414
5.068059771259053,0.4874984974324314,2.43333653125666,3.8550612929713313,4.148476349982241,3.219480768255788,-5.692225965174065,-7.628085180998863,-2.3164993187484857,-11.273302365627524,-10.76115812828624,2.823017795078155,0.0055278099215954,4.909054932308356
-0.9305203393036968,-0.0378659659208104,3.774002997829189,1.984980888387053,1.2557599370163652,1.8610634656300948,-3.4249559389520914,-5.888375341078827,-5.040050669939188,-9.277348543272694,-0.9609825034332188,1.8432453490846863,0.4276919953470726,3.267130189654948
-4.528238296163402,-2.998119799962366,3.764588609254832,-1.9351085792542408,-3.59906837611136,0.4573480262222769,0.9476740283198226,-1.7838772257292943,-7.26898070461784,-6.79829255739373,5.4238697661140485,0.188153784667963,-0.1223625035115683,-0.1738796125987616
-4.342164704969639,-4.996603700864636,1.01877054174886,-7.010555435352585,-11.2400839912549,-1.6385722387999615,8.379483714596772,4.026692499262141,-9.43641604683915,-2.1766483386407467,3.992761343053327,0.3721699274910544,-1.7333045506919935,-6.591080625897305
-1.8059247000266885,-6.9021229444119,-3.732944330537654,-8.297107160857998,-14.115189303346767,-3.0150854223428074,11.965765754928215,6.648183211424752,-10.868475734513003,-0.9509108087785384,-4.462353648531353,-1.0563566433187055,-4.468331216284798,-9.6173919097839
-0.2199050889682439,-10.544115766630442,-8.061139484772468,-4.553307885209856,-11.802032466994588,-1.7835459518570094,11.534963552591762,6.228126087025908,-11.162553759418984,-3.891457752636253,-14.403006880886704,-5.133897115663517,-8.225720222676685,-6.2754861129151
-2.2647535174235647,-13.189882902926728,-9.75607302823895,0.7133998954840048,-7.836756163302514,-0.74896461282495,12.317316532006418,6.02396288075024,-11.1681669509449,-6.158373922189195,-19.395424953235462,-8.798685296460826,-12.300266141168253,-3.1669694000890845
-8.065994739517926,-16.172878218169764,-8.657072282496756,8.342113225325338,-0.2602257243080003,0.5609529617315008,12.858816359163605,5.050585507741555,-10.573879453419076,-9.17136679849153,-16.857372402614956,-14.00676814820144,-15.436902993255346,2.2737843154017203
-15.422000264401651,-17.713226526849045,-6.792745317614724,12.12046259774071,2.147225035993794,1.7097517126802129,12.75235833062984,4.366247749952666,-10.402417307878425,-11.059913523439333,-10.059731295678963,-19.34243435597721,-16.691334453221067,6.398699316653049
-21.773697084551905,-15.210953317105083,-6.692550445094284,7.675102271208093,-1.374109931546987,1.1775025141576958,12.58719160546712,4.439303411855831,-10.80139865319814,-11.11788610395786,-5.565041775726918,-19.793711688069905,-16.36353943985243,4.7951513693825
-25.8906104510496,-11.51448040896994,-9.327670090564563,1.319291426343248,-5.273066499263936,0.4970188643342744,8.567656156126459,1.9112318824832115,-12.292588575458137,-12.723241041494736,-7.979412961975459,-20.07083043143729,-15.922847761311752,3.213061664531402
-27.747324730377564,-5.862864058516135,-13.392424458012089,-7.921260888058095,-11.786371007977529,-0.6195850010907005,0.4579540397446791,-3.044772461080748,-15.286673989258167,-15.361132960547383,-16.284758268172546,-21.039080089710392,-16.734653542482008,-0.3785359283308286
-27.152763475305456,-2.3579660169585304,-16.38060044147948,-13.28922199463835,-12.81525627742003,-1.6333071390306526,-3.725917854584485,-4.458411826398751,-15.791320336114088,-15.723274748961172,-24.766444484763973,-17.754424841788232,-18.661920320617675,-4.5255350385782185
-23.10574072656797,-2.9145149850799967,-16.398819640848206,-8.513617160572466,-7.278321001300657,-1.1334154394487552,-4.331815172431193,-2.5376875707604127,-13.783087378486307,-14.091336355471036,-27.62272548623543,-14.124935210433817,-19.89599445506336,-4.633909289986389
-14.975072297724129,-2.638894424777681,-13.252794945343489,-2.262656510132313,-1.4054443966080996,0.3212009902519072,-3.2776231219229346,-0.0919542631541882,-9.468021167817524,-11.370976759230652,-23.274350802782138,-10.422554041173171,-18.31355938911704,-3.228135462853454
-4.327760742659134,-4.190431033160392,-8.21831351184537,5.14061453171892,6.949602984840153,2.7445898077514994,1.2803816709084908,4.15502816527609,-1.7520634248492752,-6.8636260659936825,-14.934875698099637,-1.4543835308989546,-13.26110090541115,-0.8696598482837208
4.904449246397928,-3.941570445309252,-3.0368045981524574,9.003260955205944,9.2007945678212,4.3139602107447015,2.168917260573504,6.251033360811905,2.3374218907581747,-3.53982302981721,-7.460589533319775,3.625506588529393,-6.2735954623339785,1.507819838891503
8.791563518668367,-0.1847976637711836,0.9710214100233217,3.923185586006819,3.9892199835741575,2.9785606516877854,-0.8532564262280309,5.71888111256428,2.6443091036046917,-1.5741195895516875,-3.5626855556332417,3.554758919362655,-0.1486510818387185,0.4097350768981034
6.506485690510552,1.6225366484908896,3.2548648931197968,-0.235745050864092,-0.1729301223039056,0.4325585815788928,-3.822990215008872,6.489326092038658,2.9133791591260643,1.8159983864911005,-2.479177327504055,6.632450351464625,2.8730732225400164,-1.4086989879940015
1.2596827186457775,5.1907754188108095,3.986767242998228,-2.335960511723369,-5.496189907981983,-2.878469893233913,-8.398921457938567,7.643992266887606,1.51854096968166,6.015585261241795,-1.602615740684127,5.657645883258967,2.467529157341777,-1.5242205227764305
-2.051635757800612,7.730797034985522,3.837317531105112,-2.707412302078533,-7.494806600962059,-4.945045368916602,-10.403670315583089,6.395427678233054,1.5323381364730142,7.696105840193117,0.9436181615318144,3.6141611691188302,0.2505927934969049,-0.5468404100717641
-0.5762745861713261,6.639109444982679,3.5904411506619733,0.8203543613751342,-4.640631942280556,-3.535878465575561,-9.251729086851862,3.0144874288567154,3.3877297023777904,6.937346200634731,5.033076200599515,5.936084163793433,-1.4014916136162991,2.8354088774288155
4.590704358474463,6.941056983884441,3.6282975195217886,1.5744006648349596,-4.398790744499964,-1.356907938957281,-9.17518221543524,-1.4506018864227104,3.690144931699074,5.579621475340149,9.122266653025685,4.216315644627996,-0.8466701513783906,6.795799284289952
9.857832616946284,5.602729533886535,3.623949678667413,-0.738632092935737,-5.5085010551620925,0.5582392711900032,-9.179268999346633,-7.5622490915634994,3.124877969288969,2.89513731139954,11.601641814179354,1.39601101968731,1.9822870925911864,9.260197979408968
12.410631288915024,3.835593235686426,2.8781691016354314,-2.4563273072777854,-4.360027690165337,1.6640033675958186,-9.63836686169929,-10.646652665147007,2.898052846512269,2.618578207458844,11.676030398610708,2.921782465363786,5.84694211920801,8.224177702876593
12.29216245345637,4.029408345058344,1.2343163577863898,-2.857119974499808,-1.8881798587462368,1.0206399013949223,-11.184828876966488,-10.236757853986344,2.591603396537427,5.239587516570384,9.511305965810177,3.667990793012985,9.284321963462515,3.560763378160078
11.634065948272744,2.550749702882961,-0.2324787180454095,-0.7916848695783905,2.128550225711766,0.1727174738594858,-11.052280287742631,-11.248600847541814,2.390541698816572,6.136574728620407,6.100680677945659,4.466138475001987,11.65468142859193,-1.781321211941871
12.122237912895912,1.0874086957558535,0.3342709026403966,2.3825905890757677,8.251186861636493,0.5533162401839041,-9.375967762841748,-12.635588956968617,2.445599759571281,6.128072105153796,3.075638962832789,8.788921619192964,13.348824046682308,-8.507264471337406
13.266089032105269,0.8664909517010144,3.9883692705997302,3.825998003656597,8.898496442123927,1.153506217702824,-7.703909441491572,-11.566815305425788,3.110217764021268,5.994597974189081,2.16078027295962,8.63991937426591,15.028685780694614,-11.016527124098264
13.012162920900709,1.0771494781877882,9.51094570955144,2.594905880958721,3.629285757094504,1.0358015112657668,-5.525049631247769,-8.512605142662215,4.539451632720578,5.008407579338499,4.127546771938141,4.707798535636855,16.630695005999854,-7.2035183905696965
9.897122901560364,2.4685487771529733,13.58791616923182,0.2436449419077923,-0.5343675900426285,0.6942358012534111,-2.9530353765811275,-3.2054393162899744,6.501515923224432,5.052279570622521,7.907516619523932,2.9620969154648185,17.1383082757277,-4.446548301928593
4.5759089276092375,4.460191045560654,12.943737420884831,-1.1043054833454196,-5.223811542412662,-1.1054335121259151,-0.1488975375844738,4.9568555740449805,9.167142993367294,6.161726039844968,10.921017585748166,-2.8922877762703,15.462619821968014,0.5058997721221776
-0.6509565170561835,5.07120649088522,6.934033264780001,-0.9860751185141468,-5.516705734592241,-2.6577089268189678,2.663596252892656,8.554058857268144,10.595671988483383,6.464077613381226,10.844357084045871,-5.784370198690914,11.672777830575212,4.815406657803406
-3.7037292286222936,4.2022137270728654,-1.589766629411824,-0.0533871550397835,0.1142532360616979,-2.075264884167044,5.361175908583151,7.219302642091585,10.626784296052568,6.281917732340354,7.571926680108934,-1.3489885779927782,7.341448433102947,3.876696345211484
-4.166646267973716,2.8214044772427167,-8.071631917927451,1.012083307165395,2.7183291396845104,-1.0876209680817617,7.702987636080183,7.1308844782686025,10.991415926680402,5.841181378503839,3.5792679780311683,1.0223045058253626,4.498586419843435,4.391567337690231
-3.105869952184846,0.7875654589285543,-9.39910504027771,0.6268714122258032,3.552114121351141,0.7066140008483212,9.523708061106296,6.660089968533837,11.239341128546842,4.825013246402455,2.0979364906955125,6.5908983919288815,4.028173720759945,4.226509814572847
-1.7260816019889873,0.1202461953800133,-5.912850748961409,-0.6835850532662864,4.05149004593796,1.9742757282738927,10.80984804543619,6.44688516096336,10.801586154427088,4.684818978088571,4.506302277032802,11.238186517959049,4.984692972273273,1.0287905897464114
-0.3526713772145129,0.2506410863904347,-0.7500967853497946,-1.328424315298071,2.638397526865764,1.4215147725529294,11.392443128116366,7.34582431127143,9.841367510782108,5.4675477098744745,9.17711850441642,8.9505721754548,5.513767209434681,-1.5529471183070236
1.3116151172470305,0.2097577045192422,2.7331827408348968,-1.911494027058681,4.935143478407644,1.3845105760684735,12.260973602576284,6.482590087813996,7.994330538191679,6.538460762664522,12.784136326365648,8.317681583123889,4.526303729491122,-4.1320934155335385
3.1377946557875536,1.347277114829468,3.215615250272922,-1.9217164532041904,11.081327288050176,2.0263796414159594,13.409530371319034,4.153445339040893,5.13561790189267,8.251885809948343,12.894586249718447,6.629188137855848,2.5256939697872216,-8.00923785736946
4.041311310202335,1.927629066612229,1.659555673985173,-1.057018949122848,12.351448744259496,2.3864357577448723,12.651241960412312,3.436516798462724,3.8592872565030616,8.39070072873594,9.6381509984122,4.15425119210814,0.8475263204917098,-7.613238650520661
2.720467559218852,4.092578654599877,-0.1807040225504401,-0.2777568389603099,9.432787205899889,2.304983102774198,10.027650091513989,4.0499959313784055,4.266359264572935,6.752744622968431,5.250619040532786,3.824783378597069,0.2070428791206939,-2.559499100359012
-0.9289260894764676,8.066738982496709,-1.309561582947886,0.9547409106463048,3.614481470797536,0.3319937240859014,5.881784401789923,3.29309188717446,4.042302561526695,4.493612521205607,2.215597332629466,2.0383837757555625,0.1522133600318227,0.8548114980692716
-5.093149782385371,11.09664172289268,-1.7547772755283368,2.846356261532109,-7.021932971725555,-3.353522350072877,-0.3415580915423579,1.6048509362826318,3.7289948803142754,1.0108268616517877,1.6896380306695562,-0.0766462926355289,-0.0133532835558281,6.402858372524833
-6.870816998124777,12.76968592628428,-1.724065714900668,3.236799667945567,-9.373543665306984,-5.176641457407425,-3.9403551893204503,0.3290308864632385,3.3569672483362205,-0.3427399207398497,3.2224791772443826,-0.5081035506782308,0.0255153367656113,8.891954592144392
-4.19932833872517,9.636120927652716,-0.9040334537925858,1.7045499831672866,-2.7922900696849142,-3.931298885951354,-4.649059829942286,-0.916821639037298,2.5932889865669773,0.7495325538903025,5.480834728987482,3.1933303530846504,1.563915471938559,4.642780549654178
2.5321836562493907,3.7097924363781103,1.2266176093338466,-0.1143195170772786,4.41726940236254,-1.3748403646594147,-5.79801502067482,-0.4634424872101372,3.040521255021559,2.4807965000453294,7.119220505142042,8.840761180268661,5.326153254304941,4.575964354259556
10.424479350854314,-2.510486246408385,4.470903562263528,-2.778398114615982,15.360146864191467,1.9311252625300843,-6.284082784987011,2.0402990207733,4.707234279836081,5.759205529393685,7.345353488365378,14.969968971858316,10.00274123735169,4.034229089133399
15.697766459751978,-6.351628552048608,7.531112067665743,-3.558875946013797,18.67145712852577,3.4041244956840835,-6.671938322127949,1.530149798607194,4.549552646966906,7.1279785998793095,6.230311582711488,18.518524423850323,12.69515980070948,2.674312899223919
15.948434631706837,-3.678426791065253,8.791481364237374,-0.78199764883234,12.650713455206938,1.8090328337493689,-7.31327864653642,-1.8638711277581217,2.693634490403686,6.256572412979334,4.748164703718951,13.094332672051506,11.239744522430613,4.172398559069992
11.528062018913982,0.3382026888302391,7.651084416203492,0.6733648613060188,7.791375654239125,0.5327343366543597,-7.657297045298736,-6.4320373217317375,0.5375931663402113,4.899566335617076,4.246045278538928,5.006850579083693,6.306851643885057,-0.2616601557257828
5.136156610796922,5.066827616726678,5.14528567652858,1.9930275561255988,1.1560122756379476,0.036687486182391,-7.955662457002583,-13.329773241151628,-2.556838771660703,2.1203762898400558,5.320094180140044,-3.8465076908031377,1.123650524008001,-5.811985959342373
-0.0452344751334035,7.756530323059907,3.1977217609630118,2.370895561856344,-2.2008968222716967,-0.3375582275464995,-7.378375478044357,-15.962801703032898,-4.157926160630518,-0.0941356447974693,6.886016564924892,-10.574220762210125,-1.1346964752421496,-7.906399646079506
-2.3196558008208594,3.1264992320402563,3.1082867356835733,-0.4162338573586179,-0.5667370258517787,-0.0067327664954529,-5.845085262640013,-13.8253789355372,-3.98108860325604,-1.5962559982294264,6.576338566413424,-8.062524233527085,0.0481947641180209,-8.996523091981524
-2.1516866583964385,-1.675269134985744,4.590472074941468,-1.2583979262640004,-0.2769267186039638,-0.1631472810445215,-2.6710596330088108,-11.65615389473685,-4.937704450392749,-2.786478063527639,2.6693996417912658,-4.156214536198413,2.308936995669113,-6.22931392927663
-1.1946028242775224,-6.9538197485003845,6.164636037119806,-2.0156020838641737,0.2770301615122564,-1.3660029063986865,2.481442101313704,-7.856342732057127,-6.511826737673313,-3.1070797038084117,-3.862690452085799,-0.2758778395752466,2.698372459748251,-4.835264626451411
-0.6400235275163304,-10.934845519149818,6.490008075608991,-2.635950507774916,1.069856544067096,-1.6413132734890958,5.026977004342339,-5.155784050713033,-6.834708729778858,-3.612533170045745,-9.248680347525724,3.265059155323507,0.3054527189341556,-4.9793053676657735
-0.3526201438846055,-6.619294589828503,5.427295735093189,-1.000789849292838,1.3165329332015965,-0.6717112208388891,4.88210801122848,-4.230667485761302,-6.223972340352288,-4.19892735896392,-9.466563557566127,1.09483777041864,-3.1251675534962544,-2.731059220688242
0.5444737918285707,-1.6213489379415038,3.951377116322048,-0.4880848276194936,1.3022943524158008,0.1193313087780473,5.662383435561416,-1.0858429390299984,-3.658167013289443,-5.782209804120631,-3.69925470697944,-1.081822366672999,-4.921833329785647,-1.0792229157332165
2.333614303801575,3.468955321038843,3.1143285638311653,1.120779062970729,0.675672766721431,1.8397660651429928,6.420609887467011,3.611444846371517,1.3350534729655468,-8.667768877282594,4.323889401140262,-1.9203531919901995,-3.8166433175180288,6.106677669092438
3.9864656312841222,7.630482205196046,3.0644324049500327,2.749610094988651,-0.3480037260171426,2.822724285518944,6.926460661561102,6.645558767965848,3.492922638691192,-8.85143246139592,8.695871764648704,-3.331381530537775,-0.8646984153083324,12.610016979000674
3.7998852560924057,3.2541246637941086,2.972344657632469,2.239091270457073,-1.90306028804675,1.579032652394389,7.6271867001939455,8.395432276725758,2.815277470289787,-6.347577243795209,5.821365331405197,-2.2793320267655384,1.5622963207294625,10.521140283301754
0.8234998503044935,-2.3288255830935976,1.8388845289094145,2.9398486155103494,-2.469336247745264,0.4948891274896347,5.946399544211388,9.234117224594884,1.6626729291458742,-2.043503068199191,-2.679757758831016,-0.8681845831412227,1.593884144177455,8.739215837083176
-4.194863680174848,-7.54608385635046,-0.5914063245482613,2.55646368397112,-1.9226866132440048,-1.9598016022472584,1.765757805282931,8.482694012667526,-1.177725623854849,5.071324605698336,-11.25056982351476,-0.6730200044430215,-0.9834041060922978,1.57924844000249
-9.152458224397812,-12.156640349788711,-3.588650317176924,0.986764616512484,-2.5225086178153937,-4.093051070384695,0.1591942699154718,8.214735280662667,-2.782902171295539,6.128731223124423,-14.855361527491365,-1.202663758608327,-4.842616978076993,-6.79129759773107
-11.926012783627398,-9.243992156232936,-6.011690790621415,0.5692526423543294,-4.009977387018075,-3.008078244605565,0.8787724190784515,8.378626557761125,-2.8810219810434523,0.5424857303434355,-12.76178713484128,-4.53398049505383,-8.108821430458082,-6.480412228800892
-11.683992434728028,-5.369838925057516,-7.1867239614360106,-1.208735905082415,-5.582238785911036,-1.167409824533974,1.539623499690591,8.810083436210695,-3.5784909353048104,-5.820645959764657,-8.426397472561945,-9.164426404569374,-9.479426034570167,-7.393684419147534
-9.327548200698388,-2.326757546742855,-7.406457645182144,-2.6642122144436966,-7.637619681624918,2.641322035873528,3.1738520979271785,10.013653405104996,-4.172284529935452,-15.134262024033106,-5.896984002069042,-14.21220628235411,-8.937779828334318,-7.291075660257908
-6.906561891425847,1.3095965157680562,-7.6984393877481665,-2.173487192854646,-7.414811608224907,5.885298776668832,3.1905009302596423,10.262280131793156,-5.401984593339908,-18.60062685798785,-6.322142774000174,-18.013365223162573,-7.799204055309902,-2.058037725646571
-6.448934749588467,-0.7230455440199838,-9.03220832702111,-1.865570523655796,-4.61947235102667,4.454490575910224,1.2305999088369106,9.617460486511128,-7.521597684585011,-14.933808750251313,-7.793254328881812,-17.75656138032894,-7.997440402356926,1.9315672699552475
-8.836600728570952,-3.4596256405178,-11.500329212228824,-1.8845839447657888,-2.743622323429074,1.0526819360267448,0.2620666858857198,6.860452517857783,-10.622841559776196,-13.39331822615147,-8.250987651407332,-16.781358319034528,-10.823233228756632,5.704901477504769
-13.26594113943333,-4.18218843534446,-14.049191381253149,-2.936099284197148,-1.2219532284366554,-4.331223503435261,-0.2942356678153476,1.4392463112215177,-15.035312815898534,-11.828990744462205,-8.132410668500405,-15.349429668423069,-15.818628580320931,12.295350580290949
-17.587491951716647,-7.289140499871283,-15.02792210387302,-4.311007586751796,-1.5411420961754532,-8.031288899914003,-0.901991370211528,-1.9002060101343683,-16.87132941137379,-10.702606839631851,-9.908158890324536,-12.82499550446239,-20.743682963015665,12.364444572592944
-19.42445270636882,-7.200077050876145,-13.291644019580804,-3.753874440366253,-4.49859495927727,-5.592733969839346,-1.1225420030557405,-3.3235411971022915,-15.95613901636883,-11.375708313865625,-15.072022127925235,-11.893196066016037,-22.946651273652638,4.592157545920996
-17.491356389021536,-5.5848025970876165,-9.134181493785178,-0.8683015886623298,-5.4535352034617794,-0.920136930248374,-1.7528295830032363,-3.7940103812360944,-13.474765678206309,-7.400353679234234,-21.875487162621337,-10.426679781195975,-21.29815662260055,-0.762080742687566
-12.29260018723138,-7.713925339775461,-4.314583038733591,4.525713992923572,-4.774426447264844,4.558030630672665,-2.7815161232183816,-2.198266081073496,-8.373270009434838,1.0798906898333342,-26.30803413375365,-6.85548343512226,-17.118147389563052,-10.822827482260651
-5.710482408767032,-4.986641845616751,-1.0147976278508644,8.504067996077579,-2.935161489850408,7.50838178743419,-3.5221646699896807,-1.6437481523183224,-5.020074796662206,5.334011414888844,-25.4255532138315,-3.832287382446415,-13.143964645794732,-16.47016274463464
0.2205674784185589,-0.5832813185522749,-0.3813761295208095,7.850371090150776,1.0714839412985957,4.6662121428833965,-4.10120435864808,-2.0933692518529257,-3.5883715250591712,6.128966320702142,-19.72538000574075,-0.5143193735786722,-11.249280480959722,-8.966770529299213
4.426562775893505,1.433264679203481,-1.7138268443872384,4.798623853380806,2.764305535260076,0.6793147292510747,-5.038446740179063,-2.802484176489693,-1.8627906529343952,3.602814129151021,-12.31368818975626,4.42761317888945,-10.860937984515342,-5.028731793435205
6.988905346806398,9.760354203115416,-2.9539411976102983,-0.0717050793479338,2.1065116246665143,-2.376829050649055,-6.266274765454508,-4.494447760361823,-0.8919675002742717,-4.25052219027679,-5.895975326939208,8.661485189952465,-9.548018427382909,3.470102311894493
8.440490979182421,12.88738650497583,-2.1620227672241263,-3.9054998994675993,0.4614511610405084,-3.5165932649021654,-6.72199287837004,-4.390597589898497,0.3854938810534525,-6.603793236165832,-0.7036085982691311,10.820341969798584,-5.346730893477037,11.158171933923528
8.97511557943622,9.583491102411225,1.1015837696298405,-3.387447366763883,-3.263228277682633,-1.7651073328845817,-6.40939729101105,-2.4067206086155517,2.094739170414593,-3.412627912532765,4.68882868219762,11.61442913877691,1.2351779074396685,5.49495568467335
8.394513414269188,10.448120530896384,5.506503425068919,-1.415408102743052,-4.635682458122817,0.0334856264745139,-5.648142281863108,0.7946804632611549,4.068811478101448,1.1075693294611175,10.75338212162938,10.658301142642005,7.354814590705894,4.1239098602822
6.813531385303417,4.791988444617383,8.96335196482513,-0.3287705919671968,-3.4416917272108623,0.2387251519746573,-4.171848749252291,5.9402373450181525,6.611634524183461,9.495519843097489,15.508828726212538,7.6938949933435214,10.025191200489374,0.6371784198934549
5.295092542777725,0.6473068357125262,10.131584409170806,0.2401445196443273,-2.888489661928153,0.0696102945876594,-2.228166741925558,8.051312334594869,7.785227790272819,12.552470888101382,15.878983356991224,7.969090866371424,8.46807626354501,-5.037929446351821
5.541583365356164,2.8068558169968894,9.30859989467588,-0.8369586960418763,-1.9900976195762912,0.1744405246439254,0.2194246274718401,6.847754702277428,7.5223357791942655,9.598125328876574,10.783754907074162,10.558155249940116,4.667198638883999,-1.3226602227097295
8.638322580218619,-0.7382181272608632,8.085496255869405,-3.506610830502032,-3.151560543510829,0.1552720991956252,3.378185210604045,6.146611627551921,6.574737022125247,6.753999143722621,3.0369985286673824,12.03736386623031,1.785040176116638,-0.4292027176883132
13.839347269722268,-1.5935492999483074,8.073129161400132,-4.0670120825797325,-6.948627157514265,1.0998280596401004,7.233006957218834,4.816743327324766,4.451375877544104,1.79655869924843,-1.9726686355857588,16.24477314192008,1.860358153124128,1.133988605595319
18.546890316565985,-0.6083842745944489,9.650978597343032,-2.650114432027264,-7.257082263784183,1.4035447694968748,8.287943895970608,4.071361172439981,3.7646055476395386,0.9459174847177956,-0.0869641121337672,16.86928250751349,4.601559884875742,4.964533516061097
19.74264599324373,-2.4457210672582343,11.634479223027991,-0.8699704939004405,-4.404746015092142,0.2076145319577953,6.234401644612981,4.448909955708534,4.711211321704766,5.26139922279911,8.273861926510934,13.23088316293716,8.007231081897462,3.613754634117603
15.934225800700313,-0.60776785508064,12.085971902588447,2.441582307962456,-1.6178462457530574,0.071239508530215,4.441879052197937,2.7897523270717577,4.862499479558004,7.629023454659829,17.981846714650057,11.794616646029397,10.067755687832364,2.8476824410812096
8.225493850789956,1.2422600084654418,9.690965608199608,4.4130287822919945,2.2773697335791567,-0.5106073294406579,2.099071183498745,-0.6356861701044828,4.791505628771765,9.564628393406242,22.615688569655767,6.462721796698889,10.115984517752956,1.106598376052736
-0.2298528412083529,0.6679175715521004,4.74431111820922,3.32659322926335,2.804688421264361,-0.9927550822632036,0.48437380249637,-3.8682886681772,3.283891048623336,8.426768360462566,18.96309617622232,1.955660412135516,8.866499753223387,-2.627388307955421
-5.973041425968128,-0.7596771531937914,-0.9332435173427936,1.65381413872581,-0.7479998776613609,-0.3930468192556178,0.1984025003579499,-7.414421424296701,-0.1312851065116833,2.8596704992026263,9.228550118162266,1.7023584787917974,7.313864915192732,-4.884781221524377
-7.042313773023722,-3.6429941955286047,-5.0931452172961365,0.3273698961832347,-1.7287040684479198,-1.3621806044306115,-1.9418708134507672,-10.46816261442889,-2.990463074247286,-0.1809941952818435,-0.721929593073277,-2.18074520648032,5.591552161323094,-8.070391328617305
-3.8380615497061727,-6.9526959295196775,-6.431365838232424,-0.0841735133261252,-1.0615034993866002,-1.5435767430033214,-5.5999581793695485,-12.672921743046109,-5.623206304548018,-1.4243288531700344,-5.677795984330707,-4.65036134442856,2.922070877630496,-11.637543930623435
1.2535546789201204,-7.764611259037769,-5.314253100336769,0.7378473828648074,-0.2637785604465764,-0.3117486262373619,-6.048006755006439,-12.072358797213102,-5.4738911110881485,-1.3753782903513532,-4.575601148252998,-3.8921629515137344,-1.186722731858607,-10.325971974756392
5.14139847308965,-4.730723686147192,-3.385264252847051,1.213608773294217,1.8159441440328057,0.3487027956921463,-3.4734218624084967,-8.058771552371807,-1.7974790420635869,1.3883786031729266,-0.5231630460429386,-4.47905401380018,-5.614500812712356,-4.210569830441407
5.573727412332191,-0.3465416911134759,-2.3536825218192927,-0.0670906677178951,1.5753849018150952,1.6273272663347875,-1.0199551018338595,-4.775088169621788,0.5793481102050468,0.6564270736703509,2.378684661046133,-2.528139106200649,-7.685903055434389,2.526588997048344
2.2502047906756903,5.26329774069973,-2.8366462252590416,-2.180478864148577,-1.1680112344371654,1.5418504158495747,2.224673400011381,-1.7355366082475578,2.286987006653449,-3.5745024860235928,2.51303845069498,2.0624018721392487,-5.0507829325765385,11.803881508313715
-3.069675129504027,7.416335594595834,-4.073783145554213,-3.0686607175497764,-1.6034866075832226,-0.371448625514196,2.844805170799717,-0.7691594351949272,2.2520378415420423,-5.156804535257586,1.522189127434233,1.584440806169174,1.9766046907886456,15.464451719767672
-7.620391991222958,3.535227203239581,-4.67968106450706,-2.2660455603743337,-0.2982995861004788,-1.265399361422149,0.1179815490011971,-2.9222833089768474,-0.5971988188410335,-5.137637155405207,1.9190220415749604,-1.56060125797862,9.80395370536876,9.77335794439033
-9.307959844025708,-1.0903002591672275,-3.8176206046201857,-0.768463567800743,1.655293839648277,-0.9275315382909398,-0.0882991743906804,-2.0544860161523597,-0.4024524062205012,-1.8998706665267304,4.000097434995348,-3.893441583303765,13.664944506679875,6.523650056603188
-7.926531998842117,-8.27737452364837,-1.8834771523129212,0.756636949740973,5.163492611441832,0.7034711367264126,1.5009398944749013,1.3783891176449246,2.55570898571556,5.85142005765902,5.178873026324549,-10.482593852244804,11.073611223631127,1.0860114386172213
-5.031557030919021,-11.25958399518216,-0.2125577586800586,1.086161424478917,6.516004274292816,2.5223656734746784,1.2293016080891463,1.7724202209482591,4.197226729543466,8.480925680172106,2.569967125337795,-12.860323499021764,3.877457348900176,-3.781951831236407
-2.5952123488617564,-6.693459631600995,-0.1097275632141414,0.2411034312403018,5.515029145075962,2.311872456178085,-0.0790954586908833,-0.033492181183489,5.537442986228068,6.141224235987953,-3.544821484664059,-9.750809296914571,-2.8671985479236746,-1.8752326177102163
-1.5887785260462817,-3.0602957767369223,-1.974109306259629,0.1230985874370469,4.668398939020487,0.2331204612481243,-3.0764149066198367,-3.8902264031127207,4.980010997657925,3.9540876990253495,-8.871181995342013,-9.287431640244227,-4.42305462534992,-3.743710721658315
-1.679352221709841,4.100881851367235,-5.094352108732457,0.6076596757458992,3.121511469489389,-2.0719466209777595,-8.419594303796938,-10.898168810432622,1.7813763187287817,-0.1116781811758707,-8.214245482599852,-4.704537205419428,0.3742714313961173,-5.321405519969858
-2.153444926906242,7.675672645135736,-8.09891928403657,0.8925023160083407,1.873009902290994,-2.6692969419172123,-9.82552793679496,-13.595338848294713,0.6415028234542317,-0.7660233457253917,-0.2020816276446986,-2.548396418233924,8.487163500401412,-3.5497432937692106
-2.9872958907668217,2.948967014969025,-9.64593759660326,0.9863110398588756,1.2332166918340628,-1.1246326679850989,-7.16733545878397,-11.76079715381624,1.218645884057244,2.821989374661043,10.572992803585493,-6.42676368118722,14.91060252812263,-3.9684491687173167
-4.861568602126635,0.5563423241912719,-8.989912060760178,0.5380321313511511,-0.0851271006583499,0.8665326299782741,-6.12017410333252,-11.057461479149698,1.2194414732867964,3.6024242617884545,16.32366935659163,-7.13184236403782,15.967958397605903,-3.463687360060193
-8.036269768084114,-5.21402245296305,-6.300798674368759,-0.2906214335523879,-1.796491075448581,1.7894836677048864,-5.462160929457895,-9.897990835984428,1.4981648479637957,2.715201229384706,11.91302582182308,-10.917767908981178,11.40668340392019,-3.0128270168540694
-11.264974946104648,-8.188878048657823,-2.671942217180188,-0.6569069099133895,-1.838003451509192,1.0468810362388932,-5.321662909151621,-8.919602311470237,0.8440851997759047,0.940866719183138,-0.8852881607329923,-12.605428979116692,4.17969280915348,-3.525357658653133
-12.055618259492352,-2.221058678373593,0.3176467115982717,-0.5618363351849484,-0.1815867115664648,-0.4091192812301625,-6.602394172069642,-8.862191177848853,-1.039747290437899,-2.9310461695543983,-14.275832412812086,-7.757461502763818,-1.5736095693943462,-1.9797536407516536
-8.391571111577226,1.5221821725697544,1.4693120324914677,-0.2898677349091081,2.672084317704055,-0.6458536303267978,-4.06866299263227,-7.118622790276275,-1.6050405451886145,-4.217236171471346,-19.876386708513216,-5.230229905015082,-2.88454404137741,0.640664136286478
-0.6018612941449692,8.34806972026783,0.7990303647656845,0.2026319435105781,7.279743611806648,0.4291221616740767,2.3231997642293947,-3.9483991589423058,-1.059453651364816,-2.854449842320642,-14.457055761405591,0.4232483679193299,0.6840527110497092,3.990908551102509
8.256033775965212,13.23723660984006,-0.3731762074710509,0.4375972915010729,8.44019598655353,1.2817373434326305,4.908901199853923,-1.796005979414685,0.0032013951633914,-2.4807445681347198,-1.7005986501164845,4.788049788802677,7.176474840595757,5.842227011571394
14.041020537643758,9.612639326581904,-0.3654326079101313,0.1437316964583808,5.796332838891974,0.7542545339968552,4.352723494042118,-0.3631805102265152,2.1051039980525834,-2.175428424887504,10.918660923635068,3.4297670445226416,13.503328033645731,5.2127501027558685
14.140856513323463,8.133814256264499,1.5153591498979804,-0.5181986356126413,1.9454465487845627,-1.3014523020154047,1.395006888401695,1.6138013485149378,3.258834119327321,-3.31525586548176,17.315702929649483,4.642504654155826,16.99497600559014,5.978281407568992
9.198135414495969,4.284612070466849,4.3539218519960805,-1.4409096891231985,-4.483340539268336,-4.045860686158877,-5.658812126061105,3.7369347855714192,3.3813833841072087,-6.535259286513597,16.179867162572513,3.6841263322031783,16.50456262992755,7.219087985586272
2.7079561438582065,1.2458573971466094,6.359492050511083,-1.7567006064516002,-6.063274021328437,-4.6941028264686135,-6.281091408717586,5.335437979553071,3.776427375804366,-6.39609238246254,10.71819039206902,3.234631515332185,12.699820024167703,6.612167056921939
-1.2398615785469502,5.028823398346078,6.3891391612103625,-0.941934539382992,-2.099038773390094,-2.407619838152684,-0.1162737718778787,6.481763350041546,3.99689400819148,-3.044206923385515,5.768043739631832,7.076725234581378,7.567395453640866,3.838838970943474
-0.5187295516172536,6.408006824953736,4.95214783261865,0.2378239371195864,1.2126228631156326,0.3950868996126836,6.771421857209789,7.682266323877172,5.134530962334719,-0.2755696327385308,4.644765901584911,8.534379908547338,3.3973132371564603,-1.6455725936076044
3.882042517682741,8.954049666166604,3.807988085869983,1.6018944381212623,5.652324803333843,3.315877893624701,16.838114576310918,8.823768331153943,7.408903042320017,2.9333744526740007,7.488593330833954,11.287907066106044,1.666724993255924,-8.926217503924795
8.775652474381069,9.534675655213086,4.485119169473631,2.250865536111,7.004299837375218,4.29221186974897,20.70073980313181,10.927186295350577,8.538972449978687,4.687813336697054,11.54441166767636,12.871030274266325,2.3369897128461794,-11.83406716171386
10.983104260824614,1.8079669289779567,6.954893798974661,1.6039565305931656,4.142494984871432,2.6079119817363083,17.10820496322361,14.178539974120149,8.70110053100656,4.3040791656077575,12.930618878246172,9.830654985743788,3.9850745380393295,-8.717437197434293
9.23277845254821,-5.44537598996037,9.534067407131744,1.006443730387165,5.394803331415147,1.96414071782912,14.722849731215298,16.4977526625491,8.990462752282774,8.244195466222461,9.071941804893678,7.868836759215326,4.773572331492247,-5.715533265153358
4.54951584692658,-15.106459670045597,10.07055419838273,0.4906620594228125,9.87459528476644,1.799843563207307,11.201585192636102,18.05821351429988,8.990103693048036,16.29853234630238,0.6281504025207845,3.767972879574853,3.6853110646758367,-1.9664242384324588
-0.8491893449858452,-20.824638125883546,7.482671320669766,0.2179876155518422,10.0614191655589,1.2903334325107851,8.681713570609409,17.99299157081135,8.505300933922879,18.099510495827246,-8.389106809809059,1.086642126749335,1.1718919835083366,1.1999020855798368
-5.076016041854283,-14.492644293776936,2.5199065858299683,0.7446771677959347,6.961645806099386,0.9859893201431316,8.42116505389822,15.736347568219353,7.593775187688348,14.243090968710106,-12.84463756746197,3.727223916697036,-1.2606006434065955,1.5414115486611704
-7.369973583865313,-7.604694889059683,-2.737034517996653,0.6960188229909537,-1.4363512823016182,-0.8558833552122803,4.84905399162268,13.666461897557102,5.058637336334418,5.890253182445088,-9.88776659571224,4.936049331375631,-2.203326485990555,3.3832243285632493
-7.881804573521622,2.993372380058836,-6.1889123745513,0.1788496375836718,-16.91770769755786,-3.541090564917485,-1.398365920854716,11.470062114945495,0.7357643563397274,-9.419795230412248,-1.1018771768137627,7.961167737758437,-1.3568187862183212,6.097991137167586
-7.08406752009825,9.840472603330571,-6.887510136037024,-0.4425289893237484,-21.01844758496489,-3.982148588861909,-5.1436556563176605,8.522185658524059,-2.380847148528836,-14.977610795076751,8.389884731228234,8.206685113847398,0.2893491563947545,5.576579595017518
-5.554278892543128,4.388679791101267,-5.3413091713335366,-1.6859073704913718,-13.374609867101224,-2.205362570522622,-6.997097388578231,5.221450057826199,-4.409979467725874,-10.11339436645548,13.258259409136755,0.3351274396462069,1.0987514864843018,2.915603447085995
-4.166283424938726,0.0584012848896176,-2.94483399569312,-2.8119109334089054,-4.647071560930772,-0.3407517115661463,-7.338357604883801,0.1611193160647528,-5.817589303440404,-5.938283071767631,11.116687865705297,-7.037833510526783,-0.3019059230929342,1.315557985979662
-4.049505834533344,-6.967211865358413,-1.0941988735463042,-4.235616137052451,9.375782420196208,1.7623238787145623,-5.071821628823121,-6.766118974435214,-5.886412446034486,1.3637820703091816,3.191767342575885,-17.267345625754714,-4.378875065162599,-1.3827413601051266
-5.869292790248823,-11.105811509246768,-0.5795507663425745,-4.373293541614904,13.573977170176828,2.225945239002554,-4.262974385061872,-9.469738179150982,-6.503570494238766,3.053221611217965,-7.410847529986831,-23.71669769595,-10.483845054831216,-2.2522982862599155
-8.921219703259283,-5.69102426554849,-1.4408317970016356,-2.16372691216791,5.817070406281947,0.5688024959533133,-4.84007597654074,-7.760619352332744,-7.590502804010015,-2.681597227693317,-17.76860964360742,-18.86243763199971,-17.01982907380163,0.2405543115846844
-11.146812307904128,-2.580242233775053,-3.1191902652186574,0.8954947714907799,2.2352003733072774,0.5459722581455587,-5.849274424979552,-5.251724529040261,-9.236287253989724,-5.388879964333369,-25.759178330066405,-14.315181539130926,-21.927738626103043,-0.9501531224011436
-10.557954266161556,3.067782467312032,-4.727467926333882,6.059239112017737,-0.7773734405177867,1.0527226521013622,-8.242400021802034,-0.502190188983416,-11.902074727656656,-7.304012384335366,-29.506767936112404,-6.2610587458768245,-23.445507796103577,-1.3408859711946557
-7.089077593217374,6.351259512692524,-5.428997626749413,8.42037622809236,-2.588854757253307,0.7423183013217621,-8.442832098571063,0.8542855734783344,-13.101426391428651,-8.149859251642702,-27.322941647101807,0.91547997852307,-20.90843606150956,0.2066908177399739
-3.0787156197449947,1.8738080316497423,-4.897277821293639,5.004532526008605,-0.7603836420580014,0.2179024826270835,-6.354203880386616,-1.9459971781037684,-12.862812477802567,-6.321955002624945,-18.9993917972692,-0.9098949581489292,-15.198803691625844,-0.5529749047845335
-1.536396412082074,0.1289191404216464,-3.59879992852834,1.0346604611999228,-3.6575011639021984,-1.866703864303626,-3.5674765746371464,-3.924525589799888,-11.584344975156512,-5.448022125601549,-7.278438724416523,-0.2958905527029683,-8.572156484854206,0.3533384994621777
-3.4460026934271104,-4.547901314990757,-2.560070906804866,-5.560517510403693,-10.738819457015676,-4.2439393197797,0.7688508621198806,-6.519716051149126,-8.646421137301228,-5.011414147141412,2.554203119164013,0.3788420216599305,-3.893790027164512,-0.8813692760578359
-6.5709384189346185,-7.207972346864133,-2.6226090817087906,-9.263986867200078,-12.131947680301272,-3.844291283463279,3.040851898996655,-6.015559676119477,-6.909595124730938,-4.063548080384925,5.570172778125664,0.0669915563128457,-3.508824009845884,-4.176112870065705
-7.121644367538244,-1.5163069644644982,-3.707326065688336,-4.8259953043639285,-8.748250690693123,-1.138170328938909,2.91997251747662,-1.4874237184638543,-6.428001927388729,-3.1567490492533823,0.7365744625102062,4.656677982081456,-8.015573445187858,-4.414090972039679
-3.0213289015010005,1.9697026954756809,-4.731453214119993,-0.9556078401999756,-3.757563976904318,1.199299034699587,5.060789979028505,4.1365492110404825,-5.516182625633267,-3.2383368912549715,-7.842266759147503,8.482342049887954,-15.41354017807376,-1.6937272025817416
4.144482398920923,8.080728695592528,-4.325500080602311,4.32572112068924,4.790489044438016,3.0622552068523925,8.779633518123651,12.059357688515412,-4.806082545812519,-4.430763225364561,-13.40150281403847,11.251750448817964,-21.43709097855346,4.83734013114767
10.339144397977908,12.199609319865845,-1.810747006615388,7.786930205479531,7.552233010581732,2.818746010511384,10.397307966012493,14.821685617705056,-3.7851062293399034,-4.488912981562737,-11.205807806640696,13.83662589875669,-21.69844803506937,8.94241273812371
12.38662600100304,6.945473148232413,2.319708365665916,3.6574166817807,3.7464655786630665,0.6603032885931885,10.436779598521364,11.562344056517594,-2.290232884353216,-3.542884587817028,-2.0385321820520828,13.659749114347422,-14.977960890089491,6.231659652116632
10.367015025839518,2.81467183213575,6.730741710628697,0.6592301623596382,1.0694069594495372,0.8580013998565383,8.003311966610816,7.983711043313844,-0.6883404182053395,-0.2211873436969705,8.192217057519098,12.543717371871915,-5.345417821871189,0.8628848694789609
7.011427358678747,-3.6305815696486254,10.04572746519657,-2.5759184478926302,-2.6656882341045347,1.679968995570099,2.2387440306782644,2.1428200273697344,1.190618180111039,6.167799485769332,12.55369713009144,10.678019799814871,-0.6251907176745455,-6.574167413362034
4.926635202187296,-7.47925345354062,11.510193823328358,-4.992862493736611,-3.488545661747801,1.6406730253970574,-0.4259987278557461,-1.8999720060852996,1.1344446347804442,7.432055034671692,7.933900210845297,8.118367765062356,-7.1270965704643565,-9.23258785245672
4.48067875346764,-1.6754676683845124,11.172410710404955,-2.241688526454184,-0.1130056994226218,1.132907867346093,-0.0455368657018654,-3.2736195362272924,-1.083079150691988,3.501858041717622,-2.877891678468444,4.572670891446215,-24.07670061173515,-3.094862679527309
4.303296692825112,3.319196063010252,9.6560442208799,-0.4640947425630854,2.3004172480102394,-1.6434942696286607,-1.0638533668530394,-7.555649837942608,-4.0229383875433,-2.0468792999244885,-13.29016554266786,-0.6340569753521458,-42.498449113049546,1.1254862578380016
3.5452294780794293,10.898028443999229,7.777206181562273,1.5469206655758396,4.968089228987906,-4.281917031972927,-2.203612697440565,-13.772870637793206,-8.279253065219653,-11.153823339176956,-17.505814065588837,-6.609329184468956,-50.467567524186805,4.15263042664573
3.2089678293123605,15.494292158756643,6.169837424452999,3.375868645362328,5.692740762835469,-3.700830774144837,-3.876209720032455,-15.750364648252097,-8.851204798517642,-12.946871061458651,-14.226590994503518,-11.01275420605094,-41.44909943583316,5.190352307265369
4.926734848082741,10.800897622824056,4.993111975626078,1.9570289027955712,3.5523614857192443,-0.9375978746577176,-6.645579416517429,-13.823236213282968,-5.16932174541981,-6.412518328830138,-6.957503009489457,-11.994941212445267,-19.351257792927875,0.3665227693202761
8.449198847117884,7.4890127690989665,3.854745463474398,1.109379724217277,1.2768203082422869,1.930355341061564,-7.577622122916439,-10.376820715318765,-2.4754256468083518,-1.376383608836191,-1.0148610363202977,-11.528246910121869,3.971033860829348,-1.031105535220739
10.77985912983166,1.310713072247652,2.116695589262127,-0.5877966175589362,-1.9396446815981017,3.902277731002604,-6.748692877323705,-4.069480260142787,0.3923009451464299,4.691162215935452,0.3818835869740145,-10.05217981116678,17.115614959980842,-1.0582347329364767
8.444520343989502,-3.22107508099502,-0.4800797254086841,-2.594345408570333,-3.7360702466771065,2.9216421958978227,-6.339022906375631,-2.0984076828850933,1.7216767629653054,6.4945677627394325,-1.838946024971186,-7.407507297017053,16.98963269143731,-1.6470392537494671
1.09581274755344,-0.6065515585556511,-3.3246289412398955,-1.68587547254493,-3.605033135962396,-0.0957581000683498,-5.818809746543277,-5.124303415861175,0.55371786922414,2.2197069171641224,-3.676397054099592,-3.989327331411965,10.112743560195147,0.0746890036261078
-7.13913616944795,-0.4564052433692458,-5.128209589898059,-0.6315057735972869,-3.4939847735614453,-1.1465052768018675,-5.4700588677816375,-6.429711193230402,1.9199520758496136,1.8143512893015776,-1.3207889327261917,0.701950423415129,6.69674649421907,-0.2125439398609756
-10.387016865791152,1.3779322979249016,-4.850332900744679,1.4738872861738082,-2.6882380858525643,-1.6256604901570055,-5.635214210511434,-7.658804135676275,5.364115605709687,3.897498078102084,5.803515093565226,7.609060197872828,12.551524607470162,-0.1868476061876027
-5.792944907606577,3.064939959304001,-2.650358173972455,3.299953225943395,-1.0957975178239234,-1.293052415893415,-5.18732724370856,-7.578148874292302,7.942200806816107,5.584136794826155,14.474982835015329,11.89810702642472,25.23889459703747,0.5075580093030989
3.9089643361138,0.5871954071487194,0.0736503174399167,1.3084219281948906,1.1770386597196694,0.2646372508840952,-4.260504517490016,-5.143076665450244,10.459369144456376,8.49891965855951,20.098622818280617,9.797822947973362,36.99986246627195,3.633531937141665e-05
12.457798586824309,0.1638215093125832,1.7767150630429356,-1.6843553991133602,3.225310140005878,-0.376079972578455,-3.648413984415232,-4.564504318266262,11.862925082113758,8.952557142120483,20.323376768810498,7.284957779533922,41.35873614012775,1.2070971390825866
15.004061824179937,-0.9533309746515228,2.0858681371346384,-5.278768053938169,4.9539446924076405,-0.2670998051051358,-3.2086125155739498,-5.40942238551865,11.65624777414376,6.618446973054946,16.93049202799706,2.7232014147157684,37.7445732177287,1.5536871213189452
11.59955546662193,-1.952321842727474,2.068765333767491,-6.4410107551267,5.423297377087349,0.984820380097792,-3.109650237302738,-4.639914328637786,11.887660071069025,6.510336065546063,14.282144709943058,-0.9843081022485748,30.81868827611894,0.8107368941775634
6.41195044856849,-1.197182648287022,3.0844412773371745,-2.671436482307248,4.223482154389683,1.0316245196993432,-3.51661588793573,-2.8304220416738697,12.226268202384,7.99704463038602,15.503206580120535,3.1698080988733737,25.96029322351499,0.5557818722412147
3.821107175928896,-1.4324059784950365,5.268568961328917,1.0672555846720222,4.884376308574434,1.827167751967897,-2.941797681658804,0.7654295113198274,11.792155015449891,8.631748401215283,19.68852141825305,6.953514869623333,25.20029142831121,-0.6015434368749729
5.098675410857425,-0.5635311612675169,7.178482669492713,4.320717849318533,7.267378860044132,0.7850411619542123,-1.366984381602977,6.769611982672318,10.85822191313476,9.195122188043667,22.674828908953906,10.078307150353384,26.663815184742777,-0.3072117056933843
8.250917441883209,-1.0172223857553575,7.046657076378625,4.737302051455811,6.187858907683088,-1.8817304996954196,-0.7564311157659753,7.825200652808612,8.524878807626962,6.221114792628156,20.72924602126413,12.48159297550605,27.04494855745905,0.6569442197886323
10.36707013735548,-1.9088701086849849,4.4665365411401545,1.5975467544943902,2.0052128387211665,-2.64720784453268,-0.8918757877860602,3.712776814654925,4.592929148319225,-0.9177396182582844,13.80844766394209,6.987914974715084,24.342495584580977,0.2757789568255137
9.843344594317864,-1.6004542360242715,0.8351541773606836,1.6538769976269672,-5.078186530169054,-2.5293060463790065,-1.7671629149109471,-1.262956341191678,1.1033841845963075,-5.980944947594165,5.452170929426558,-0.3443181280154335,18.758029813620865,-0.2871468642096274
6.749909719588612,-3.632776290316561,-1.921472090693065,3.39732926584879,-16.29841835428103,-0.8815313356176377,-3.807775144165938,-8.820789792808952,-2.0872734535795963,-9.621154410501516,-0.4690942767704644,-7.442616221299437,11.872965523575438,-2.957804860833848
1.8549189430337352,-4.011588369020764,-3.100134263147802,4.363833203469416,-19.18521899316429,1.585056282262678,-4.020821783763821,-11.576676801105243,-4.383290567260451,-10.838154436130546,-3.073571213075324,-13.892273702214792,5.460936636470966,-4.774038681061562
-4.124924372600806,-4.946741700483541,-3.7394267268399153,4.12330110316306,-13.086636894201932,2.0546801697595,-2.3291387924037106,-8.552460170615783,-5.241376950691598,-8.17815627122133,-4.885547638732178,-14.672606485017631,0.7700242063548779,-1.9537152479167716
-10.364489711331805,-8.49618539607247,-5.439868808897499,-0.6534635484778507,-6.114374441606424,0.9587929633320093,-0.5568519672667557,-7.55083892452319,-7.947490440707452,-8.703503945278557,-9.157425405119636,-14.098849047444247,-1.839252463182726,0.2319112744587207
-15.550877314319695,-9.271974151723606,-8.686232182620277,-6.8837477081307,4.712433456472658,-0.3227232942390161,1.9729261555401956,-6.823182096504427,-12.36935601584311,-12.061218069883498,-16.606340887334785,-14.025746435083272,-3.055054597321805,3.7630220548987214
-18.190162074527507,-10.967595233026568,-12.27919892677746,-9.001172551845398,8.1317552078009,-1.1216815948018874,3.697892037244035,-4.427156816124716,-13.138791786496284,-11.540619980589245,-24.347131771719454,-12.54460095066911,-4.218854917054242,5.92233034831084
-17.556045904247366,-11.209057346090768,-14.324787184048544,-6.522207499362267,2.4372063145202434,-0.6629364682201012,4.334739488233039,-1.3110327975433282,-10.525295428210308,-8.165429608434682,-27.76653837278709,-10.516475936366724,-6.206195025976837,1.387352175640913
-14.399282632385464,-8.106983411597758,-13.7680897003814,-1.7621666106569671,-1.6195703097041887,0.9677810544700224,5.367231263603079,4.659060420098197,-6.2129500749229445,-2.4574530807696284,-23.76683511704673,-7.903185711333543,-8.410578673165784,-2.156836498277281
-10.704744843555996,-7.472820974699404,-11.12396364826054,2.6374086705731754,-6.929630755761772,1.7907579314287867,6.379057322205979,13.787654675020494,0.984319256925662,6.845900508112779,-13.024038908895122,-2.8612089327783607,-9.073072844134986,-6.237662921778457
-8.61757977286092,-5.351645046698016,-7.974455189401943,3.808773701793578,-9.202233455043965,1.3812173512789547,7.653938530246283,18.123656216776883,4.293608040092562,10.292266895981694,0.1477043979975472,1.288465352679047,-7.047029815142906,-7.958744652949783
-9.261019583418191,-3.816838957375355,-5.879613287588473,1.912027256786649,-6.704717264246652,0.432792487661464,9.387156032520794,17.577764267227657,3.2090500827899384,7.435216723937917,10.103053181328544,0.5451421639237102,-3.377307211461243,-2.9654166160937168
-12.142216683245888,-4.910844812982335,-5.575550629547438,-0.1677217324730727,-5.826823173129909,-0.8500574885784902,10.61223771725089,17.900154024463436,3.785834754858956,6.982385867909223,12.9168105699661,0.0706469016182625,-0.8684598327707622,-0.1901992338623874
-15.434717138542826,-2.4675329226727034,-6.7852620648061,-0.7690515340009828,-5.166488563876688,-1.3122385667189918,11.40157865061214,17.413623070304556,4.511884749425728,6.979916496199569,8.462312593408154,-0.6747618173393808,-1.70294711455227,2.280355008620216
-16.985785619886055,-1.7750153648182394,-8.447612256084991,-0.0335370575837254,-3.905268184057631,-0.8935414922187705,11.282586836501842,16.37989280512083,5.3994985322057145,7.61656471942014,0.3810308115283449,-2.8183428548824536,-5.283436242644189,4.032533174268373
-15.52809288185637,-1.7500591398702603,-9.15168367645672,1.4691276230434471,-2.873399876321721,-0.3378149183653393,9.985566949196096,15.47950888071382,7.264190816428296,10.221416136673676,-6.038526728048328,-0.3324176432932794,-8.478286266332114,3.215153633195711
-11.381699609617456,1.5276533268845591,-7.742903719169075,3.4972885616234954,-0.8939109657741199,0.2507260501373471,9.839952012270825,12.329245541059676,8.273270357911592,10.123540623472916,-6.853957285512303,2.912201469992928,-8.185179945747047,7.832951659420344
-6.148218820154296,1.218768062797487,-3.972085648610428,4.70927458212958,1.9750956796602592,0.4705226950951154,10.802354747866657,7.068254443580591,8.637107369452103,7.563286626982691,-1.5488934589832173,3.50335823823218,-3.8900317207361343,14.149958858491487
-1.5740988788745591,1.598707184249916,1.2164683332562252,4.076123529629859,3.6959331255653063,0.3673813194143209,9.766706815555686,3.399250769539477,8.090954692606799,6.810077823162753,7.0402476398669664,5.067814511729734,2.0511423597248992,14.347465608899958
1.5587832014183194,3.1410073141331467,6.100746363599308,1.7581464408418206,4.317948168118951,0.3074503281228647,7.030099186705648,1.144972505436336,6.250554949824534,7.1902934179016205,14.758513576384232,4.372791741322574,6.464781718815633,8.056753813477144
3.626109459619904,1.0596276292995892,9.096024071985749,-1.161565165526134,4.821113829265703,0.2532982220233118,2.004496302652264,-3.057715188982702,3.533541839399412,7.060022499877309,18.58570041944516,0.2763289748575201,7.705130408399416,-2.3473287401174607
5.315869038562735,1.175287882415836,9.474432150686766,-3.8858830119323104,4.759720615574351,0.7277174827898412,-6.07516771693219,-8.610198782405133,-0.3008984953378172,7.075501314706258,17.777825384803656,-2.0849465764169675,6.250060432059577,-13.510618843881108
6.553201538989245,0.976947512744851,7.380567402985562,-4.658154475455818,3.844834957609052,1.166047668312199,-9.8577988700743,-10.913860699221434,-2.9790317921836893,4.935822167639348,13.17325680024839,-4.202222277138694,3.3843925761288327,-16.564127757942153
6.243098493167171,-1.067267509418283,3.362235294873413,-3.2012757476629874,2.0698967878550523,0.6657684379027236,-9.174496637424673,-10.106254575251272,-4.304594584895206,0.2859317051921757,5.759894905911058,-8.975284894412855,-0.4051756727439217,-10.79258873944602
3.1772028181206045,-1.012061077852798,-1.9093640332777992,-2.677353424252761,0.2019215602142446,-0.5381204049728084,-9.257081539478168,-7.910300520307156,-8.089936410570543,-5.262208403339092,-3.84808441409108,-12.280910693244,-5.655104090888058,-8.303831026949206
-2.5901036789307543,-2.879042086574525,-7.424275958848449,-2.993245908384181,-1.7854986808424924,-3.191581255577004,-8.519223588272641,-3.2632614219627434,-13.988292214695043,-12.3609345893938,-14.500654627355257,-16.008866523855993,-12.64861279665348,-9.655484360726737
-9.081078926330257,-3.4498520663653336,-11.581548242055945,-2.7777207463029696,-2.0823750446758287,-4.882196069163485,-8.839762310816166,-1.3922539936706002,-15.816431869549284,-15.736831094704096,-23.421147754199048,-18.4048098751973,-20.060663952615677,-10.6643247714304
-13.15202980299847,-0.8529751727190615,-12.580383534274866,-1.6270680739565249,-0.3024373553207721,-3.192127749307037,-10.968341149164196,-2.7192113227768164,-13.801368255471065,-14.782944096777848,-26.75191739795721,-10.705904436168558,-25.04954661610236,-8.607386729132005
-12.290741785476534,0.5372014327427141,-9.466157289125736,1.1058457207651091,0.795446732291283,-0.2420215673325843,-10.0688162191259,-1.938882064826398,-7.998728178266863,-12.116026891703804,-22.05133608175231,0.1179069648555066,-24.96417400672579,1.167233944950916
-6.241599764499992,4.459766513597288,-2.997950278969644,5.383681282479577,1.654518751186925,4.28875979738759,-6.52542793001304,-0.164382075094749,3.208092743709325,-6.208832844987074,-10.78365148645565,12.006772334724376,-19.31291373381569,17.788972527396606
2.692946845110224,7.27158166126667,4.544513521253864,7.189845048217177,2.8146303036611093,6.684902214922112,-4.1210073596225065,1.1141592573939023,7.567168025127251,-3.130264685745081,1.7951710334595363,21.87743855718913,-10.332570412482998,26.100890932912137
10.90577726034782,6.778229626922936,10.609100944275593,4.616129871329116,3.827400917661092,3.7150938166455454,-2.1408785925276974,2.5784771350944435,4.713332426210971,-3.340659926921831,9.908041188488587,19.768272858541216,-1.655992718343659,18.68496399913124
15.46398642743631,8.4148330006491,13.736929403940582,1.4172702120617855,5.265271936103187,0.2217414911042702,-0.7385066276555573,3.408297497269173,1.5889921119717842,-3.7200952219985135,11.214736842345024,14.688191529935338,3.860631566606668,7.080438498473589
15.585092371264718,8.341185809640182,14.062973199146205,-3.181705545363784,7.103384059168815,-3.4731706418890926,-0.6017344507261628,3.4384688142816358,-4.664712540470239,-5.843480479681208,8.02609581192545,9.811400940416505,5.508850302837627,-7.653158990433859
12.857739077901783,8.039573497730439,12.798384556824802,-5.999239944204683,7.487312630200632,-4.739080734667401,0.0332907131107506,3.2623412689746534,-6.035928126139405,-6.268987752644258,4.7056681987924165,6.638788654934236,4.483323292195742,-15.172815132614824
10.283661565928494,10.087702269349553,11.349109122013449,-4.103848019135302,6.352079913088293,-1.5293328404181776,0.9456174110286298,2.6478777992073,-1.398302766542732,-4.685870145152314,3.763144410508,10.885373383592473,2.586138725408848,-8.64417915046154
10.72957570930248,10.043249142439452,10.758909515266964,-1.9481312038153384,6.477459561087599,0.447844637640044,1.6645829128730754,1.756878311198376,1.968054261637278,-2.047052773629828,4.343186136866736,16.039639738638048,1.1011437507420698,-3.3149824211289927
15.411265112850227,10.329622799983568,11.570368181507767,1.198948339285296,7.590772606944975,1.190851588875734,2.4792604473678503,0.6326361603643594,6.073889491263088,2.6204046436264457,4.298372578429442,20.613863018994703,0.5383364402400783,-0.9349829112756972
22.95389495727053,10.944886763795257,13.75914756706956,3.867596325765482,8.354635546629748,0.799646881578151,2.2645561531518075,-0.5466441832782386,7.78858192540851,4.6501153692808685,3.306323787062581,21.311538069919717,0.9722121825550154,0.0946551076138288
29.6009127035337,9.168933224519789,16.58080670343608,3.1655753026496827,9.253263702383329,-0.9133373388079709,0.927234944792508,-1.7031789999740816,5.944714754696967,3.8634357439194087,3.4569232062711475,16.76210224597469,2.2900811650438992,-1.2687091476606662
30.925450149254,7.708214381249609,18.625007540061084,1.877852949164439,8.105413318256648,0.229105783088941,-0.2400768017255214,-5.02588554286164,4.95629093219281,1.5117651772036482,6.579981219074762,11.789287482245102,4.094085120308755,1.0317754115209068
24.524808388478384,5.853864709104925,18.406213571929623,0.4282142902904981,4.574735492463781,2.707931394281314,-1.460058501415347,-10.643689887754828,3.8254523066790433,-3.643239091448935,11.312720584762534,3.3989724780020723,5.59926718917615,8.28649329634525
12.052560775222908,2.59092200023881,15.27075025865457,-1.1325940885130488,2.007734061831882,3.640371582228218,-1.7139697955531046,-12.925538226084374,2.53038944235104,-5.325709433153032,13.437252816312188,-2.516671388864412,5.908835155857446,11.13849344087279
-1.2234887504877463,-0.1649725872646685,9.886592602459435,-0.9003449980313426,-0.0330397074836964,2.7556021703417386,-0.6653544260440665,-11.976277206819082,1.685211831657061,-3.2528346404896187,9.594388480821936,-5.440616549643398,4.543616862680317,6.780611774705168
-9.608383189121117,-3.521898043013038,3.795361627836792,-0.3187902390782082,-0.9939115093683936,-0.6544812050624651,-0.7947069455668507,-8.863610704376962,0.5694802376184284,0.356585744156832,0.6984079105765808,-11.85154722509193,1.7299453799620537,0.3195059941026895
-10.855438010385296,-8.124358305841904,-1.6404535764582304,-1.1333153407996317,-0.1433721146777728,-4.129279099444078,-1.889702995857525,-2.1823308039245832,-0.5927385798828028,7.1403585240854754,-8.592768825859054,-15.73317238285075,-1.8197212183381464,-8.90127731513335
-7.672883673875875,-9.92048572588459,-5.949677190686264,-1.6277792719324966,-0.7024710800284203,-4.47013515026226,-1.782728198541248,0.3220920115234408,-1.072352762950939,9.778869034932251,-13.983006953706914,-17.010478894269742,-5.354991321220149,-11.946865735192032
-5.426291033821072,-8.874903833078672,-9.327625858214851,-1.548110517364529,-2.4502386702921948,-2.300593373990518,-0.8104569134768365,-1.6507239054036225,-0.8405268719884826,7.842907366799316,-15.069282765266545,-16.2225474360799,-8.29626861411022,-6.121155757882606
-7.744848763588829,-7.49995173735245,-11.874271280507449,-1.4376271375281764,-6.149372202955416,0.0955227465937283,0.7141485466181728,-3.2630031273583984,-2.0935432275354824,4.506549490096201,-14.732347248404617,-10.749678587689637,-10.134327892827397,-3.665070246492792
-13.648535845454546,-3.3370822866847853,-13.255832601097696,1.0671413322268393,-12.62296419176387,1.2860141749121694,3.1851511358650755,-6.2978921718427925,-4.826033613077224,-2.1278207835997134,-15.256055462622127,-3.3883629975398746,-10.418167235191987,-1.759183909545032
-18.618117042143226,-0.8059537557742125,-13.202788026993485,3.4404761529256667,-14.442087397774712,0.7382079615754076,4.2009346835367545,-6.448135815574184,-6.73362147441338,-4.523995223240299,-15.582942818154432,-0.8584572028538716,-9.130426835629956,-0.5543794313593815
-18.646560534248135,-1.6373158698941583,-12.1862766172141,2.6850913072844125,-11.51545964358945,-0.3399903456265092,3.635697700018108,-2.9430517053568623,-8.191300090861388,-2.1172018863124644,-12.847681380664689,-4.8294994208831294,-7.122049728576708,-2.206964597775181
-13.720778926344432,-0.6288119915585123,-11.277979641393207,1.4143519685403736,-6.700028651577316,-0.4986335077842586,3.930172958776287,-0.5895299259254251,-8.93264945705084,-0.783264340101305,-6.520144759951409,-9.484545863776336,-5.894035226114792,1.6089846335913702
-7.715164247847705,-0.8386326381401625,-11.092226069136863,-1.869015365790056,1.8098977693683933,0.0879426661738158,4.607748132030023,1.6843690258970554,-8.496950492241462,1.223508440348775,-0.3477485798106423,-16.805820293979764,-6.504997003134343,6.383179983031317
-4.861228126642515,-1.5437842790628424,-10.89127845469852,-4.769558084548619,5.113435398874121,0.6130882611510404,4.789208090540043,2.7306500425099216,-7.509855161200275,1.324120089311092,0.616513398680139,-17.904933419169893,-8.401770458053186,6.935336507359673
-5.9627709613592925,-0.6861984581223733,-9.006108453236573,-3.036854493797472,2.5264013102741583,0.734713720133632,4.791639498222486,1.728497783916748,-5.715455655401038,-1.3748365199550854,-4.692953529783507,-6.629386867242882,-9.410700070129751,5.879083243770722
-7.704491749371892,-1.601182552266963,-4.434101659334448,-0.129163566272508,2.2903577746301416,1.0863007679530063,4.572545087447486,2.459423136237448,-1.863615746803712,-0.6623452781950121,-11.242329485061925,5.049834801566235,-7.282973274242824,2.927270364709772
-5.644949010353244,-2.8168047868366,1.8612847496862008,3.738911204385332,2.447677316364444,2.1545487273033905,4.03964447157646,4.571550986450711,4.165846048257992,2.9476496603729454,-11.692840209740217,21.316649222217546,-1.6762796201843069,0.9541613889543332
1.7419153250756665,-1.9878014988538484,7.312278850607267,6.020833144602832,3.0411350770908,2.809778074087591,3.4748655305117917,5.254277486688975,7.0859535481930935,4.4894460289254985,-2.974083348472213,30.22208667556083,5.226211386689593,0.952657791370344
11.478747675726977,-0.0739137946592124,9.57251238234324,3.495768517689672,5.24086059943701,1.813406868982964,2.857252500451255,5.041463567421517,6.7837832316908,4.861352948024227,10.51174783907176,21.55141419651457,10.224923609792649,-0.3301276029565927
18.255425573310177,2.5465517935795687,8.178890122696906,0.0953184536247604,2.757371793584273,-0.2702861689992119,0.7486221604121354,2.514465181497417,4.91748580546348,1.91859949111334,20.23565298957302,12.749678304439865,11.56316829944741,-0.5915202428787648
18.41938604599807,6.512359863691713,4.59972299939278,-3.292704035794419,-4.467396168432601,-3.246400897504202,-2.936109347616736,-2.973484717614761,0.1146199473929121,-5.4649335828095404,20.498320958537384,-2.280162712316748,10.165598968484456,-1.1061799530408776
12.44190298870473,8.079039721623769,0.8068230074471732,-4.716604479739424,-7.45638465367907,-4.451953360737808,-4.385121455414169,-4.751682047353463,-1.6615812048904897,-7.351234615860824,12.7455770350727,-12.926787011851497,8.534653945635968,-1.6405581734031665
4.078507353286732,6.252033470531166,-2.147329106738713,-2.6112408821187825,-7.0305424205368885,-2.190819300156572,-3.6592969061162055,-2.8760799070022487,-0.1197545708553241,-3.9204231451641696,3.617804324917103,-8.527269312941803,8.375012275616381,-0.3322993178726611
-2.6277722644858628,4.521489394324062,-4.294983840412275,-1.0277468929221485,-3.828378117278264,0.1684420105686964,-2.33875029027767,0.5199317894524983,1.4106004728143966,1.303329218571636,-1.0235096994334183,-7.9410759243852125,9.220949824112951,-3.364780993892397
-5.783604895481581,0.9011935640350311,-5.84334787067446,-0.2069587626373357,4.133678990395652,2.1763820719263003,0.4453506760356289,7.027799856303896,4.363906031768551,10.592696634745485,-0.4280183298705253,-4.32163370542014,9.318319910438596,-9.090123900429544
-5.837909982847336,-1.9528300277092332,-6.433114459407594,0.2041874707519714,6.994552424222544,2.3536883439072707,1.2173991032112583,10.106998027232583,6.173886229210335,13.4076363694037,1.9267796917297064,-0.1935821061151467,7.745162773077883,-11.489445694442423
-4.14247931963666,-1.7842740705206788,-5.440751209058309,-0.4320762281318439,4.653507000881826,0.0639393110857466,-0.3312254664437763,9.390462806935432,6.473182958575112,8.961781792512715,2.7918447469508187,-2.768542572077232,5.5252496127331305,-7.99397931872374
-1.6989088993039054,-2.855453199101219,-2.918837267691416,0.3248835292711064,2.7303331112086657,-0.3987215544938612,-0.4753275324963955,8.167752439383825,7.347916955868461,4.630357714184332,2.383581030156158,-0.3799658168360007,4.570469547641782,1.8265003150889896
0.9056600307196732,-3.563949030419101,-0.014480773227838,2.2112957134069813,-0.931077674422779,0.5559753929844942,0.0567567252669365,4.805166808772836,8.148838251976244,-2.130404151219702,3.3572595981335525,2.236606846133638,5.575738618374565,15.22829005782454
2.954687506867142,-3.6255077861575176,1.7307505514149106,2.8245365913803435,-1.713414099809372,1.5598798580876327,0.7292280907473625,3.584672325637449,7.505580692181201,-4.9913746917268815,7.021568224419386,2.5492782734500543,7.1039574144990425,21.089402198782427
3.5431291461480967,-4.61016268009948,1.5721181988376962,2.2196537545367,1.2019313115157924,2.014477744709416,2.1031396442583508,4.921875733877887,5.475551301255553,-2.717568132115178,11.008221304068249,3.554475790730683,6.8712678165283485,13.068416365533755
2.1983878241758354,-4.799021846360364,0.0720127072260332,0.9950336842975148,1.5868517996915414,-0.5501510450142817,2.175174945665874,6.6658006297144965,2.896699477151661,-1.5866949582942629,10.952571282659868,2.014462549371217,3.955724327864512,-0.076179870711869
-0.615907119429469,-4.446593855129793,-1.538188482095265,-0.9541634398511142,0.464219634986566,-4.515653945640764,0.8751953659689667,9.9590274117688,-0.5265581927085946,0.119221138736047,4.627669604467659,0.1539732261151573,-0.2943172281499464,-15.11917192339855
-3.778816730464282,-3.7485675806670815,-2.4303583293575954,-1.797968704863367,-1.06349435874332,-6.072710729387708,0.0876589212029979,9.52278290453368,-2.400908710393596,0.4812294102244506,-5.45887672413464,-0.3622742531227775,-3.513390701167147,-21.108330748426127
-6.270901885198732,-2.774220734399846,-2.590725953352077,-0.7460147667040355,-4.010227710091078,-4.046907082111996,-0.570060126226473,4.88062906201805,-2.410702957822746,-1.4239384108807769,-13.502847283323476,-0.5190616743520392,-4.389401821453735,-11.344091935904205
-7.600280871806092,-1.5714291956823043,-2.281690402151778,-0.2118945111821749,-5.200223205913868,0.4043643352831844,-1.030487394337778,-0.779616325757638,-3.9375563878620734,-3.4814023380392234,-14.623977016705457,-0.0320492480888494,-3.481234529281512,0.4315939363885033
-7.612465044060997,0.5842727997915003,-1.352555218435267,0.3827447937803409,-4.528322589094577,5.385941405061525,-0.9790939518826304,-8.830934671983972,-6.491227688380046,-6.459735378010657,-8.246736234022908,0.1901400575899636,-2.14976631969796,12.16964035616352
-6.19363371372749,1.5515313024403967,0.6655615392728436,0.8714460065304239,-3.7392662227726983,7.073806618726287,-2.4278645919806654,-12.432046333487325,-7.293864471498796,-6.980341073103947,1.952927593071717,0.0737259121879624,-0.949300238178509,16.54273303273379
-3.3936335582081085,1.7313981272532672,3.719875136684834,-0.2906258309816795,-2.107761226135177,4.220837478720836,-5.403168048153592,-10.788807570221923,-6.714756892454645,-4.582546664354705,10.998959183940087,0.4302243010409734,0.7535006047068151,7.66292391129913
0.2129476436993194,2.7575474067372183,6.677436655476569,-1.4957716855090537,-0.3298655767978284,0.4465776656949872,-8.404409244003817,-9.54856110936972,-3.957495612200628,-0.8119027487188335,15.719885389049743,0.7081449085117069,3.6361428611920807,-0.9660179481636324
3.5401608979016856,2.3082617032945616,7.899449664861148,-2.9916316624680563,1.451459725302287,-2.929421695265774,-11.842535733805017,-6.98223758670484,1.6516693757922074,5.348379053680641,15.738781158663038,1.1940544213931272,7.129510516597211,-9.068882266551856
5.558792250346063,1.8176249125467352,6.5721238923451,-3.802195005848097,2.655819236093138,-4.074629225890631,-12.849445609401108,-5.762603864647774,3.5649614522328243,7.657013556575221,12.358305721515858,1.2585759519246853,9.473377659322086,-12.852848706390947
5.887129457294769,2.130867894410477,3.4790629644214377,-2.3685962569754464,2.979892017224105,-2.049930385011664,-10.944240565220976,-6.7275050933473,1.6992630311670027,5.63878410812258,7.077068527420131,-0.1267798099498961,9.153650183252374,-6.911283198844072
4.82488914810655,0.9004085487969747,0.3582647090394601,-0.1746975157424893,2.935622352019478,-0.0229529506928478,-10.236751086560826,-6.788701528436408,-0.2864252022593598,3.4521422333044502,1.1936684802783972,-1.6766503725707194,6.334957818355861,-1.1787174889409149
2.920937748989761,-0.2986480269665903,-1.569097544927054,2.4966143834037897,2.23319770192059,1.088268962231935,-10.089461743308188,-6.776969807575857,-3.870081962259365,-0.4512857860865843,-3.700620132547261,-3.7013434854882568,2.9203324980824377,4.360026914649756
0.662007824211873,-0.166680874769115,-2.428694967636936,3.6958911310353377,1.9013566680593932,1.2529119035958098,-8.754467522435085,-5.232996777296594,-4.434769652657521,-1.5153371017258273,-5.688855234353081,-5.138319539434541,1.1716147610082253,7.81076966675916
-1.4373483145513433,0.0773093373648207,-3.083367537845872,2.6927970428163586,2.010467307114224,0.2218151028748359,-6.819911596417259,-1.6519550902341027,-1.3248122712417103,0.9914370180594516,-3.723622518629181,-4.473801146006383,2.0664231735624945,5.11102725768528
-2.728515932023484,0.4446099179563371,-3.827088788688503,2.5680506758256487,2.279364866365484,-0.5916491746298786,-1.8354371903828728,3.059570137388242,1.139974902880032,2.922166487316025,0.8679675121505994,-3.76579102078808,4.678680364890173,3.193343249550165
-2.773715696727402,1.776081995639509,-3.875999514689165,3.390488007410912,2.994713843207074,-0.3733047568004607,6.635761769833116,9.4676475516524,4.117051358039217,5.475028183707896,4.423263250374001,-2.663140056248804,6.936025941634455,2.708763552616797
-1.948256897442402,0.7138884076195886,-2.283180599130983,3.7936428953117978,1.9251055827830104,0.1220052810411642,11.170754788983263,11.581293525706732,4.910882193843755,5.291964449859454,3.303371817148123,-1.4830537798940449,7.047676494416008,1.794418431923043
-1.542769704645389,-3.9596413463849016,0.6699180023691831,3.004887853389223,-1.0713438807402276,0.3760752472498336,11.915460857018868,8.875406363383888,2.721585224743542,1.5801585162695757,-2.980980067593209,-1.8148788167561345,4.525795147879952,1.9703102219138275
-2.949244959880602,-8.55539752178396,3.1603144231051363,-0.3602844382270533,-4.687539396232705,0.4606265994511292,12.297169947839034,7.06031153231659,1.0052126963758166,-2.001946935901308,-10.723548045416988,-2.081021880673368,0.190975765226419,-0.3120950694129875
-6.481882129165863,-15.186972828491715,3.1252872439755413,-5.954877736702907,-9.48310972026474,-0.1718561392896898,10.6880939781626,4.768456286393589,-1.0421869160626285,-6.417562057956686,-14.511876278321836,-1.9545784363610597,-4.60834036781583,-6.069651912059223
-10.897264891506891,-18.216851177036496,0.0858712110556245,-8.56963096498952,-11.337745165520849,-0.735003405411778,10.732851792372122,4.129470310853782,-1.4600486000725763,-7.394575930542647,-11.535172945060529,-1.5084965821309606,-8.785370619889243,-8.250623751244007
-14.118028215237738,-12.441808082672086,-4.202647787354456,-5.963327883235947,-9.786089610501316,-0.3988156367602589,12.847082251581108,6.161535135445825,0.4283531416016176,-4.052019470055537,-3.996867722723151,-0.3230891968498656,-11.706974208043397,-5.289803108937813
-14.57287350235508,-6.077599428974169,-6.946655831031449,-1.823027035819879,-8.702745710649337,0.0139537703364441,13.049217940006606,4.202126670153588,1.5809377536304157,-2.2110002853374278,2.6889324577192504,1.4171096310156763,-12.89123629365154,-0.9675007099831218
-12.059818767023842,3.374526859877829,-6.375292188956988,3.416503058739986,-7.090150152517449,0.800466476181303,12.114778024961844,-1.3188811172091055,2.5839564664729164,-0.8132227299436267,4.43748139610908,3.4177002143771333,-11.871083744266024,6.123640914968199
-7.569919445028653,9.55251748283823,-2.9487685303581723,5.643009901801116,-5.735805948611321,1.3792200320201755,9.708696734585429,-4.6622574057407045,2.0171086353111614,-1.2081617252125545,1.656388901060006,2.903762282109877,-8.66443521125911,9.2015512862942
-2.463646673086465,4.545591757449436,1.192789339687538,2.4577697642026743,-5.2181605592666855,1.0056255521851876,5.1401417493172445,-6.815653529657284,-0.7543313743301023,-4.52480637276652,-1.8421195110734607,0.727005049287867,-4.450627176569718,4.273560758719325
2.1866327735197544,-0.0180915602928645,3.902033932068351,0.2140834623204927,-3.437335652171148,0.3660123441869569,1.197979180585638,-7.079583858409619,-2.709064818857504,-4.955386187617758,-2.9755402250136136,-2.098159775121257,-1.5107309939860318,1.2755178772958071
5.679909101911871,-6.713473739429266,4.326392929965344,-0.8539083879005411,-0.682287288276651,-0.8224603185612448,-2.2831241719564748,-4.314359681523494,-4.26987100390744,-2.8761621733026552,-2.4258750178481314,-7.623154558553859,-1.9967831934232585,-1.5607827971626598
7.452754665709229,-11.9201683882722,2.886861317955425,-0.8836771727274897,-0.7462410884279239,-1.801185605022317,-4.382828414923248,-4.3472751208976845,-5.752330201583313,-2.9322902742671717,-3.5899729786213825,-10.510476062524456,-6.296103680466224,-3.737610752624924
7.009197870286069,-7.431245618382975,0.3048739434969754,1.218894452132043,-3.621538941678553,-1.6675436505565466,-4.3495413678421135,-6.97720181518244,-6.6110623433482045,-4.237983951526065,-8.605484020833245,-12.215046488919311,-12.419747418537009,-1.4758408533489444
4.160150948820387,-4.133934683227847,-3.136372439177457,1.2970576209816795,-5.958563531091629,-1.086796335608872,-6.39976986147855,-9.827879221897854,-9.329071083971275,-7.746775400649697,-15.56611405181945,-15.969064359521717,-17.143400820975693,-2.899507261753827
-0.6838745793669503,-0.3874617300939752,-7.342976072291933,-0.3810506042850642,-8.486350970512909,-0.0420557166030221,-10.28810072129569,-14.123507369737652,-13.958929897389822,-14.372987779815016,-19.83552294733297,-16.88115114482418,-18.11754530466804,-6.518768851850092
-6.450157024253819,4.304803883618645,-11.59736978860188,-1.4801562690532482,-8.105536851518368,0.757178813542912,-10.840828452570404,-13.765455668426204,-14.231251831239804,-14.647671362848456,-18.23723195870717,-17.236906522727978,-15.283939328140631,-6.747534499303488
-11.58764318101622,3.396655360907228,-14.299427108022217,-1.66330241122935,-3.972183758272569,0.3321213805849174,-8.534598226728296,-8.147832179853381,-10.202683547096443,-8.344585747679002,-12.021453901454096,-14.770210610203849,-10.541748790261371,-4.057651654623236
-14.367264522126078,3.466475765093634,-13.85228832674182,-0.412761879638443,-1.573318845658619,-0.2137453711534265,-4.2570042081760615,-2.1081399563754464,-4.089195243056111,-1.3770712361390132,-5.734486411099596,-7.656864650796026,-6.1019985590098855,1.0769951734097054
-13.297710341876694,4.931484895702933,-10.037165788423394,1.5300416935330667,-0.1558389314986356,-0.2642926864074625,3.092477281466817,5.857038205548881,5.606433242890778,8.391446453464338,-3.12852573890369,-0.8742109645553175,-2.9572346675571453,8.155852502103802
-7.749342414389879,4.490370396612272,-4.530072968039356,2.490866519443736,2.075316255362023,0.1908245697603821,5.724294119819208,9.50003071249765,10.57014898963531,12.098663944874149,-4.023215350892997,5.8735868438791865,-0.579651577281254,10.592232764663365
1.3856991109686163,5.885261461845317,0.1467653674965419,1.482698611650212,4.232852729770235,1.2709603252166588,3.1932162142807288,7.70501638741004,10.175381084706544,8.401252835167123,-4.929066001566568,10.539901758092109,2.1902009571013465,5.381114227694647
11.574192807631448,7.651827841591758,2.5102029562773893,-0.9120931230691702,8.319475534750936,1.9269728083487137,3.099361758218311,8.220951047370745,10.979235064586218,6.558877823425845,-2.551702718379495,13.370222600482204,5.9797347403697,-0.5095337674493676
19.560794043399184,7.431135014367815,3.2294880773403136,-3.592018322571695,14.57385291330698,1.621744544161254,3.8349136516334847,9.524271112831295,11.03411245101233,4.36882544719478,3.279077616487811,18.41588695414149,10.33472272094044,-7.231735526002362
23.02645930667357,8.762077130671189,4.4312692729091125,-4.676495891551473,16.071205961955016,0.5273775513151819,4.2615467159902005,10.248226225773704,11.155090251493256,3.729423557132299,9.815251442417434,21.432100477253357,14.012929133534612,-10.461705946426218
21.851256250421542,10.83908252238957,7.722452261133753,-3.165862882579696,12.756291942443378,-0.6950878886162337,5.458242243125329,11.50727483689587,12.127275509083288,6.117512551186673,14.103573818366511,21.62914629232396,15.752508939668942,-7.128821853113085
17.94459359464296,11.841770181918328,12.615397340948036,0.2275823834901351,9.42412485871436,-0.9102053843876212,3.0820899714896743,9.884138687398682,10.855459831675471,6.377894563632745,15.366553536134788,22.59912399923885,15.001669676624132,-2.8576928110496107
13.765971519354371,14.43881335846562,16.74086635990387,3.98613581424836,4.603703774332631,-0.9724889959405478,-3.092081657482385,5.208905316305321,7.608052540917273,5.253831070865241,14.965087525165494,19.92010197401409,12.27347861022929,1.9678722420177297
10.809178811504305,15.03382746269191,17.7136450100424,5.164516260116496,3.7995052364295887,-0.8835963661118883,-5.430109326560784,3.356509003107661,5.9927629251432775,5.131279654315525,14.479070094202555,16.484406607080928,8.990795747357268,5.135028320247777
9.246593791338618,12.41514531063401,15.090884418443274,3.296629172880803,8.082742052703715,-0.4921776453764156,-4.444195610953408,3.926672860681668,5.70120085625157,5.300425058080093,14.14441856669314,16.099430951822203,6.829553519304582,6.111766196377998
8.679943304992563,9.9567321043324,10.758577988653316,0.932925956503744,9.992576893064294,-0.9951784796161658,-2.4612002660052643,4.398805133163959,5.927230682575527,5.759269577526864,13.124251479396465,12.613728501154023,6.778537819174531,8.444590281580668
8.8561271449883,5.157163744239384,7.396270381520537,-0.5656649916997402,10.849638139312582,-0.4651470900376849,2.120065849472076,5.9266527339343815,7.437149317189562,6.806789492609363,10.941026606586142,8.189042386336073,8.410422076858403,12.930003687417846
9.483059181532788,0.8020413057239331,6.289486407589955,-0.2702417115109156,10.773387635753275,0.916961804166444,3.118216184740805,4.233051961087451,5.401439215475857,5.424305566999201,8.223065541476394,4.963618493539018,9.92642479925697,13.94851512459624
9.563849481706193,-2.237568214342386,6.320619866875106,1.339397733503854,8.484074117632197,1.5282668296633963,0.1334090378950721,-1.190264303572588,-0.4804614638609651,1.438404295968568,5.855806704549927,-1.935742559175305,9.134434134258129,9.777379144803168
7.43173127242008,-7.204043751284799,4.998503105843184,1.0914996623839817,7.451888518393483,1.674959697622662,-2.0702080282725843,-6.1814462684483,-7.954715050622609,-3.0314250173694965,3.547282918288168,-9.670525720227651,4.815713755985627,0.6897528487051531
1.95056030341528,-11.527490655373006,0.6932180965708739,-1.3130162460484875,7.398424606888213,0.2564470560714693,-4.891976557684556,-11.749669016964791,-18.2813180194381,-8.699620938896011,-0.3749765470837261,-16.426452626159556,-2.4584781471557378,-14.687571694412082
-6.094377273374818,-13.72293901069458,-5.760957930653177,-3.461742451116493,5.033873148665935,-1.6607208943102088,-5.766022726579825,-13.662706069273982,-22.316447312459854,-11.173232650102252,-7.310763525811375,-20.908684014408657,-10.6214422103885,-21.73270273958581
-13.899942086200614,-12.258694768685803,-11.41740213949739,-4.269228423184192,0.7761618364580767,-2.055452030299664,-3.907255647011644,-10.915495494163588,-19.218626936877257,-9.8205163433254,-16.27374050997988,-18.52168678927903,-17.20544770362106,-16.02203051452707
-18.230752456567984,-8.000285057024913,-13.259221496057576,-3.286027126544429,-3.343835954937354,-1.2648013479955666,-3.938021115277504,-9.497333122567015,-16.273305794451264,-9.227833826054953,-23.50731987731425,-12.61183004711316,-20.38731097335497,-9.70719523268415
-17.462024338925172,-2.304925257237099,-10.333245250482904,-1.2766291660022548,-7.815094226756551,0.1955133720746172,-5.230378957018746,-8.309772295614263,-11.241429219723358,-8.30656906574777,-24.674465017443215,-4.487769514434562,-19.43315703674929,0.4959088336095471
-12.40733137120892,1.9038404083795035,-4.363901706292573,0.2339242399827122,-8.242823695861013,1.2540141194954542,-5.632691252947649,-6.3608520749431365,-7.582907638258151,-6.752485221088187,-18.100990421227703,2.037019041968392,-14.691520248738414,7.3912782200014435
-5.417273738917601,1.1469220338767208,1.5147680784596886,0.6323296418067117,-3.8641773217559874,0.763072094403588,-5.826893755266783,-4.55716275541667,-6.383443793283155,-5.17188714859319,-6.357372218459041,3.980721407627229,-7.5204970044787025,3.645844262090486
1.226732025309655,0.301170116429757,4.839765958512656,0.4030003572227228,-1.7505527258381428,-0.2192284024024564,-3.811409273836521,0.0522556757512596,-2.1770085725451085,-1.2198052192587423,5.329275666978729,6.937332746056939,-0.0950253472169926,5.192039602333858
6.21077698749885,-0.3034483305942275,5.1644667493001,1.0307945996334764,-0.9834622932352818,-0.5016923645156345,0.8637833877176941,7.583098820889309,4.111489698263878,5.134822628897374,12.663357779544477,9.923424810057917,5.320381057518105,8.923861836933378
8.963663064252078,-2.268503451546291,3.85297917907034,1.611423244965132,-0.6523617965183498,-0.2709150009772421,3.0238273448716995,9.55968408925716,6.147913473116601,7.902601557757299,14.925759226200562,11.63950627324811,7.583621741030283,5.733352663829852
9.084679028719217,-1.506299509795095,2.7305709823119138,1.657739357571296,-2.089784682581884,0.4363450642404221,2.92327336214316,5.962317714589482,4.237340506870163,7.115175976373854,14.539906811034896,12.460609943940986,7.431340244710339,1.6127558189607831
6.347551999589274,-1.2982017231541896,2.7277666666123626,2.7938552849083926,1.2358175014997936,1.2188456921077102,2.501860752548549,2.697461438175679,4.065776763254179,7.533259442016397,14.162473662827177,11.017768349255672,6.781255156765658,-4.2906729668609405
1.3035779077535512,-3.7181488922602455,3.446732468545157,3.3227243110490905,9.534631531077332,1.279135960660338,0.6723637497863202,-2.012258342449662,4.571724418090966,7.984920581241327,14.086349412996997,7.882983544768706,6.8685148242611,-13.50652860026402
-4.343044493608439,-2.9950774144996286,3.77092931616804,2.8402593308993853,11.09447867993168,0.9068884375419776,0.6030124551569171,-3.2026850223611567,6.11887020530158,8.68969345168527,12.338946548447716,4.702867933906759,6.949552573954449,-13.649934782407009
-8.284693094793873,-2.9526659256136774,2.911035560269,1.880188916367352,6.602023906126782,0.4652121211000247,2.5560997249345685,0.2807018641599801,9.749538725933816,10.339740578165747,7.250226454197737,2.318698636037916,5.117354291618668,-4.556670912056194
-8.856670204128614,-4.692225820519292,1.091017509101489,-1.032739598065868,-0.6366431927849893,-0.2797912178737666,3.202022073556511,0.9420915756552832,7.751953927863735,7.89758415201171,-0.0737872415220231,-0.7925766633552511,0.7230154093086836,-1.110500621969706
-6.0253681895314655,-2.657641303554027,-0.5707812748153565,-4.796252257956879,-13.16794928118511,-1.096824340363228,3.187074716266852,-0.0197543964071484,-0.0199259119959782,1.247194243716213,-5.820045819959618,-5.178318951904929,-4.023189577167163,3.4447753567974826
-1.3418668390450377,-2.544147280183691,-0.8541895577204794,-6.191280539013709,-15.977360146589335,-1.4151394243739772,2.7895074977958405,-0.5696463687225678,-2.643158661126793,-1.686921312873798,-6.148773932528311,-6.670675016589595,-5.258344528613839,7.350364973020319
3.072747089797512,-2.0441594236852363,0.6640498443754845,-4.288365269480259,-8.011995395193637,-1.1444857309516514,1.483892355493681,-1.865637715078757,-1.1937438849643318,-1.53761585787102,-0.2022264004629574,-4.635859371143097,-0.7737639524517705,5.497815252554425
5.748226929876674,2.6308819109337227,3.2335665687013524,-0.5773149405697908,-2.865511694202569,-0.5613813955457263,1.8967870012272263,-2.2757592557688264,3.109466553242153,0.4338687693180564,9.049709039225586,-1.932461873499871,7.596871097728963,12.369256058212372
6.506355780040099,4.33485643481739,5.35553409904969,4.229899225276684,2.7613440962629925,0.1542448396205732,4.106722207779259,-1.6660129870292186,12.587075429280098,5.956126756946544,16.694858588045307,3.9514541203933606,14.953563682204669,20.23260904430804
6.240120345881634,6.045270698533785,5.73884560156808,6.347779576548926,3.3990967727313746,0.4827246772468668,4.563223486021272,-0.8904356268443676,15.05542523592391,7.79018874213197,18.90015738662489,7.481942160920674,17.034824195359324,17.63491879052725
6.089526671674994,8.082220294058859,4.1307033619396485,3.81163216552788,-3.401350611534835,0.2415502589738677,3.658822006451087,0.4443700564685385,10.192279290522794,5.793624521074051,14.893525440804918,5.893498120503474,13.426431691121294,8.540178652672113
6.543952573904587,6.647960497168888,1.4365073376730422,0.5272878253239073,-3.5827125402601534,0.1324623089564661,1.150034424634816,2.5924659000443238,6.507907712876488,5.363620084130203,6.889338822677036,5.9160528164976665,7.51566003547061,-6.011228557817812
7.003783906088298,6.8399659402175725,-0.9540379826706378,-2.57087565624134,1.5214379526754782,0.485556444909152,-3.75745948957682,5.570775826688898,1.380866534468179,5.021763406441432,-1.4741607313364788,4.204172675570868,3.4494835650310165,-22.629147643021287
6.115907098391009,6.961245806913685,-2.141474693479804,-3.982491162269425,3.177031580178218,0.7581754572480376,-5.325819750271154,6.337990511008759,-0.1304607613835122,4.625789527643791,-6.941596931375418,0.3143540338714502,2.9435907341960004,-25.658015547655094
2.770810181425816,4.75967981074883,-2.2856177576519627,-2.5080193979752514,3.558196487679816,0.6152841145985508,-3.467766915141861,4.680136209289365,3.3738083297463057,4.826497360151179,-7.855417676119837,-3.1281622340972546,4.5709980429375925,-13.945702971234764
-2.855735615256215,3.31424545414954,-2.367876123944363,-1.5451832112258306,-1.3910849733525543,0.0636728828049677,-2.1170739267422904,3.212078626760302,3.5958911743773534,1.16709831330505,-4.636514910001157,-9.66763286883434,5.643168528728566,-4.733102235626435
-9.027757425548629,0.2830931363039756,-3.344360837229331,-2.025198201469573,-13.361635032922797,-1.2521309464052512,-0.054595303631045,1.2279086809918047,1.779564672730645,-6.547925317157433,0.3878944371346975,-18.432558012365977,4.584906685336989,4.202589935049756
-13.3114678350236,-2.1666956556290127,-5.336484438739053,-2.221189805525333,-15.962355671947789,-2.0931374086879044,0.7248979957322512,0.2743431838119808,0.4011466552154617,-10.459523614490536,3.894199234866512,-21.823790869871093,1.7545484323004956,7.23991223801338
-14.06419331955502,-2.3553008028261133,-7.487089293327951,-1.8360622018377049,-9.509076288853068,-1.4444657920669466,-0.3889345157604737,0.8322274310261465,-1.8401917594811488,-11.091504785077236,3.2035147242658297,-20.050321872755493,-1.498136820764703,0.6409520865565723
-11.45245056561004,-3.0993457765965515,-8.608412164515045,-0.5827146450388788,-2.496838611221761,-0.5050751098431979,1.4215550433180897,0.0481183566723854,-2.6686811507141,-9.18228311486875,-1.996186713823324,-17.23486419066536,-4.163700743331866,2.568420418697817
-7.214876863552167,-2.595186822887052,-8.119826076165097,2.412384662468491,8.543606317534499,1.092803977709763,5.800234926978516,-1.6957049052277668,-1.8395747613519888,-2.909289765644471,-9.095945065797927,-9.94941641389795,-6.010284290141101,8.574158032960861
-3.409729328944085,-2.7060382381482198,-6.511303453706333,4.507623938028333,11.233252805443056,2.4976512039351757,7.228838903379272,-1.987422321130616,-2.033098557984729,-0.6383142330126393,-14.027720609700264,-5.672836653230237,-7.111751266402109,10.597045298647526
-1.2067352523043766,-2.874599802743279,-4.936614171675288,4.351460635895976,3.877151016589366,2.1902225580418646,6.2606587325465535,-1.1396989425121842,-2.80649415823466,-2.4223828389696305,-14.070213038047653,-5.860108304359446,-7.3798496619854,9.823364056208089
-0.6300112605403214,-1.2738860553296922,-4.284673662927215,4.2707313687134905,0.0934831811186126,1.404553946439547,2.8541701591539703,0.2528353223063646,-2.7063407077249964,-3.247662812401736,-9.910860062268526,-2.7980167369136884,-6.729762120330882,0.6040999857972786
-1.2024974591381614,-0.8104503598659727,-4.546758416871622,3.268903239515586,-2.998336587345027,0.1587936616556369,-4.244895433190021,2.6453193821178425,-2.071691776680848,-4.893050816538833,-5.117117801817244,-1.8456622177581263,-5.560406125342336,-12.893018416231095
-2.636331758710256,-0.6491654300943877,-5.01822536774748,1.1856131201005191,-4.829321432937167,-1.2105867967881991,-7.171467159451229,2.771163203568451,-2.2875972500237705,-4.755656596347653,-3.2433143576555388,-1.6739757293263595,-4.776984331116292,-17.387542765274738
-4.83924552713189,-2.6730079949875067,-5.071872807632943,-0.1742638677978433,-3.238659277139696,-1.2929354393268373,-5.817538195437486,0.3723962369926044,-3.261602128959079,-2.1770028801397925,-4.965818186989242,-1.5342894232902888,-5.103133523618997,-10.411873665836875
-7.377526786489479,-7.348164726050422,-4.710143801190704,-1.809044715974544,-5.293391550046343,-0.4747815935374822,-4.7260712792694894,-1.866531236605814,-4.563776633333822,-1.9900259542835168,-7.758882311454531,-5.340876629584384,-6.302048233226763,0.9335049888505718
-9.200056178236968,-11.199867658026056,-4.3887087985741005,-3.7021342444460825,-10.461329397698806,0.357591707510144,-2.152772796723504,-4.712545032147059,-6.501566404907696,-3.66774170522102,-8.38774325996949,-9.140990518419796,-7.1739959093529215,12.915965575499795
-9.1729875275849,-12.834273965453937,-4.40138596100093,-3.2773628953944343,-11.390693714488783,0.8958773871059094,-0.9705998914962296,-5.509309140491595,-6.380682010091577,-4.299875092240883,-5.929405687740857,-10.37649610879811,-6.518430828996294,15.679285945033625
-7.050843600782788,-10.76102761807417,-4.550012412289796,-1.7378414841989436,-8.905801527868658,0.5384689885651603,-1.750844466500092,-3.679052368555627,-3.974193156696071,-4.612797244786109,-2.579852705519496,-8.47933445648609,-4.278817837052802,6.186635014621031
-3.9008441872169577,-6.199467415075096,-4.434629295222955,-2.115914266845653,-6.797616251072525,-0.9352582683168,-0.9599668791620666,-1.8986816995961195,-2.8749595897789826,-2.760218525251173,-1.5882746624204458,-4.202554767328507,-1.7892193438005428,-2.9198722028791253
-1.393091141683307,-0.7214870009010598,-3.95993508941741,-2.353190092800564,-3.838096875900792,-2.0815227933667373,0.7136155298610309,0.5962358162621041,-2.581133869368897,1.8748876615439003,-4.257851372465751,0.7130682058646945,-0.7605865836851251,-9.459709697082234
-0.455107102307732,2.071530065092783,-3.429160605768253,-2.3810920636908386,-1.6253044428659256,-2.100354767737673,1.385190563089878,0.920000438855616,-2.93722098745916,2.8652094165731103,-8.6787382299404,3.595529935698634,-1.7883328217124834,-9.822156779653008
-0.5025951457820987,1.572721906233842,-3.1230166478169057,-2.2356183805176344,-0.7255139154699147,-1.2297243782889034,1.4338452099582222,-1.5133610059951856,-4.639199717482958,0.3859903836744023,-11.211286903284458,4.377365632997497,-3.700327992190896,-2.5181201926051635
-0.0364062073388389,1.0701785625575184,-2.8887395828048774,1.2949488401235594,4.156472916279826,0.7216130612437364,1.18742514280261,-3.4078977177038454,-3.6626857678966975,-3.055042527683649,-9.381904680389685,4.912794149854982,-4.440305158275045,1.2807851015372111
1.8376266390310596,-0.9713066474346784,-2.2509195544354625,5.349896231463989,12.850591021359795,2.5853261276972286,0.3351090401640854,-5.533506606740184,0.0763550615005071,-8.875808989023124,-3.830079225866413,4.721539923491465,-2.8549358962140623,2.830433069387177
4.326288619472118,-0.9448724015346904,-0.935330696578804,6.164465796876996,15.12220342488364,2.789309175405256,0.2404628103327062,-5.656312082982088,1.462134995141375,-10.961522220458509,2.12607055626396,4.909788388223279,0.1411245726869801,3.3044909758275565
5.37770086510522,1.559533991421876,0.7879863020345814,4.197629794196894,11.281351142323292,1.59573551537052,0.9760446067360956,-3.0871402302745903,1.113778079364211,-8.779395434689889,4.853724348790049,3.6427546614352937,2.157127389614581,1.1557054873744468
3.409010486410219,2.574630803477878,2.3320531271321467,0.2353033626489313,4.87088391368858,-0.1915503118495412,0.973077769156336,-2.131962890407733,-1.2924116922489777,-7.482991107474147,2.9019142489217504,0.3766392836748578,1.3433842876459492,2.2136163009154046
-1.059826731923364,5.307049081990381,3.349142808683744,-3.854227082955784,-6.448749191000501,-2.135931018015344,0.4799715582617492,-2.249228816055298,-6.868963326720843,-5.647494286923439,-2.1248773559504297,-2.6106335963384018,-1.8269036536877188,2.577662906345408
-5.314020713578236,5.819565238736672,4.033522188308224,-4.770491235612444,-10.18886996928792,-2.7495751940372446,0.886625603003121,-1.4574263355252453,-7.481857176326443,-3.3835114900658336,-6.832877910643816,-3.475950396384022,-4.648320499606862,-0.6231061969551167
-6.178772104911856,3.182073018798044,4.8808070285714775,-2.6164563392251003,-5.389457861130148,-1.5720812513380031,2.040706804778534,-0.4208678106834688,-2.990751667309544,-1.3120880487754851,-8.42153028012709,0.3760284044386288,-4.282194551974213,-3.538052978537042
-2.386458751963437,1.8709710210504251,6.170901996743054,-0.1066752649091283,-0.7086677033294959,-0.332477659595625,3.893198167039716,3.0533801314176725,1.6474898522090908,2.820921456338416,-6.394551338483401,7.015612064792823,-0.21978522843379,-5.138542145805408
