AF3,F7,F3,FC5,T7,P7,O1,O2,P8,T8,FC6,F4,F8,AF4
-15.714605473959784,-2.0248410041150198,-9.13898090697296,-2.0501135789356426,-2.4267651762954494,5.729325376815826,-12.023130013229228,-5.845831846631899,-10.01772131296264,-9.721942514590673,-4.365600707835588,-9.29964662007535,-2.2712861355910463,-29.69093968735613
-15.964398052200258,-0.144484052015808,-7.858982698605574,3.4438559669992923,5.04676708868314,3.226613611997946,-11.024541293679691,-10.967153658236414,-6.861207626809156,-6.841115039433769,-4.891818680159684,-13.426906109176349,-3.989234921313933,-25.615591656743565
-7.8819565272197,2.926686426713692,-5.54866821483679,5.187864746390337,6.614391800088135,0.6613426665761133,-7.357340937824716,-11.705253548111347,-3.26056184970126,-2.262888775310201,-4.722856893189509,-11.785831818400402,-2.1416479031273994,-6.70575997866452
4.595871583904408,7.910445098864731,-1.4260093608158229,7.272156644657288,6.085398375740173,0.2144171413297604,-2.395062629245211,-8.036086973124013,6.371197598053628,5.737915298052185,-1.0241453854391382,-5.924126248648129,1.5366140596261184,13.990783741642248
14.054238211251498,6.23498677669547,0.0319673208087903,6.769841269451643,3.735581592765231,2.465749303185211,1.734838832962161,-2.561523014303411,7.821860967926329,8.67166872118362,0.4577859349075086,-0.1629293032517855,4.208937494777011,23.42400185908745
14.215746033399018,-0.2957857331712415,-1.644186618180105,6.009887472037115,-1.5075632752933692,5.73076915921056,3.3652930416446862,1.891317997528944,4.119322700552733,5.830275618358031,5.039449765447522,1.8512795880092296,4.091896143667259,17.866634055473593
4.4024406847015936,-3.263220263289948,-2.220594925713128,7.787406872546201,-1.9831869556706816,6.999929560565402,2.2876455469529557,3.872259905027844,3.1782910232641983,3.461859307163483,7.334196793434897,-0.2542972288230078,1.5624577373120694,4.020838246061903
-9.512475381740895,-8.291448928713185,-2.7500870115377727,6.011482985614743,-3.721062076906173,4.218789318428224,-0.1388565715452721,3.200620834705643,-1.757060475976432,-0.4982832110391012,3.2583060754308937,-3.883081348222804,-1.5941705612812207,-7.93771500111731
-18.655491185250007,-7.0478688014809325,-0.7085118044084348,5.783518628700052,-5.353304255224113,-1.6630279581103895,-1.845875650183192,0.2526525113411715,-2.358036777478963,-1.3377416600286538,0.4257702831217636,-6.022201179641657,-3.945231800746885,-12.541961064485816
-16.945386914591555,1.01488739966814,4.730486428056523,6.0191829462864765,-4.05189611177976,-6.765444885421582,-1.3005031689890243,-4.008653081305734,0.9271755866239412,1.9724683220430443,-5.342543226744245,-5.559262947889289,-5.496097062508941,-11.572454807877158
-5.179959982476612,2.3773857730111274,7.2049961169608085,3.285306738432531,-5.474711215024984,-6.939945831635373,1.6712139006914186,-7.47134448540893,0.1461079068020386,2.122041357458902,-8.47140563569438,-3.5068698041927404,-7.1812801708803935,-10.021858471232742
9.397685842375274,3.2262517161599704,7.191662585016706,3.10663551604566,-4.740962956136691,-1.197743678434069,5.931440813460782,-7.238249061110052,-0.3998307588065524,0.1733446039434845,-6.5849973831234045,-1.463351990644734,-9.439722704947812,-10.458379080318837
17.76244768589484,3.072526534358873,5.267927311548022,2.5177182333270745,-0.8843924833198222,6.986521089137902,9.792988065649952,-1.5703631798527535,-0.8566460461949283,-1.3012081459966809,-5.075729140970728,-0.1297110355211526,-11.41576702292158,-11.295516249767932
14.861687394396998,-1.395736861732399,0.017072145286072,-0.6447477991526949,0.2932243921896571,11.928394698477817,11.9643324600168,8.043792278220174,-2.89309768419149,-3.43585991950934,-1.7893894136166388,0.7950418396156245,-11.615319369091068,-9.807257870180967
2.671449893024125,-1.3320938754099347,-2.9600943714421404,-0.3341302203722747,1.826609357316353,10.000062079274588,12.159551498964268,17.035137213023862,-2.189007817347468,-2.12981066601533,-0.0840128855984247,1.6783283093887853,-9.339012700461762,-5.882204046955736
-11.33428490980705,0.6729276599596528,-3.711039753432236,0.7646062486800782,4.145676662931888,2.504990093404253,11.113182056627556,20.71547975983321,0.2150017966803473,3.1631815685401463,0.1611453092704873,2.301897266122939,-5.4516701284749765,-2.228413727766945
-19.129547344520837,0.90108033184062,-3.5767324371047926,0.7094468360102385,1.6036353466522957,-5.1887250958055215,10.041647134635843,17.805785389489948,1.7169335108661132,5.72758195767138,0.8994228480715191,2.233759339986414,-1.7616877008897325,-0.9623498953631968
-17.149888758111135,2.1583289557585785,-1.21509630135389,3.802265115378921,0.9681726205027068,-7.511353280016421,9.860288762342632,11.369975408287312,4.062943768169269,6.282754944194017,1.09155259441484,1.6549125377375766,0.3365511994707546,-0.6681689761839209
-8.106630251506328,2.5011780807524766,1.002579551448679,4.55739073539536,2.3315766902604653,-2.4482870421303127,10.641620211541,6.229121055430518,4.576954722651862,4.991872369330141,1.6353626733146684,1.5376815983298386,0.6694010629723905,2.3359147239015488
1.445081252026292,1.7675977828457257,3.2190042031782107,2.608606565194809,-0.0551047637803214,7.530156793463045,11.703726361115155,5.18931042300941,3.58639689074153,0.4218455683518648,1.5452607220701993,2.829921212015782,-0.0701919738443486,9.399520367591425
5.941533432340651,0.3032498770167765,5.283812904870463,2.3667595657878646,1.652096173853281,17.555142950938055,12.270176506643075,7.397551999294329,1.1478459342652008,-2.700384631320226,0.47497320659431,5.444303899891718,-1.257133599429089,16.5614855242779
4.576545897795901,-2.3337138947304337,6.6589508248186045,0.5652917203050446,3.1182269380658454,23.41227265475093,12.12992528782774,9.898499166833815,-3.9285300553352016,-4.626705956916963,-0.4420099898654615,8.124598462166318,-2.786187008910731,17.120685666921037
1.3157664474287367,-3.552467413203115,6.535480841674354,-0.1574589117421282,1.4920229948901784,23.374512437868862,11.673739528174227,10.438297434473284,-5.642585027728995,-5.749335881415628,-0.392825845530698,9.393060114645875,-4.625756411481873,8.119915532379608
1.2434680202587258,-4.636968082976892,4.487619359669802,1.5132346144487931,3.322467094793347,18.20896665133764,11.26627935096592,8.832956743598753,-6.222172855746799,-4.99120820903115,0.4693303074109909,8.713663861087966,-6.089485487315605,-5.474865837052696
6.136262769122455,-2.679840510675649,2.0234012652349955,2.679210035229776,3.1361878266163847,10.210811096206864,10.617425423898244,6.205280878711514,-4.265873016465997,-2.925825837778341,2.938379159658673,6.833466582458341,-5.799556760437183,-13.66583420169922
12.836007701146547,2.926981612522344,-1.1966354894402895,4.71305823531737,2.5215634572909744,2.2260384152136763,8.889834873736,3.6137268756645047,2.2138808685111733,0.8803698905753031,5.652005306881576,5.098153531232786,-2.636574642829987,-9.539551691280362
15.841782232954394,3.175146613109335,-2.047221280339468,5.187344875173509,2.7996050654094846,-3.1708968630840317,5.558689071523999,1.6636432912127912,3.414818459688116,4.320908548497812,7.071114008874328,4.475186662633835,3.076843385049097,4.624592375393846
12.112051665163827,2.2490495091764404,0.0034988907525337,4.104959564449248,0.6135461914205776,-4.599124781423232,1.2166276444375606,0.9606285636820262,2.8219341096906763,7.314783365458221,8.873653463767482,5.130922052934825,9.30409563451992,19.06182132728893
4.11740946808597,0.4647837297671026,3.61519596515368,2.686954055346646,-1.0715018435703982,-2.675900372078287,-2.55370390659691,2.117207635875148,2.0649822420569444,8.28788576574068,9.47224622995104,6.705719340811156,13.39026356645161,24.674792877083423
-1.565394360682144,-5.978184602976894,9.815000984360788,-0.428755409094487,-4.807844647424684,0.0909370818780259,-4.2962368286582695,4.854823214603309,-2.359873209750581,6.460572418172927,10.198249076735756,8.74139187056534,13.786744128113778,20.245416129113835
0.7450552956264254,-4.221510565695358,13.408940336637528,-0.6187253079790301,-5.536319951803284,0.7672516918965715,-3.896113871471711,7.362661756611936,-2.1397945931862803,4.624036634629616,11.114073698850753,10.748503193169,11.051484054403648,12.332115272314256
11.103949950596,2.172917186451452,14.096384816591016,0.8253707343263903,-2.7397887094368,-1.946800097336649,-2.812013927083358,7.258543394658661,0.7085464347214603,2.175289404093899,10.282905428736552,12.003765203919668,7.323178659971194,8.452267491851591
23.288769546591645,4.181403407509594,11.976504374203666,2.212050685742045,-1.2422786335827034,-6.668358218649808,-3.022609763093451,3.766333725275098,1.040163426753707,1.6183166015683854,9.849162602124991,11.581760987663706,4.723810245903849,10.240455159715257
28.912390265706968,8.573704755428828,5.477163625468336,6.205450629109418,5.121855001547955,-10.321290691868668,-5.465907341996491,-1.0064733099751637,2.5039173734546853,3.61467591295175,8.21692187213742,8.865738616621337,3.9866806960422574,12.784139878369986
23.29523950953805,6.28115072094433,0.0913098505213001,6.1878478970192585,7.337829172386985,-10.51628391399297,-9.234849841094746,-3.403213485130548,2.1285098349422134,5.702228380230487,5.792698621064262,4.160599486000981,4.311502668042056,10.14740370799339
8.750052670161452,-3.329354027787355,-4.498288830784984,3.441650137468905,4.45587427643565,-7.438078452182309,-12.24940646898421,-1.4368575799214502,-0.3978294762698726,8.680070571827704,3.839308602067108,-1.230538521177336,4.34876021160923,1.4114270805087017
-7.065938558755036,-5.41705037130153,-8.116411963817812,0.9734451944369245,4.921666269708076,-3.7405357450112686,-12.936846902090716,2.939208742462164,-0.9392436834022844,7.676305719248158,0.047158902608044,-5.684039603084406,3.3394292594604043,-8.398897035904909
-16.371750929746476,-6.759993750712023,-9.456205052243403,-4.655719848107794,1.3046628463634635,-2.600866020376016,-11.55256646417909,4.883190912655875,-1.446869901709466,1.9844354248521576,-3.796531880752081,-8.209279412554162,1.5030714426745213,-12.928647679965897
-16.169893046742853,-5.716205700539838,-10.61816733571568,-7.066017585043819,-1.2008514247702706,-5.491188595208248,-9.963109212539475,0.5783146451762109,-2.0585362987768296,-3.918356221096586,-6.506411680008202,-8.920708094285974,-0.444443055361333,-9.996715499718768
-9.45899047823092,1.6270689882991003,-11.038566213512926,-7.148128059383278,0.7140509862981645,-11.235237889051495,-9.974072881071097,-9.160681254481084,-2.028539376487555,-11.305120909727306,-9.686667593472896,-8.683781099585058,-2.0429355513552085,-3.027423267896657
-2.334607293026137,3.293900220481108,-9.652859249452046,-8.15683347540744,-1.244850253576235,-16.78319801536236,-11.623125195802686,-18.822077360181744,-0.6686706751842374,-13.234201503931908,-11.044238848891483,-8.299629243688685,-3.42983408699185,2.315386963817782
0.4539458182088651,3.329316337013249,-6.559525363669151,-7.15349232820868,-2.582754190359244,-18.998154436609298,-13.03490236012692,-22.09745804297048,1.9754691938380595,-8.492741024866827,-12.552298474598684,-7.956517973112337,-5.068678251847027,2.6356582615255704
-1.810084625477188,3.7609758258964456,-4.6788586024213386,-6.950652640716643,-1.5951989664943869,-16.387814513300647,-12.112150908267605,-16.79760285182958,3.396648570279797,-6.168728377471328,-15.03406478996748,-7.38911707887943,-7.189917239397984,-1.6128623337313517
-6.356493525724742,0.7413078390903343,-4.042828401855514,-7.0649000019764285,-2.638353077565067,-9.969153781177608,-8.593661530150314,-6.788378797008792,4.549462770257287,-4.6156627562780175,-15.70294058604345,-6.520445907747306,-9.462181474521463,-8.052786679195112
-9.582410745797247,-0.4598855195833793,-4.999601706299355,-5.420754763066888,-1.418684898239316,-2.8366470337499585,-4.511211798395899,0.7759975643877004,2.3774318522027755,-7.665179036573787,-17.663049800601478,-5.8965506596809,-11.18942267090949,-14.896921543961914
-9.484346212391792,-1.0219022383212557,-8.427609157203374,-4.017690619533024,1.1604879514484656,1.5421405797809484,-2.4552355862298856,0.8622525711716413,-3.106583728036698,-17.268148419278923,-19.311630927682156,-6.3728630120881125,-11.887407020220971,-21.20589444142084
-6.388382192430354,-2.256840079825122,-8.332639739374471,-2.167541503795465,2.468466932944288,1.5500933289125,-3.140257122788904,-5.621127503244606,-4.507244834923731,-19.48613544035397,-17.024770884632012,-8.198558319169967,-11.734742068976749,-25.298588000222228
-2.177745860266569,-2.733256268139712,-4.697911766446081,0.4953264478597712,5.583490092525681,-1.2937562628769954,-4.555134903972318,-12.582146015460882,-4.942927914303386,-14.99701891482372,-14.253950819206471,-10.309509853199522,-11.424233809600109,-24.264547862074597
0.9213910266417836,-2.1970156412614323,-1.2759589787591163,2.3332310149888413,9.012468394751863,-3.243084439090192,-3.6272391176978886,-13.458763704490082,-3.588601461601804,-7.487781436434472,-8.8030562610713,-10.66005572530983,-11.429639687330166,-16.265939343490984
1.3082416591513937,-0.7066189161872023,3.1989154774371946,5.481420597942668,13.148752652132773,-1.171759728883151,0.992907379222449,-6.22101063367905,1.7718215861354203,6.098726318772514,-0.0481690671900626,-7.6319580118679955,-11.30825059234772,-3.5554859264887995
-1.3027657974298823,0.5259679552894322,3.5904233154375547,6.3587648748349,14.508268598273268,4.716561176410178,7.526303806723413,5.1118870093321584,2.136333617255764,11.707093039444038,3.718311846395637,-1.527525306563403,-9.783947533664366,7.668226310362757
-5.510931145223392,3.057500519134601,-0.9609498517717702,4.023205177801357,12.267749108744376,10.715709206009109,12.352025205103349,13.453946208735356,1.340146337808296,8.567918251607994,6.105481586334842,5.170059834578302,-5.738752121334862,11.679997624905752
-8.639694621061468,2.979816265756232,-2.642011293321878,1.6148498508797002,8.692928240260038,12.47764293517713,12.885945547743331,13.775096650270775,1.3395164398296486,6.577811632578089,7.760938934835339,9.234557437056113,0.64957463976212,8.250652333021101
-8.228219546310237,0.2985727529083421,-2.522462849851504,-3.51122223072611,1.9392740347819015,8.70814910246607,9.548546394035244,6.538953985886731,-1.7346685822278989,2.511408531530208,6.798271999549126,8.864298550499766,7.670972054986801,3.1130381170400394
-3.879654152045269,-0.3615957794705979,-0.0633841680988379,-5.5246615040780185,-0.7812756412321635,2.5106809250589635,5.1879449412672765,-2.971544672479689,-0.7330404124383318,3.4670809231857014,8.200303473203295,4.863628292670011,13.085352592640076,2.7377516623942157
2.0874682186492066,-2.03510616741848,6.334512752261953,-3.980223007673808,-0.3773048327271482,-0.9639847356305822,2.6142380331589976,-8.755600736354914,2.3579235758589285,11.078879547705748,9.094114347566514,-0.1353102593436839,15.586521276606105,8.081229700874058
6.1220230733258285,-1.3533939001188775,7.738629962759542,-2.4143581325128367,0.1811489319062633,1.2775597163254648,2.4871349247817225,-8.420788862508948,3.029265296862808,13.556533495697956,9.07554517406621,-3.721379984244946,15.498072505712187,13.46145882864158
6.13429930577076,2.347539251610765,4.243736223485277,1.0402458555902343,2.7265206041424355,7.522698328983006,3.2838975948078013,-4.46864573886593,4.810498003749689,12.4628031854663,8.949456708359406,-5.257004498608793,14.14850141430945,11.974756274749977
3.127467349667248,2.794575689054713,0.573858974540899,1.735185966297022,2.696853828065028,12.606919068979243,3.066706160687046,-1.7297663273706636,4.436563865137394,8.754611859341738,6.182121689612749,-5.707445614310985,12.548307966483296,2.4157791080836226
0.1968557535876565,2.0126106485042405,-5.164830292835656,0.4868773062748887,1.6417447066911814,11.919597967118715,1.21579183946403,-3.2131122929305067,0.9477545256518368,0.1869704378355789,2.72344930438351,-6.177168329097149,10.571866120211109,-9.025427874179144
-0.3423156987128219,0.9445763962753846,-6.375543255424078,-1.1710119340033838,0.6182698314496137,4.883539265349501,-1.4021018132178549,-7.828194071371084,-0.3302482072118223,-4.428534647753678,-2.1158611390737625,-6.741718859485111,7.33174743839428,-14.130144097706484
0.865808635768972,-1.813078867296516,-2.1288142399100995,-4.070587348106391,-0.817917962999821,-4.767144796043614,-3.6609889714109833,-11.717685576819989,-1.305868945700471,-5.124775616915207,-9.479756336168045,-6.703606004151755,2.348475750876157,-10.163502883337603
0.7922924156724931,-2.718718016289485,0.389554540473623,-4.75035925545225,-1.886142532154253,-11.842857007179113,-5.30677745657569,-11.7941506957967,-3.618359262732855,-6.9211029730345786,-12.241120142298971,-5.82002151215502,-3.547778141843092,-2.489283992814247
-3.0292443120604258,-2.207229735843256,2.734858694574948,-4.973409908276209,-4.017193002067672,-13.20016708089745,-6.819727027890068,-8.292497967734379,-5.196614147613741,-7.982459144836778,-12.578082690534572,-4.99347358284219,-8.377660895064283,0.2735437460315646
-9.735507225368783,-2.417190148555441,3.2442458329486628,-4.884597718340728,-6.265410323426987,-9.265920662193128,-8.333056475148265,-4.261309496671178,-6.8320072349062215,-10.063967291029352,-11.823021015572705,-5.480102513056148,-10.14610481514083,-5.725617662063523
-15.061140302254778,-2.21838053032558,0.6590386194038861,-3.8821688395379335,-9.218129335805124,-2.9222845763912173,-8.966978821721195,-2.745983194633588,-9.270654578222926,-13.71031270286905,-7.59756271202397,-7.300387895274707,-8.117301511091648,-15.561566185035511
-14.273114545106251,-1.668037724381748,1.2896791626109143,-3.2032959180765,-10.337430648715909,2.796777601282102,-7.450563543177757,-4.290476245249695,-7.056934825688511,-11.92687423197656,-4.681269135200672,-8.55032077242248,-3.324723506354194,-19.22226054110932
-5.930297285583251,-0.5079747179887606,4.672567604185532,-1.6551472503310083,-9.105398686693988,6.259309343187007,-3.475253881316951,-6.762833033809166,-1.408987838096072,-4.712649561418956,-1.198943084901288,-6.60127175402188,2.0301997680659287,-9.979021864220671
6.482608223393601,0.7613838913229328,7.39991191554761,0.6365676438680247,-7.183297032246801,7.291650514668934,1.6056473547140888,-7.295670207229812,2.9049190640244618,2.782588657370666,4.483421514664189,-0.3609205297351532,5.8775561752078085,9.588909360389463
16.47313631922892,1.9872102881248972,10.570202181628542,3.94177065449995,-3.174724745998965,6.417154089567967,5.507651314556007,-4.503489240674403,9.350190673789587,11.967920804703484,11.481668347695065,8.39702123368197,7.408352394573894,28.940392458067315
18.795313803921925,3.05490180801216,10.761881215207044,5.327073203541077,-1.810833154092504,4.297189305209258,6.586558386694046,0.6844847728055884,10.79328198707164,15.574519662383766,15.24668059596446,15.952538958960638,7.289958427787892,37.17361166231281
13.015862443633951,3.4702454185671123,7.271254533847131,5.105594059932871,-2.2754170240875355,1.6715423781236214,4.9220516457640215,5.858293521528712,7.722541852729071,12.212161461553388,15.98284309763077,19.172287035380428,6.86666618986682,30.727702917888987
3.7511113758874046,3.037052659037153,5.8636108093676125,4.610588454193562,-2.618981873513816,-0.6208826028578913,2.104868502568916,8.73547355233594,5.561585123802446,9.387487430181576,14.945795530297662,17.589465286951288,6.994963033320788,15.21746141708046
-2.6734744804551034,2.0262093086731725,5.821017887248601,1.9155900523011515,-4.82018549262106,-1.8992297680163563,0.0515570325512516,8.442947368580423,0.2139690354485626,5.10447726350604,10.927923322430011,13.387256969734814,7.456332091334804,0.4644215337325823
-2.690832818452085,0.5771956441881845,6.639872895423015,1.296729440967283,-4.821357749733434,-1.9874910434469544,-0.1723096784651376,5.877579747673511,-2.167721632566895,3.463562436071381,10.022011412949189,9.5022798339706,7.421973330105177,-6.740618905120472
2.2805709648008765,-1.9352888809926776,9.445029703126472,2.1184499854847667,-3.7233029943154143,-1.2468168625827325,1.2175396543935495,3.165577113999124,-1.95420785976676,5.791840058856085,10.349143955072671,7.614450261381453,6.504050537001429,-6.277345606293279
7.483503083603452,-1.9829828199472008,9.344756616378836,1.8230153662981856,-3.3526915017517096,-0.256173200761467,3.0971931143445435,2.6123584735692997,-2.76377340992633,5.970284198660187,10.328522474233813,7.629373997022071,5.3246425613699415,-2.514168847536805
8.864855428270614,-0.323212503735544,6.302677555253087,2.7587333653013086,-1.754649335148128,0.4909709440371621,4.212642392176068,5.629727893805918,-1.939144489763042,5.18526097967576,10.905824781345617,8.668919132634421,4.918254837483943,0.7718487928342679
6.12077100612466,-0.6402261716264374,3.483320016519256,3.001513874536582,-1.5721927101515267,0.6247399733009047,3.9181733242508425,12.032872305884268,-2.5339342925465025,2.758872492501207,8.86500564732318,10.203766788634915,5.443919986070688,3.3883731165694364
2.320096432292817,-0.4626827624621466,-0.1298720278215076,2.2474922540306808,-2.3166888051790737,-0.1153857555141288,2.565038252677452,19.94788111243897,-4.341944485722837,-2.358815427676701,6.478228227817242,12.117370598855173,5.548356657994999,7.249117225488076
0.7278034903461874,-1.7975466808152003,-2.1511326191188087,2.5827682216678367,-2.484027086431074,-1.6164890664395188,1.3648824844572176,26.45342259596742,-4.220569451529946,-4.953799073719268,3.315240534925187,13.889869202955888,3.303572976064144,12.57849986982261
1.848634647518371,-5.61675882322601,-2.027945027915809,2.591486198269131,-3.7893274221375353,-2.997445379664692,1.7359575468803452,28.90436783066277,-3.766447145969163,-5.223942385420052,-1.517236297626689,14.163658887925584,-1.8696997055688376,16.102968529210347
3.3014250291410168,-3.8072898448691257,-2.157055504718332,2.6869622527260373,-3.184033964255796,-2.724701129674047,4.419423375965756,26.46706558712221,-1.597130238131086,-3.1003188287094785,-3.230858006797265,11.530592238410192,-8.0764947544833,13.372330018290317
2.379471594161827,0.9846975853233368,-1.847038809053088,3.52795710819176,-1.064654064276679,0.3764614045448669,8.873041102112087,20.881636695774347,2.4411566997288303,2.7267765340412256,-4.719889703934678,5.92742625778026,-11.957399321889453,3.1023845248048296
-1.3094655140751108,3.4400251926364063,-1.7195896636011856,4.0019419512967,1.0449370238278943,5.795595597758438,13.36351314329628,15.51662075517383,3.998744743302904,5.480216260207475,-5.9534220915228895,-0.8520786355357748,-11.267016763179967,-10.754939586251336
-5.600302284360684,7.888686623449765,-2.091793207253775,5.063187739864623,5.230617134714304,10.972862443912094,15.773007983086927,12.896365903777006,5.200962027930705,5.219636827750761,-4.07495661173976,-6.296605484472837,-6.84137045984971,-21.48831165665259
-7.94646513923931,6.20235672492844,-3.3803235595885504,4.811642103785767,6.272417820981502,12.671960914125895,14.68535874884548,12.43935551500553,4.102830995541608,1.902921291916316,-6.134222009851495,-9.08537296560564,-2.10756245579066,-24.621692690092612
-7.728889988106584,-1.2820220391306345,-5.95163983170634,3.128709287164724,5.167590215557162,9.360498928656316,10.138521898246868,10.5627328123617,-0.1084171329349583,-6.282586164222028,-9.274065981518191,-10.006135889238546,-0.4178991030866825,-20.95319978373824
-6.4720425168857165,-3.562247594444849,-9.02589977143758,1.3182484983381602,4.198640484846024,2.697472613204664,3.621275888046677,3.6328187157566503,-1.249989691882867,-10.706261240616344,-10.879023167658312,-10.987538446798991,-2.468341000479359,-14.988471498016636
-5.969123880720958,-6.411333529535165,-12.863397912386738,-2.25209020726397,0.1747057966989187,-3.3442298228821192,-2.684688825503096,-8.403811544238636,-2.1895142395074867,-11.522638776285786,-16.441664499585197,-13.144051211276867,-5.995779679677472,-10.49399896518046
-6.396613200711168,-6.304868588743053,-14.93558826116231,-3.607221187438628,-1.2302237084142251,-5.302849647307045,-6.99998129499243,-20.96582908032928,-1.9405030946988084,-9.851522332660023,-16.512230593258593,-15.683747252575372,-7.901116268694539,-7.572228545204638
-6.360506594549197,-1.116164129353533,-14.928586173773526,-3.106667435558565,-1.0843833703128325,-2.8199082282622947,-8.770108170954067,-27.71980992807582,1.2361814117252252,-3.5567714931938363,-12.122444408120533,-16.696112673561885,-6.832592978906198,-3.977737696159334
-4.708747803510425,0.1891511972402593,-13.607074362563491,-2.9552130817074107,-2.669511447936171,1.1585464213278884,-8.752985667036382,-25.31731840441718,1.1664451442218475,-0.3288333510823148,-9.409306652528477,-15.037844095342358,-4.022825607953575,1.0102496930268343
-2.084664987532757,1.364602202767323,-10.17286509137776,-0.9203411115991788,-2.224662623705798,2.7942262028214992,-8.34898524904025,-16.082948611704886,-0.0045159235096684,-0.0624628956273659,-0.9801948167834408,-11.517012163913249,-1.882930378680983,4.542575651148736
-0.4956102567017533,3.625006824280736,-6.917563774129441,-0.1089529433344093,-1.633541845197111,0.3984774644279949,-8.623152661706083,-6.372133065542249,-0.1727039467709363,-0.5406215672301801,2.6773112180082625,-8.280693577046444,-1.8267471395396535,2.547987577028424
-1.2720617238614498,4.680579380023405,-3.8220507884078354,-0.3193275809928804,-1.4533415303013186,-4.3910427359440485,-9.64957720858616,-1.9765664073702167,-1.6673474755993527,-3.535799982437113,0.566896187602922,-7.006011526178375,-3.2625041235861536,-5.576702359703536
-3.5064018988080514,5.130612111072633,-1.4239591955532331,0.6789953998238113,1.7638135565395934,-8.154247481698686,-10.568756404762766,-4.336698164604504,-1.341131770794718,-4.947752632713779,1.1460109900331097,-7.551910565964407,-4.426910856840943,-14.757157234957448
-4.632623302023641,5.163636274530947,-0.3743419574073162,1.1285920030484342,5.1711936357641815,-8.503383373379771,-10.268885440790886,-10.378723703779148,0.6153308448813243,-4.738102425400384,-2.0570948793629737,-8.220622832737817,-4.0688722607772645,-17.329334576754405
-2.702945925351361,1.4873868080938626,0.5378552644326905,0.8116461608120676,5.670550996137871,-5.774467563085466,-8.21974241336439,-15.575652727299287,0.3729019334464866,-4.6824777555630455,-3.144067177823532,-7.288318751826472,-2.4160830146828767,-9.255632845824696
1.7331727945009805,-5.758460233862994,0.9159179690618529,0.3396466251346304,6.331979383772479,-2.3380821790186244,-4.9171072904362365,-17.317718434274965,-0.4416438171745509,-3.872209480057749,-0.0062092686804311,-4.415076379386363,-0.7039067496132692,5.88534447656566
5.864530164007302,-7.52644775542751,1.8088805836634416,-1.5773872328163348,4.435858335366778,-0.3598196311880279,-1.6412000471949604,-15.9390633388823,-0.1911964261741922,-2.7771671258085813,0.8394845248483921,-0.8063013453194365,0.1056531820644486,18.808911788385554
6.765462833622716,-7.646170255773264,3.408499792907785,-4.203843356919596,0.9862549220014408,-0.0418048933758546,0.3479395903004461,-13.20870865865023,-0.2820936950806944,-1.4241875553327392,2.52696279368321,1.825962108264243,0.1559650685881,21.035885552782823
3.668322674966811,-4.076707680924529,3.82857713983088,-4.788194333285028,0.9616645576673968,0.2113212442775505,0.664268756312806,-10.298328370190564,0.3868201500962037,-0.1406759876133617,3.747689375007962,2.5083745932201995,0.3529521087371372,10.956929406871929
-1.373928558796873,6.139531606477109,3.260580812327687,-4.888542859956659,0.1651573869865963,1.9857794382472964,0.0735055953486263,-7.239195594035257,2.299464010374732,0.934251163987072,2.6328025531742965,1.5043874069606558,1.2515707098245468,-5.033535573927788
-4.82285187445174,8.149250916903197,2.1625364987261726,-3.9443965514975474,0.2266958040600777,5.071411699601853,-0.1001928282171098,-3.953869856345256,1.4957937377621242,0.9304114927639814,1.866809864715681,-0.1058720529614873,2.286383220232956,-16.854451434498245
-4.010183367275001,7.224483993952687,0.1700881555283494,-1.9435091806897544,1.5887569711549006,7.300093104463428,0.9299792011496076,-1.206414767712643,-0.9891931544730732,-0.4142555942234125,0.8556335479101267,-1.2267808180876525,2.141718570668882,-17.194758878915152
0.9877201030464904,4.829180283832552,-0.3894636007772186,-1.818161782470787,0.5485683158691663,6.231570444632348,2.68016213115099,-0.0622354711872645,-1.1400185811733592,-0.3583453234589889,0.3585390371180472,-1.3016807996791049,-0.0015807017529283,-5.826587693349497
7.135369116240027,-4.290091975975594,0.6530210724679036,-1.5900543268152476,0.1505737766867294,1.3360482867664576,3.718057162936143,-0.3615690409002301,-1.128614182714419,0.9801669635409064,0.747064704016051,-0.3885386934581351,-3.465329288941261,10.618565245535732
10.19954718550942,-5.975815427339033,0.9454159090688412,-1.707490101968247,-0.2620829565776333,-5.159679822912391,2.89350493599748,-0.1403655666670031,-0.2611663126233766,3.208526502139573,1.5751237336596622,1.0862310647271107,-6.303043642832503,22.90645797101154
7.6304567294326,-4.3390917822782775,0.9786744390013344,-2.465598361859377,-1.3797215266960705,-9.55992960662582,0.4855741772477451,2.8417249525365165,2.6685755046443096,6.976575898622367,2.807665301357102,2.642055963615517,-6.670261198435656,24.832817455385005
0.6947858411864196,-3.706759902773413,1.2054961391941486,-1.6459250748022156,-1.133345595973317,-9.200921772866112,-1.77969992216161,8.63981889683447,1.5995697998297551,8.358016939334519,3.5045038458390056,3.9761362801059743,-4.196694570439711,16.924455748249198
-5.966101423620624,1.2419525614916762,1.2999402717820217,-0.9666158269113916,-0.7370947912927325,-4.278054120684993,-2.0005332896777004,14.28565038437326,-1.8812656112443469,7.20364952369225,4.529393944423912,5.053719423500508,-0.1859954784968973,5.892999004366015
-7.529288839965036,1.537404425066499,2.847626750276675,0.0088836580506398,0.0274328703957823,2.306419807224076,0.2979184781187856,15.847367241743315,-3.03956236611384,6.1166573029604745,5.658151497339582,6.023919858091805,3.4696533705415025,-0.0658942951373617
-2.7620788367169977,-0.9410008666242222,5.97554373466774,1.7814839625368215,1.009546097400276,6.8295787919563775,3.568451044232681,11.796311922794064,-4.992836178771283,4.207537863247517,6.541838084918361,6.9955264159421695,5.622960257122781,2.80026085632631
4.76599418241621,-1.1835733764720322,6.863616973249416,1.947591798236568,1.1107080249449233,6.9564577473521485,5.260513569007316,4.567496441510544,-3.9923251045223074,4.487380174201215,6.805202577375404,7.82858822650678,6.3002043129077325,10.91898052243485
9.3892310023768,-2.7664471088752287,5.621212482644435,1.873982650799359,1.0137256287359353,2.907322763383636,3.7648977250224434,-1.273037525465722,0.7213847056955301,7.482750229830633,5.979177568587812,8.14515177518482,6.08343024358523,16.10108464921707
7.964847744434712,-1.9983839753468895,4.2222435502236255,1.5293420203434187,-0.1882992640061372,-2.873989005354172,-0.2206838615015565,-2.679760836883883,1.6639391393082057,8.872856831005787,3.984563417042664,7.623368551681938,5.350725712874206,12.197869748204107
2.4724493813174693,0.91337162978207,1.865674287176753,0.0055356468985166,-1.218759224868993,-7.15517459061082,-4.060646550108757,-0.3506657635587782,1.8449289217618792,9.31767466251992,1.334978383216699,6.381243627012065,4.241336854881721,0.5446550852687881
-1.782796295659118,2.407650027365728,1.6322055871111074,0.2551987859363223,-0.7101673753057945,-7.693649529547248,-5.124646104799712,2.3172695881037004,2.691663653324338,8.168040963979921,0.8850427887542691,5.106305617543714,3.1869852065995303,-10.538582278187098
-0.8702915863326126,4.473081089895563,3.9412596526979056,1.075217229442765,-0.5327888473273305,-4.53012755884385,-2.8502374501161185,2.3679732482876954,1.632658439652117,4.544764637982931,1.3673392740494703,4.713963210469113,3.0640471464303616,-12.2740733289104
4.308443594899217,5.212252534758943,4.1300822458583015,1.8277965807058445,1.4725850075492182,-0.0417585291134816,0.739254726343626,-0.3442230901046876,3.1540205708616824,2.545261604378036,3.125789202779293,5.670807204151998,4.460301032639677,-2.8386010953239023
8.84775188792533,4.4931960011974885,2.785953653229295,3.970942260427372,4.255451820081956,2.515311770948564,2.573319521016927,-3.4105330502306064,6.619942263759032,1.9379692025360884,6.540962225079076,7.45196155726595,6.740727525848079,10.628828143168086
8.111869221292853,3.4857489832436475,0.3457192228626246,3.2426413152936395,3.169411144833165,1.2408692866420807,0.9734249841069662,-4.142772481630226,5.653356888245813,0.5499982802983847,5.505012173829002,8.621566697294554,8.109395697707924,17.387139650865194
1.5808540663303123,0.5903109761215513,-4.10041749622054,0.5442857316994433,1.7915441510981989,-2.9730956343766284,-2.9693952173266247,-1.7096427388089823,2.697077631763876,-0.8645307032176898,2.531258421805499,7.641733026063843,6.93784670967845,11.49924463286932
-7.01363208851676,-1.6633226383287087,-7.286291381272075,-2.503675485466805,-1.4532771923101118,-7.051386964754766,-6.232813901248646,2.5085588901403177,-0.6449700749112237,-4.54477695210781,-1.7194935938472715,3.93830066955233,3.194688360868497,-3.723897351242666
-13.02354639865612,-3.584463485452385,-9.2449451990435,-7.857106856350127,-7.796505027865846,-8.06127295078128,-6.252386445830252,6.2475547218511664,-6.769831871620279,-10.911779583838213,-9.070718405751096,-1.5573784896052043,-1.483614861419408,-18.81572829347916
-14.420687668829611,-5.390363995247289,-11.078453078797072,-9.646132799794556,-9.034142773410288,-5.409780300014315,-2.9057643947009293,7.988218293235986,-8.282389586368849,-14.961877080292084,-11.02802713244436,-6.874455696086146,-5.213117393332441,-25.811021328799885
-12.496596026580637,-6.170437009399713,-12.04402094654787,-8.662610594556758,-9.156182021318603,-1.1180523944666625,1.506669317968619,7.623997474485413,-6.6046050181670735,-17.014089352043182,-10.001949586733833,-10.19296721268974,-7.329974151684405,-23.743623740222283
-9.68205126925413,-5.252938483755969,-10.728694093623616,-7.117283170538534,-9.171582228846583,1.9556786997734736,4.191267630279571,6.000774766740295,-5.279152613770501,-14.936303398717529,-8.01453946302038,-10.862748436754224,-8.397091152925338,-17.631584006828973
-7.093074014132359,-2.807037935967773,-6.874306274859508,-3.5361864114214567,-5.762980227796066,2.3373815965709674,4.052623564646101,4.092599957159148,-1.0827679887725346,-7.305667953492655,-3.3823427227820178,-9.48616978234282,-8.854798610435274,-12.715790818292207
-4.195248435402657,0.0591185376227043,-2.147912164565472,-1.5972808621965693,-5.187688387791165,0.7891896237225176,2.373613678221856,2.5626451561448125,1.256538112231979,-0.6225916379485562,-1.6581416734657677,-7.125805133318822,-7.977372158474672,-9.784205036266346
-0.4282309451258594,5.091190911908087,3.856971608415479,0.0020088735615998,-4.968247487518083,-0.6585844011867819,1.5390538082314702,1.74170385985442,2.500728475010402,5.83921256405634,-0.9460735008626824,-4.463796683472332,-4.531970293978398,-5.781536768214222
3.418781997760889,5.497284091130876,7.171630285573535,1.824747643758264,-2.775080823322748,-0.4182479956415932,2.9572939831262026,1.5668467941282174,3.816175850425685,8.164001977881982,-0.6710737325526072,-1.6971543846821646,1.374899771879743,1.5396677057685206
5.740506976979295,2.286118706031917,7.163263373897472,3.91730038186682,-1.8267180884810048,1.631969706204444,5.905641647688972,1.3519936595198043,3.749418793472807,4.603505042483479,0.3052729967876985,0.8809297503996696,7.302057983912011,10.013724276266494
5.877661184383227,1.2775518633263792,7.219055368557012,5.4296540810399865,-0.1611571192748835,4.380110266013018,8.192801942770263,-0.0744001628066186,2.947140527159908,1.3911650418862074,1.0023281009151517,2.442397658015389,9.765959827618984,14.265276843991076
4.975104427118641,-1.99979901343528,6.2312866005177545,4.7216303038344725,1.8888679958838248,6.460451474525496,8.027647545803566,-3.392059589406084,0.9624051191587886,-2.894375840601626,-0.5653256142376629,2.0315753388998665,6.995217948336153,10.569497946825148
4.828499929707015,-1.2217601468191126,5.823006489625062,3.5554654421325647,2.3417886006795063,7.091974231198105,5.517814052786865,-7.562609283777949,-0.4457344309825278,-4.326049970619174,-0.7342146912760207,-0.4290497906935258,0.66975675635525,0.6326873863699571
5.910929849339457,3.840930676963602,6.451302717752334,1.524138614743797,3.850040212201606,6.283344246497507,2.545165256791728,-9.820914388428896,-2.0052992371169664,-1.640757887333475,-3.4147726457276253,-3.5866357957826764,-5.12543351685969,-9.352399458007724
6.753898121611114,3.651366983744893,6.266550198542928,0.267513936042517,5.143634364457181,4.5330583256747055,1.1257623206953964,-7.613971841357633,-1.977015269694032,-0.1777256435312343,-4.694860886119558,-5.345717416952356,-7.004097158423081,-13.542972674484728
5.436301437393142,2.3905610337702394,5.743748733876509,0.5517364200310435,5.246528603876399,2.463928775674019,1.6676621584745028,-1.1341051557264554,0.3304050159302814,1.2709440311812914,-1.6924231828690992,-4.398087071060354,-4.792985984057203,-10.832196640809428
1.6759966327997806,0.4760045530499233,5.648338693893049,1.4130887395302856,6.790213397081709,0.6863198244682893,2.6660067323311827,6.126343030962898,0.5687582635779315,1.317954039901836,-0.6544147154109015,-1.25163674972074,-1.3120360133345326,-5.055445780627963
-2.6351171084959075,-4.664848865959118,5.83178680722765,1.9876475180405584,6.9222805419226034,-0.1781041189620293,2.138361167620965,9.91052594034565,0.4342596455324524,-0.9313958066897788,2.0958206339994057,2.248518647091054,0.2774432560561934,-1.1796893740122396
-5.013030161313857,-5.394514027126742,5.35344588272364,1.6408084197595594,6.409358004566935,0.4065975846914602,-0.4725386554634552,8.811324971519733,-0.0521043118536743,-1.5515006639153812,4.621690957916113,4.502407637583366,-0.857595552443291,-1.098996757253788
-4.524889978212478,-3.591555599173325,4.268516561562828,1.501974580081889,7.115479063230078,2.541752483470602,-3.6816882272279337,5.437686889527226,-2.408239771510462,-0.9824692845508352,3.4934822408107227,5.323673665109442,-2.8240809121612003,-2.6690401942395314
-2.466394581415313,-2.59913844613398,2.642304934517029,0.0784231844673959,5.518472881673822,5.540313872376197,-5.242167057277548,3.729362848273419,-1.650256581107653,-0.3518300676287226,3.532958845883082,5.559088379581912,-3.0361505564722124,-2.4534543759687253
-1.0507610627783093,0.4750005817284549,0.2421102515395623,-1.637576429974252,4.063334942451388,8.008812913757005,-4.17620815876494,4.925693451419313,0.978611549794747,1.0342503904473157,3.9344856688200247,5.623051686477428,-0.7162692315055015,0.6476233258572517
-1.4277206323858556,1.867497420901557,-1.1587193938206937,-0.6203912654140445,4.510517547723452,8.533689467148072,-1.6778052359554572,6.286710830626555,1.8338484942590776,1.0942686593179256,2.2005685567010915,4.6293790542626265,2.35897403740967,4.268934082210368
-2.781715413429437,2.5435084207177883,-1.4894945896489968,0.5514474102099366,3.9694428682567056,6.5868532795627095,-0.0373105043890529,4.011100833862012,2.912246001783569,-0.3270936596643919,1.0116486616663298,1.2821113696965032,3.4336409827561987,4.8600943332478455
-3.1204498954911983,2.5275270109268484,-1.176152496171093,3.0818690148401258,5.396063290796423,2.9748305460234983,-0.5674667345342508,-2.515817302130367,1.7938197703256855,-1.5879079467804924,-0.4054180444285102,-4.193825214208454,1.2415056825865882,1.178886049600834
-0.9323304606012108,0.4551311838401232,0.2649184465478139,7.8159076030004195,7.543000761022437,-0.5510301748001112,-2.424242813542364,-9.482796803958175,-1.62371767907356,-3.16018663368281,-4.708661171237351,-9.149339757900323,-2.7132558647702005,-4.178385117069858
3.6044954020675295,-0.0526979522141559,2.6321157634738728,8.418911261821696,6.60949458519382,-2.2792380949291493,-3.372337490808323,-11.800626283257351,-2.1877673794231853,-3.2808777952496926,-4.567476460857995,-9.995743452995368,-5.095460002374747,-6.547530680166595
8.62347889551868,-0.7616114796001128,6.064183895811664,7.305652995267616,5.886762716380601,-1.4791685690554657,-1.785754391871288,-7.658085938742017,-1.902464581305556,-1.5839092383291076,-1.4759163271482634,-5.15799779767567,-3.1785086887568568,-2.759457872733239
11.653764920471684,0.0218841634379949,8.132093202867855,5.603693200689789,3.5548817822570355,1.2235738786589607,1.8817581152097311,-0.1729208520566842,-0.9202752719651738,1.0249380486620112,1.147522415349998,3.096914821707536,3.0284730532725845,6.372135882403536
11.079384929895452,3.192553114741016,8.63059980364126,1.5051139587625304,-0.1308698689433889,4.164031405417921,5.384897938493726,5.288910663496502,2.2083308393641405,5.134452268168375,8.407469979255644,9.852472042016425,10.52449182720796,16.44024031933123
7.141498794546823,2.98481410655321,6.4004086269655005,0.1298211797922359,-1.4856575907784704,5.457102751165015,6.422256746569305,5.498625774469552,2.792813751091172,7.288594729455053,9.96747436418348,11.05662458251586,15.16379123197664,22.228404779676737
1.8786663404345132,1.274670161355662,0.5296019055083944,-0.0148085198822958,-3.440554470958168,3.977158058518516,4.348278244561431,1.5359917221903068,2.8957578037656737,7.229990093927257,6.531361474779519,6.515165800579519,14.357532330087214,20.84890057105345
-2.06728838437682,0.0209404844737516,-3.618795879306497,-0.1142589336472438,-4.759759908514161,0.0495595467743683,0.5242307605642651,-2.8067765254432047,2.685781977258385,5.80944462909219,4.1351442614800105,-0.1539305326928346,8.733009555640997,13.286735015865926
-3.1305286635739886,-2.91038583784742,-6.347753874740385,0.1128785891069846,-5.704859049579087,-4.601286137124692,-2.8384802430577203,-4.528647856066286,0.3081586205221103,2.0245952138432,-2.9824140690849417,-4.561989810386727,1.551350049636877,3.6315607214561463
-1.851612298964386,-3.0666753329922294,-7.60855965839648,-0.9124786122040274,-6.923925714057317,-7.788499813567782,-4.30143357061776,-3.675919637077641,-1.319000564768205,-0.9851273738835532,-6.217614033314304,-4.998104493105913,-3.664550490527972,-3.389695082399776
-0.4002308355087587,-0.7959778824805692,-6.105349746487936,-1.604109912330138,-6.252401378645589,-8.197350880494078,-3.992941170775776,-2.7461730503931,-3.459584287613785,-3.2412454192090308,-5.205002461489909,-3.3959320862669635,-5.441722025778986,-5.135375153337339
-0.8013564007722263,-1.5123550483925776,-6.342322167004879,-3.331959194396505,-5.502499649165033,-6.18742806297546,-3.0779404172386684,-4.178553761825825,-5.664957323152088,-5.704618413886335,-6.198549975491228,-3.100593049916217,-4.81317766799685,-2.4352192711074387
-3.1913864047216887,-2.679653910272852,-8.044288345018376,-5.062575998301399,-3.800808241697996,-3.416281711901973,-2.54293973493256,-8.149153760845582,-7.442480417036765,-7.651183238896522,-5.625600665677923,-5.479373159355319,-3.718293104592924,1.2955208762326755
-5.592512341154247,-2.864185905783284,-8.177220668001887,-4.031849702783797,-2.3723190196275263,-1.559220521343569,-2.4367233157863737,-12.26570277036332,-5.889706507742506,-7.381381345573001,-3.8002179115639088,-8.417468471308595,-2.9518149337011685,2.72511196220154
-5.557417017896764,-3.9786983542127534,-7.476751220599464,-3.1991997646427435,-2.5205195187113905,-1.1671412799815748,-2.179253585890816,-13.193911506688146,-1.9899129837808187,-4.578054914130883,-2.9450215849171504,-8.127383873920982,-1.6130957106907289,1.1441961172277395
-2.4211095169291816,-1.1257146215644989,-5.499001212182183,-0.4469891920066758,-2.186340260060966,-1.5708999151515073,-1.4948340149446435,-9.027638976542551,2.275059524255552,-0.6138366646555181,-0.2151218517550333,-2.792825360899723,1.4878055361964826,-1.1893202178418107
1.804656793671878,5.144348729641899,-1.753418994337631,4.825476610617338,-1.9055813642725952,-1.8000572524614888,-0.9304295726903576,-0.8840967244362794,9.693660449830562,5.061305133206536,6.160471999885713,5.179170759414276,5.9554601703865,-1.2832310193003984
3.878652156648979,6.352124185751048,-1.296047652638002,5.048869142167332,-1.567530468434361,-1.609979770975933,-1.3597226802326468,7.335037579036619,9.795264811923238,6.497921343308776,6.250721426111975,10.529596929272008,9.449259976110094,1.6945716636399517
2.100243570155264,6.309610698123768,-4.276762072052346,4.098131487355385,-0.5602688170174465,-1.6852622840432865,-2.934062960019574,11.08807587818024,5.060617603709381,3.026570198347884,3.267299858862984,9.29639796432,9.36254539305619,5.509995126090569
-1.957689804643504,3.632099444804606,-6.647346534062127,2.5277598023835424,0.4801195740865885,-2.8731727947128256,-4.57553063527288,8.109260391592706,1.8400469950395364,0.4284144377630364,0.7918267474124486,2.3042570521859105,5.0586659481968415,6.814072415096701
-4.468486665056805,-4.29497354150262,-9.473435830987912,-3.0523457469814077,1.352401602083533,-5.167435285384116,-4.6576479308019945,0.184256338191016,-5.8377171652491775,-2.7282066973640107,-8.55286909724354,-5.160137930935157,-1.4019084548245813,4.108321572617173
-2.5372776095808103,-5.249631777283197,-8.635508129293214,-4.1819178316476044,1.273405414690222,-7.381130198006996,-2.3883895989467447,-7.692576497178827,-6.340189958142998,-2.455523942892346,-10.353721552940762,-7.4790987750405264,-6.728164405626798,-1.0641531494909309
3.0849355295217507,-3.223456830081708,-3.1877182223588987,-3.6262126893748863,0.5982419591423288,-7.88029794837243,1.3215331767912062,-10.504573901207769,-0.8568441787018347,2.432589260383754,-6.151615956333501,-3.2475440743992507,-8.760981563393194,-5.672195725622454
8.259103914781054,-1.982196760889374,0.0769452976793226,-4.526343648787931,-0.9125113323369182,-5.86626791751571,4.337781889658604,-6.565736865532863,0.2571834412177228,4.297227650412352,-4.938375716615949,3.676559785841576,-7.737739144870773,-7.782090710292366
8.72023323132824,3.3289409846785687,2.106193208181653,-2.8469155278222056,-3.586954323472761,-2.1807129313372826,4.803901366195731,1.47887656666191,3.3300895778278794,4.082246078050151,2.469964800889354,7.519011019746031,-5.602039125425451,-7.694783853795304
3.649298658723918,3.2770817105374923,1.7988783992200423,-2.3393805264410155,-3.8057058789998286,1.1097091156406158,2.4622972194156567,8.724187685867582,2.8452281036474028,2.8794756241068864,5.27477910881538,5.361574714526945,-4.252735473916118,-6.945038191227591
-3.5851271432043745,-0.409218024689221,-2.281354806226628,-2.628759949846013,-2.806401004589582,2.149968977361169,-1.2402112185481542,11.373642725881162,-2.3754475458256503,-0.7503378707578575,2.0843575948880364,-0.8093116297615115,-4.320672209770569,-6.663618940068465
-8.214973362403525,-0.1882911681471647,-3.3239712785592457,-0.7221815121453545,-1.3204625961818357,0.6710072289614644,-4.270321349432408,8.736901326862954,-3.18417678210713,-2.1498487191677844,2.4053380087760026,-6.31715662787342,-5.238654046328772,-6.994800732572877
-7.909796040470635,-0.7102833656127177,-1.7126897572469382,1.049772107833561,2.08815162610459,-1.827890884305992,-5.391456470086297,2.708410512725102,-3.6731678572326105,-1.3105904226557352,-0.1072526398926156,-7.927207003978692,-6.08124180420667,-7.572297397918335
-4.260481280664145,0.0681620236802668,0.6240010281045675,1.504909747057248,2.59634429050478,-3.274414485765302,-4.755869721577273,-4.09543492829528,-2.7178154019653133,-0.5911393695334864,-2.0126629471550657,-6.071468902709565,-6.215883002039863,-7.823145379179947
-0.7766728195347348,3.5891412983978164,5.114637499114896,1.964662908787748,1.4027690051408122,-2.622963103452202,-3.422122767977587,-9.60366451870166,1.266519028031985,1.0118375558324053,-0.7910713838992112,-3.5196060956766644,-5.436585908033587,-6.644465997918645
0.4572672982655383,2.4998523574094387,6.632334774288298,1.0839284358982688,0.1276621553912256,-0.5666848617737905,-2.415956252359553,-12.378113381574884,3.0020441829980538,1.842466941080314,-1.828443497456819,-2.3378241675769544,-3.967512970292015,-2.540761620861357
0.2383456101456786,-0.8336519033139205,4.905070170498196,-0.4196449955437835,-2.678051016215861,1.1135381047293809,-2.183386707367581,-11.545717236601956,4.984787474851819,1.640794714499862,-2.685700954640925,-2.299236421177224,-2.6233204661567786,4.81537229005497
0.6834542984378551,-2.4454408392791853,3.130584199353424,-0.4743779636713436,-3.007724394389509,0.8915765082094671,-2.717707702501892,-7.4599685431642095,3.883050283892651,-0.0791849904228635,-2.925148682528784,-1.9804123324208425,-2.742870189650372,12.747902293509169
2.5772479088664006,-5.510813804932117,0.1092960624228126,-0.7204116425940492,-2.005358221085293,-1.5401429326688063,-3.917569574259319,-2.356040044490861,-0.6029605806630397,-3.9344667909473214,-3.7472822293799055,-0.8633757366185915,-5.350722748324509,16.078543342120724
4.441876820143712,-4.985775704079807,-0.9895993893601408,-0.3426161054064269,-0.5167295063739069,-5.1903509306238025,-5.606359304923511,0.5364652584078691,-2.5737949487931173,-5.881457259137901,-3.57764364959187,0.0490027792209355,-9.851694524922571,10.883657029719146
4.117956467712271,-1.165498584972946,0.3611533151157208,0.031256495606141,2.1882440519890376,-8.315719849785339,-7.211406662136811,-0.4945730251768809,-5.6259214345284025,-6.004232675440145,-4.332460862467964,-0.3547753600636802,-13.550452004323908,-1.3073989155628285
1.0073572619732714,0.3786665427489689,0.8452301945900492,-0.5668992928754086,2.27631991976855,-9.149349386578972,-7.673704285599637,-3.69676128592098,-3.96038600273008,-3.1153232050867,-3.325013853135525,-1.696810078837827,-13.045591299624412,-13.307814857261336
-3.3518013629344017,2.936682522778462,1.2565127570967836,-0.3779326004543575,1.8853333517574895,-6.63694181260594,-6.0154436201047545,-4.8696650592320765,2.70291682838461,3.9663458831662552,-0.6042976990774329,-2.3206349421459658,-6.881538461684901,-17.400577469263368
-6.744663578517784,2.586863094887644,0.5453114771370673,-1.0762404507484205,0.7650341129017773,-1.090081534994864,-2.2187809716335494,-1.046409200964214,3.939789855100929,6.596163189509093,1.0576878501589144,-1.143279916562113,2.7217705051250043,-11.788737062431776
-8.059899069950712,-0.9972790893389104,-1.8503988173102812,-1.9969926410081715,-2.3426907932359877,5.624363495789886,2.4643251366577736,6.455976828693632,4.963335711282377,4.887429235220668,6.487676296114475,0.9904916780063076,10.910500427564342,-2.3118181683681964
-7.680187630961273,-1.0868616807728595,-2.275998164345464,-1.4001810228098313,-2.076607258491803,10.821610991923766,6.248990539216269,12.786616828902464,3.1652194585436084,2.257326857613507,7.950433278560244,2.0943988195946712,13.573526480883976,2.643680263923926
-6.562605886033541,-1.2000790265231158,-0.934019015522873,-1.7790351270935956,-1.3566510142699375,12.5081174746106,8.05875844433012,13.711994929739271,-4.017718769947301,-3.2503084545234397,4.423806383922672,1.1812232917507224,10.396947839942952,-0.4036951959799468
-5.420498735467362,1.7365649838756023,0.2495462050108799,-1.497703152596586,-0.9181644409178455,10.657079860047553,8.162578403173217,9.286896523855509,-5.025340006408066,-4.537518428561376,3.067065398856067,-0.632486984161833,4.990081635902044,-7.16531241110577
-4.840218211357378,9.059993434508074,1.9610694337993648,0.4387725007865414,2.523260209783262,7.166374083831641,7.643407267002082,3.5027830677157006,-3.9508288543755103,-1.0248286345337652,-2.4691129584748044,-1.3537524597841148,1.9363549431338816,-9.951073093419115
-5.634061044059717,8.912632755365182,0.7136768190237756,-0.829427868584525,2.412319009990009,4.4374819508708185,7.26989584139163,0.3657984840785957,-3.824136388252076,-0.2877421004056352,-4.834045995156966,-0.3363790031549811,3.277323233782692,-4.948675197870049
-8.321296682245361,5.698638099099258,-4.010091041602366,-2.5860719295793246,0.4946121837918521,3.7122976591666657,6.898391021499069,0.4102931711194628,-0.4319722161732425,-0.8728585440111105,-0.8474026628593975,1.0315132248234598,7.336902231779867,4.562937251056855
-11.943410859823423,0.4344882096048621,-6.792455625950058,-3.959974128231692,0.1452784654049318,4.483573920128716,5.9362604387717965,1.0536649605330055,0.8304134180141491,-0.7605603993228988,1.4295979019622207,1.0298524521271304,10.61493423183385,11.764656887314567
-13.796991147956131,-11.319892866079964,-8.31819699457559,-8.942636158327096,-3.2618384865430894,5.286969167707909,4.28911863621758,0.0989065956861878,0.6140128818569894,-1.0140996246749552,5.051271198360882,-0.1910050183781564,10.821316710252134,12.599404289581532
-11.150950705247322,-12.630749081098324,-6.514478466077871,-9.292279513953524,-4.313390328128372,5.0250801928069535,2.745198534000231,-1.5524732074289815,2.695401990283181,2.4576336811865067,8.524339726831055,-0.4957774538657276,8.41116917948824,8.540350720391736
-3.833076714370833,-8.170521474098429,-0.0613332707805584,-6.363204996582985,-2.3502966494632105,3.7286379378084433,2.3655613786802263,-0.9107453724280816,5.083692819696498,10.10317066765669,8.946906481082639,1.9360383121752849,5.658078335034574,3.763884676901234
4.8819510309301535,-4.160392712196871,4.038274474714141,-4.916984359038125,-2.27690152079569,2.3483053410927823,3.477692509967952,3.521106881605178,4.389989064576468,12.09912794431786,8.924571577591427,6.349975796603999,4.554698410592671,0.5856268596240639
10.440769492966396,6.784522968604248,6.366758615319522,0.9844730821317864,-0.5182300240187633,1.963279966116417,5.265662048863,9.526680953915871,2.1685590922217424,8.789792017267967,10.889451749991457,9.79840266816624,5.520876119807141,-1.72007287059661
10.613706571560655,8.857077039121338,6.964058586311432,3.4754140980948502,0.7733616703146475,3.037454710246223,6.361550072262588,12.809821742471,0.544022244914348,4.75159783666725,10.682630887296355,9.96581190539743,7.664620690513267,-4.037200580924335
7.209813202343426,5.618393510022619,4.261193614377914,1.7152927247036396,-0.5580539286693855,5.110038340682934,5.893431399981807,10.932378217141675,-2.5839928787084894,-2.0851767926837894,7.737072033823651,7.49290753683222,9.741176141756227,-4.674982943108219
4.1739513499351375,4.128613323457031,3.3567488411711586,2.355854845940057,-0.8829300417520738,7.002069667328961,4.061162574603941,5.621529921569348,-2.8595971847308834,-3.8145092242048815,6.515155117541072,5.243165155099533,10.669038476884571,-0.729689425876316
3.837039247123755,-2.571869810274201,3.91869124558156,0.752208803540034,-0.9583033123469844,7.426787950691903,1.8123742974225363,1.1838612894005252,-0.4348590263630701,0.4975530777631011,2.3845060966674985,5.187444935774892,9.5042733242313,7.625737537424584
4.979976605349975,-4.66009934429729,3.9743363852268927,-0.2707333573757701,-1.4147584583767825,5.727628711625869,0.0320002752480519,0.632543553775335,-1.5683634127822117,1.3099555741610087,-0.8701568556591533,6.2094304302257655,5.655984114422182,15.144600969263522
4.592471698927099,-4.043529361985952,4.490443818722127,1.5072564827691275,-0.6297642512090142,2.328175656971084,-0.968426636735586,3.227436531223248,-3.487894596330581,0.2975806065064507,0.3026221976790813,5.26832443000778,-0.3191166509083558,15.13161163387356
1.478703147718818,-3.9468733771451183,4.139368686404506,1.688521971285157,0.8907963945787116,-1.4430910580756375,-1.2947411904219734,5.53066649350842,-2.5894719833587816,-1.758551375038872,-0.1447166414539542,0.8207199963921425,-6.19417586001029,5.912211106104067
-2.0268582152750696,-0.714922565983509,2.766753398228118,1.5101175315665818,1.5359279899507272,-4.11560673220481,-1.0108907210341442,4.665012311123135,-1.5723512923270828,-6.4583583912846025,-0.6246474969881847,-5.068482228524374,-8.965616754277534,-6.34615105674105
-2.0638182572392623,1.3423108863785491,3.0203385638519284,2.184503209862236,2.116533632279305,-4.965872021510094,-0.0181977593728532,0.6603405675984675,1.1451816372114807,-6.703087003911809,0.6061497516028106,-8.25725812334997,-7.012828946504854,-11.96788480839284
2.94216099545865,3.3874935880021093,4.756378902995289,1.978158949251116,2.956309682755884,-4.446112846448799,1.543411823994134,-3.948781213490861,6.266324621549802,-2.378233109290777,0.4062515921971256,-6.336177979635423,-1.759346186530479,-5.868580154179739
10.364533740051511,3.6877607025445753,5.590909268659642,1.5760501199296728,2.1561941412464622,-3.842346012081116,2.8889360879546477,-6.424336620294554,5.178448056349671,-0.1371266781473768,0.064430986989163,-1.0084655700992755,2.9482472579529717,7.812841767602009
15.190644134686435,1.8433754865463596,5.932776076249292,1.9840584765350948,1.9097399882445956,-4.331993282400298,2.842563801414798,-5.779305774348771,0.687897108760598,1.319975909019362,2.305653458333234,3.2752987501509097,3.592291854064697,18.72827154559532
13.892430468948008,0.2689915494776401,3.663295205488257,1.752550904347984,1.6959478464324511,-6.022370529830454,0.7762186345927518,-3.0148396792892957,-1.4602861679259287,1.037310406736424,2.531845833186863,3.10396214716468,-0.347158115132828,18.32498118961051
7.004715934106287,-2.875398306877772,-1.8783098590802936,1.1790764768639603,-0.1148116203087502,-7.669906058815442,-2.5628301211750117,-0.0422328875683319,-5.509240961863685,-2.204773096044088,1.326012831707992,-1.2131161434990076,-6.079678116845415,6.123387048767938
-1.4609467178269,-2.7306549048435524,-5.039332226584909,1.2853849998375977,-0.9926857452075069,-7.456742423712612,-5.242846945572282,1.5015678911792207,-4.745174909518434,-2.205020815564786,2.0308207049533165,-6.304764051041701,-9.735110984997789,-10.398506644419967
-6.838977530979264,-0.1695995711478442,-6.190775760424626,0.7309146038117161,-3.042417074692182,-4.470435616855298,-5.443816614532707,0.8905424063744647,0.5564792810744145,0.770736386415415,0.581089383835458,-8.722909004793706,-9.142393564886689,-21.43777095679316
-6.530094764037173,1.14069063483084,-4.075578900440043,0.1888332012512933,-4.472979709062809,0.1758718043384703,-2.91294016086556,-1.4670993845344356,2.138795752699501,3.275122362289909,-0.2852244433542762,-7.360322095134933,-4.955430670195369,-21.28748005678673
-1.0457890121829791,4.303054974623446,2.780573208128849,0.0547175611561975,-4.043367937902178,3.650654719723335,0.6289335486902701,-4.072936284624731,5.120589841691452,6.486489158012236,0.6832482409041731,-3.4998834433759782,0.3423524475236803,-11.243280838052064
6.648348405279307,3.7658036499694574,6.485280064876984,-0.8665100707102107,-4.529905773165096,3.2285674894768235,2.5511336616112743,-4.952792161742082,5.092599915508325,6.960944254190189,-0.5342383366380713,0.7939881875310064,4.2630403134092845,2.123526441110372
12.74032013260981,-0.0886709277807198,7.402851055992054,-1.273390532158115,-3.3345102919438383,-1.5930655953879338,1.1174796702374152,-2.9965797483943533,0.8028340207590091,4.036026797300488,-0.4485745949566913,4.025912700564824,5.496100756729909,11.518293980366307
14.443168641204188,-1.3401716891053854,5.729684196474137,-0.8004014408316773,-1.9365280667643825,-8.37631501252585,-3.2541646183887707,0.7774193249732377,-1.3478927282076452,1.7339710940027515,-0.3076523923590661,5.46557374121555,4.083547599013471,13.353081007121409
11.48018420414293,-3.624841138963082,-0.4540852265060825,-0.2349548148325502,-1.377301829364538,-13.150847606462364,-8.150107452615238,3.4343738298654785,-5.19179755825076,-0.8216499489862873,-1.7110813574438604,4.895646534745978,1.1181558627566304,9.52770599658409
6.3297971686512255,-3.7548161293669424,-3.327465255728623,1.876364176179062,1.645435707601802,-13.002089901132312,-10.636026658334924,2.2694556791328537,-6.364570112329986,-1.498834628830572,-0.9587555812976966,2.799798433742062,-1.6607510970473491,5.4997364319766255
2.683433772781356,-0.873017731571606,-3.108497573108796,4.2473979575286815,4.33721286659017,-7.950824217621715,-9.120893328227965,-2.6340490224842483,-4.567668738667969,0.5207223435485121,-1.8793578919962144,0.6739839567928705,-2.533423058795844,5.792436239305001
2.8200284101440687,-0.6090205354665215,-2.163683472949013,4.727331622712711,5.373386910442569,-0.8101296429798239,-4.440465509598006,-7.904819345781018,-2.332711038838794,2.0945705164836954,-1.8505498804010303,0.4153518827775322,-0.7704175517177383,10.121816333986317
5.837160051997131,-0.6761562052767536,1.2463488521064148,5.288131059658664,7.218717795155845,4.753910960406849,0.5892421788708866,-9.377966320997205,2.977565037083775,3.924171993568807,1.1536224697142852,2.713695107785421,2.734029144272153,13.39514112097465
8.383925610599544,0.8284735136262626,2.155660814326376,4.227737462898628,6.582665950182112,6.508841625473215,3.008360481917771,-5.6354836122521,4.715416939399521,4.320157614258744,1.9327415490570057,5.9496059459634125,5.952400137208908,10.03944130462152
7.510937634764658,2.2280192341703677,0.370731352553874,2.2181808320682297,5.4973248439074975,4.785087601633587,1.822199962033761,0.6768478617625838,4.55685719437372,2.664149979169132,5.399851166826457,7.134105150189811,7.17333904502685,-0.7484484647200427
3.2386905183733585,3.0474841590251365,-0.036504453792718,2.164628879241885,5.145357062782905,1.888369782846824,-1.1475750175081068,5.1294681886454345,3.712162813638423,1.4078227436048008,6.134735032716143,4.447055792647287,6.134300875738472,-13.579337305508307
-1.491867226397785,4.4335261774434205,-0.0713914070021976,1.2204233509394653,2.2020023951124448,0.379811655244227,-2.521556072814533,5.307916415294905,-0.4969555069316029,0.0088508257214292,1.2371262809977472,-0.9789906870465614,3.727657497327847,-20.97483838873517
-3.515514479624805,1.2230786939229064,0.9364014924038006,0.7151161862379759,-0.3550256080897712,1.428356266080538,-0.0093543007145591,2.551242536692037,-1.1586589807023906,-2.443111789046739,-2.2957119226970857,-5.908663695705705,0.6863607102807521,-19.60287522712694
-2.357901213599608,-6.216219553079094,3.61672561992184,0.924035016109769,-4.128575425477477,4.258889119620751,5.587207322884964,0.1406931305923677,-0.241999145232849,-5.69124798205065,-9.124636142609695,-7.765148633563964,-3.142286173866978,-12.97043367522437
-0.6884704289059016,-7.646995267514757,3.790848949159338,0.2138907037079293,-5.470707889194444,6.924041406819811,10.792123499615291,0.0014296746433046,-0.6322899183649178,-9.87334409084047,-13.197021724977755,-6.609211253920428,-7.980325351940877,-7.987614108099322
-1.8731331623983325,-7.940423140316084,1.529813103430295,0.5253283759316946,-2.891651156730276,7.741443574699801,12.147176469845334,1.2788638623526936,-0.195784705558719,-15.137624792611357,-12.167317078321188,-4.498383721161865,-12.758607780023,-8.585397242939152
-6.836352540092548,-4.014578940105879,-0.5613445944475017,1.363158968214672,0.5098404141913019,6.353143867420151,8.982410828931606,1.912009281785352,-0.2148862484202902,-16.571470318016175,-11.858560113610404,-3.1595888152816016,-15.179392030292696,-12.418374829766222
-13.051296645424372,7.245023049434779,-3.318111355668942,2.1428894676158614,7.264311819065124,3.754059229084717,3.84343138606863,1.088634864241314,-0.5123725958602137,-13.780622731983534,-9.600013833783104,-2.552870670295931,-13.738830059565077,-13.673795600274303
-16.539109570275272,9.403231595168846,-4.226189459192652,2.529413490836206,8.836760963419643,1.464383029482789,0.1763423460506317,-0.2314353867338781,-0.1063343470778519,-10.454455201549164,-9.00961934167616,-1.6770775716888693,-9.780011299612568,-9.044360017457365
-15.093885033422154,8.33821038103385,-2.7686901890825424,2.433205927763076,6.663202375808937,0.5643274152117499,-0.6327838790133455,-1.0698901277737605,1.045256205922518,-5.375533959146643,-10.195449664767146,-0.3633803575704064,-7.029723030811383,-0.939745753347097
-9.956954119576524,6.430451349184144,-1.8786856552777167,1.8514031969957456,4.352289399114833,1.180008962850124,-0.1764322884964428,-2.078919485792966,-0.0247438176777823,-3.433082100432803,-10.842197074479277,0.2179180265917892,-8.427601869844054,5.044039652490312
-4.632020860630078,-2.0823563754682697,-0.8958626617288112,0.6756409717726469,-2.470941345390038,2.5027647691780857,-1.1606331420868798,-4.85029764132517,-2.823939825825777,-5.45361389928476,-12.474704272835927,-1.0229453198447231,-13.119468536743796,5.583328248953421
-2.038377256450317,-3.7665892486166177,-0.0492316697188992,0.7223655357564829,-3.1935623289859114,3.145052681141493,-4.649709662167822,-9.493632817263205,-3.243588725679154,-5.828785099399322,-11.655102070970958,-3.442953212852416,-16.816111432541973,2.462198964575805
-2.4909613354532354,-2.0298962008633046,0.2145929626980383,1.1209789952971614,-0.5005211571798562,1.7434703150095745,-9.068847723023552,-13.382953993198951,-3.110205838616162,-5.769284969478599,-9.596685288959756,-4.846421119367079,-15.564250297663191,0.1881537036873339
-4.048477028744259,-2.441949272890805,0.0994774288618122,1.4408264517692009,0.9747174271161344,-2.2126495815534213,-11.7860709261235,-13.008856871884063,-1.2929975585062237,-4.203628851583559,-7.729508931383503,-3.56182473150713,-9.430476147414396,1.183310281995091
-4.592228282811789,-0.0644881461143439,-0.6622297987070364,2.8330622343601264,7.34347648192543,-7.662373438552208,-11.561499738632053,-7.532270978163893,3.18546894478132,-0.1755819901335079,-3.4336195486782977,-0.332058501113238,-2.461044026575962,3.590532779891589
-3.607778983487037,-0.1627617407459805,-2.623946839249917,2.657540384670532,7.822121887758793,-12.062586502986562,-9.448274989180447,-0.4689496156179586,4.363179772430473,2.3466936736140926,-2.076159716779711,2.0211334649540333,1.0792557387420345,3.72879958042526
-2.1888454082350397,-2.264964102926136,-5.958600172416992,1.4964965107284456,4.153216406355165,-12.69940520019432,-7.453773309976327,2.609482683685968,4.126375449691032,3.7452334430281287,-3.3852180383546524,1.0036358545377198,0.4672032787473483,0.3583503242662971
-1.5748449265020668,-2.545797264778181,-7.45204488370725,0.6829141504674512,2.424522166260737,-8.609488324087977,-6.548627623658945,-1.324718171310252,2.983370629582023,3.676606065766845,-3.90921902149888,-3.287355199137039,-1.3635920023422727,-3.7640968202812246
-1.8239157039620864,-3.2250248229050653,-7.039746011204446,-1.434386730469171,-4.16375643720178,-1.6325258917521523,-6.093974362447227,-9.929237872915508,-0.766920757505913,1.2533321832397402,-6.390367017456863,-8.128242513495252,-1.2021815778258826,-4.56096548959556
-1.878890786625448,-2.912953591959216,-5.788370992151931,-2.416301563182476,-6.415801712095793,4.530914542870448,-5.063980441728205,-17.073714758860632,-3.1227664900988907,-1.9772639616096268,-6.801156244363924,-10.33527555155888,1.2315827115838545,-0.7210550097951227
-0.8013734805218178,-1.5292126422507302,-2.876537318624929,-2.279303308505717,-4.298516260862451,6.815906022549626,-3.4839953267417627,-17.529388818420244,-5.649911734574211,-6.440912392175726,-4.081806190586847,-8.63566315685091,3.498913975115954,4.89516049866296
1.158499245957671,0.1665986643641839,-1.6704216504667164,-2.68953436929439,-4.611613544193856,4.951698880913796,-2.3900372294867798,-10.77526897973084,-5.568653852169163,-7.560745367802613,-1.204963411004436,-4.262063420267396,3.5544016466259336,7.825303719252844
2.7012657712220687,3.118454467006387,-2.344530761547644,-2.354219920765371,-1.6639754583704631,1.4820593113935558,-2.3943275019695136,-0.9221678365212256,-2.696841478564253,-4.714902345650354,1.7856243712943534,0.4140705010245256,2.2028958013490865,6.004180781233117
2.616228344404334,4.251517205434936,-1.6951536605768962,-1.6411837204180002,0.8098611198844095,-0.4214933314212885,-2.610504832657369,6.711412467223823,0.4978659915425679,0.0571899271895347,4.064981856701794,3.684233520930036,2.212653061827268,1.492019536429865
0.7930764081188784,4.500948397152396,-0.3992759967722067,-0.9767327403767954,1.0289366081795857,0.4602506388311269,-1.3713418803541515,9.191594502025282,6.476296881342741,8.165583160744275,5.466758138414035,5.174492678550564,5.098776701149745,-1.4487885774902622
-1.7609158268317344,3.912487647204181,0.7247641012921898,0.6686605780879197,4.318109505227199,2.5662789385991687,1.8379881301596013,7.030912025384083,7.323979695087488,11.400462766362203,4.996198166140411,5.233035909022021,9.102781948531458,-0.0001549391340347
-3.748787023820512,1.2153275051546402,2.0979945236010806,3.033720391112821,8.120145670754413,3.088664102183486,5.314792692790746,2.689713668063206,4.75297656670926,9.1770455962515,5.761319916895117,4.119504019672945,10.597938670508142,5.0155371751421285
-4.423015815632624,0.146374555936384,0.8663817734510105,2.705188547717624,7.241698570732818,0.4622727043445422,6.318068801200354,-1.486332762818705,2.4244885706181805,6.307017308377562,6.055457456415724,1.9301296065744395,7.540129196938381,9.964595111253658
-3.831683603727981,-0.1385098929338238,-3.284595889140096,0.9045212749732422,5.20877225303834,-4.301194303922159,3.58228726325288,-4.175874169741348,-3.533974626096994,0.7122073401538102,3.4468645656074246,-0.9317196518507842,1.4983133868161076,11.193875281023791
-2.5646816235096423,-1.623637055627885,-5.893419047913556,-2.186097144714265,0.328763381020041,-8.405464302070527,-1.230389562252583,-4.808508487331466,-5.121376163433307,-1.3460597620265782,2.752610562404364,-3.600169785954336,-3.683685660037696,7.426527400759227
-1.4278129590933304,-3.063100578079465,-7.462100028858557,-7.681252351930911,-8.855229919807607,-9.321012326601988,-4.624812553803309,-3.1229239116982512,-3.921602247938908,0.9153648526896748,0.0870656339514583,-5.245591386613086,-5.162488061248581,0.2317150543103139
-1.208736887126577,-3.642239494852511,-8.048098129825572,-8.983436466305703,-10.645972299764557,-6.369467748206262,-3.983634385483682,0.8285154852799081,-3.828904097409165,2.080569051978156,-1.61927047051487,-5.625578032630614,-3.1562191717240324,-7.209539452301698
-2.3684196657351464,-4.323345343230047,-6.705603315211746,-8.335360050408877,-9.669384778840705,-0.8352113328192701,0.5164188761310271,6.4830089479470985,-1.5827082615827357,3.700920227959486,1.1152385661576736,-4.988238689278944,-0.1362702431709976,-11.832086248216086
-4.635410125668628,-2.144337961736895,-6.405169003109462,-7.039551833030365,-7.814126336585096,5.030875543304617,6.316003098185533,12.796810349325083,1.0523905278129737,4.918453139480045,2.8665519990126764,-3.50785085541088,1.6114313800758424,-11.992942557822218
-6.904885321049036,2.9676877080244526,-6.952355495288848,-2.840881371230201,-0.9836246612740664,9.102814705033126,10.540228541676171,18.45844974097838,4.162689021050412,5.045238573302179,6.08039058027275,-1.1174711051966426,1.5561591032209208,-8.150640697989559
-7.847445351233745,3.732670257957112,-6.553967961019721,-2.636539135634623,-0.6890440163290334,10.017649522528473,11.785628704590325,22.067600701487702,6.002644288936516,5.447017478791456,7.9982838308532225,1.894191885754367,0.4980003266893362,-2.8545615080953866
-6.959188041474008,2.615464884928019,-5.70496709067544,-3.8539255021843184,-2.773770219927954,7.534035055270792,10.422049532338406,22.42280371357884,6.889265003024783,5.7025206859779525,7.031376472764351,4.299205605234285,-0.7781028257156279,0.3013405390824175
-5.101224427429727,0.2723611964256308,-4.680541470312409,-4.7172972893202285,-4.033638423771104,2.817437849309208,7.81270164118591,19.18666341054304,3.477675730081233,4.599707478251516,6.117995189010966,4.430538113095235,-2.0704610123299645,-1.1766333360569234
-3.8060251005353054,-5.732900599493492,-3.278951486881351,-7.987761091073802,-8.959202659081535,-1.695885270050853,5.529649023470279,13.58349137352332,-4.5892905864618685,2.125324081478756,3.7838066734378897,1.701043649403923,-3.1834258509828555,-6.531661128656694
-3.788103757083121,-4.846230777245265,-0.995565768792648,-7.346454257095608,-8.557204994525279,-3.360685614349821,4.956906165293493,8.178813968650594,-7.159587727976378,1.660829432516862,4.03481890866469,-2.295026850116936,-3.33399599531712,-11.540660089638228
-4.068840482423347,0.2633637817568136,2.2365934658245434,-4.906718286914157,-5.759360217347092,-1.033638669882187,6.851194018890308,5.3336512410632935,-8.527220434557215,3.187081851715869,5.857612121531964,-4.47619234239011,-1.590990765693039,-11.20493693096768
-2.7565595509174585,3.6386927334269066,6.425432198718433,-2.6779519004922303,-3.5264226526436877,3.833830378657901,10.649836813759144,5.404406383623048,-6.077497616900466,4.858022221080009,7.547173390717603,-2.5049833846627507,2.023412294020474,-3.7621003825063895
1.0338189721917104,10.45636727509276,11.760911794450728,2.547594291135675,2.526791286748804,7.9152085224063455,14.199294481927067,6.469407047919418,2.998162776715648,7.421401492598191,12.030098895411191,3.270518431446192,6.117397301973156,7.342707484788434
5.904923637139603,8.170835331671928,14.102880446973678,3.688197108037683,3.126648470965238,8.312229014263437,14.734076625341828,6.115954143933564,4.662748973898148,7.472344889633724,12.753307850529096,9.84968314732734,8.89281541729116,15.661322293654903
8.937761895367117,-0.7005069905286717,13.138827883452056,2.513187714159488,0.7818156892517099,4.696896129674144,10.81744107819867,3.675795170407895,4.0556010098724,4.567715878362387,11.037686966603228,13.570483465183573,9.647708606093232,16.63155586861521
8.05829715669222,-5.383421877843254,11.109704709056848,1.804934111608837,-1.0492252101359656,-0.5027377658433636,3.694158081727437,0.6589600591010765,3.367596343747385,3.001008721637481,10.573894234477176,12.4770829316123,9.317322502269718,11.000968523917097
4.008529855862946,-14.094966705557306,6.9143912833333925,-2.337342679320005,-7.725548810885652,-4.0441016015032005,-3.323822814508105,-1.046101392728417,-2.1070955583501667,2.039951379563195,6.720945536077835,7.417422579954433,9.51947838349713,3.781809227709516
0.12589861727281,-11.047715239996188,5.082847794358191,-2.519375105435385,-8.101637594715276,-4.288021060823667,-7.123248614568638,-1.215982723405034,-2.2312804613361803,2.6180330035439443,7.121841502890282,1.407023845026913,11.095344187273213,-0.1649299800331789
-0.0388748555964184,2.22593271752239,6.068083687100488,-0.2182415549731647,-4.5050469593327644,-2.1192493862215542,-6.827477162979278,-1.29132967964631,0.3936741119449222,5.598651809001824,12.00313982092833,-2.058522205879001,13.573207040746864,0.2470191521504716
4.564791412952161,7.530150631644989,7.244937605018217,0.8752364509364661,-2.2377998750002748,0.1905252246270379,-3.937166922448,-2.338144232009199,0.3412910865673343,8.517869272806882,15.96801428512616,-0.7596594077225518,15.923303981997265,2.5997163620211268
11.514339799357629,16.208252930541992,9.82263277489596,5.218590414027935,5.547596695100409,0.973206247558494,-0.7091505249937882,-3.374191822991236,1.7270922179675787,11.84287191914302,23.243018399367763,5.116075562547451,17.6295162292314,4.189982568308437
16.37249652462981,13.027732841501347,10.637814091225533,5.105907007091457,6.432321588517139,0.2801526320470202,1.532014460114624,-2.214742766310508,1.6773256830926948,13.448620025422414,25.326785512900027,12.873754459663983,18.918046955548675,4.482418613271761
15.523710821460211,-3.879529745781373,9.338395241669785,1.3024676416539012,1.647277860656358,-0.5976754800881281,2.6767139330333407,1.7811919961959577,0.3639474994303542,12.730833510052223,21.83111342501226,18.43529855869508,20.0449282863093,4.439605601503331
8.518866894853488,-8.203214629796586,6.118454110748357,-1.629216561272284,-1.5020342286735189,-0.5008261883257319,2.868801285212271,6.013815090359742,0.1450991141234157,9.28477679635716,17.351436992889806,18.401253003996544,20.599523012400027,4.190102749312814
-1.485636587328372,-12.4456826254651,-0.0352805156579459,-8.491958380084396,-10.274969884053526,0.6007921251377866,1.705721201267579,6.1878930667259056,-0.626638092792514,2.14906565453404,9.433931107514132,12.044728351637218,19.679446983234584,2.399269429591641
-9.42350128173848,-10.637812006869906,-5.221969134387573,-10.287776335519908,-12.124990000871389,1.6605460533405676,-1.3983069636287837,0.0546519330733872,-1.5761428316698909,-3.1177282588614137,4.034867543991488,1.9214101878632164,16.73577562947014,-1.522190524611915
-11.194711925595811,3.4834672415226344,-9.579705990523305,-7.338955224705052,-7.336994764119825,1.375597685730213,-6.170435902259555,-10.122823468089678,-2.8738316164855084,-6.633182596070968,-0.2875475717686159,-7.540493338885426,12.125148783016355,-5.084370974489275
-6.087583875684004,4.945076259445501,-10.550114943427584,-4.890976535155869,-3.477649810290992,-0.9529904129337864,-11.103934232542542,-18.896181245079102,-2.740489338028164,-8.112184623372906,-5.0903720102350345,-12.716048958090823,6.771557739237892,-3.8419947031155743
2.747228326246386,2.805333057160908,-6.900124913359019,1.473520463284749,5.4132188504188,-5.00492612131859,-14.388634105863389,-21.759795514346138,-1.2285813853223728,-6.076181378225295,-10.182926067762889,-12.943708058226091,1.3625516848782129,4.0327380884309605
10.216083182217062,2.956008301298337,-4.354882170053499,4.042232504410033,8.080481524884826,-9.526448264054466,-15.31730784836168,-18.460928705443397,-0.6754944672054608,-6.363386670473827,-14.778290357660993,-10.641332647292984,-4.004929073671974,14.169163337968255
12.493035734250723,-2.0893264685320068,-2.088548921616739,3.3224456166292,5.562018371186889,-12.80337897936272,-14.741120012776603,-12.662643436393637,0.0128468669858049,-8.656836345195824,-16.68743435955508,-9.290936096203382,-9.373247014647404,18.00649457429506
9.386614627316249,-1.5715911888279788,-1.7716044806308886,3.572374397311071,3.3237761799289083,-13.420728879983471,-14.087670537391546,-8.512113852125594,0.0348472349983656,-10.63708774280523,-17.904862576124874,-10.759415657367526,-14.243181672822743,9.89885317246069
4.165680898301844,2.3549547499259917,-4.655521312782274,1.9661174684022384,-2.9235192760671174,-11.06924454902321,-13.923586737469009,-7.354742723927302,-0.9891503939026508,-13.455602023132778,-17.728776049986134,-13.909652907152008,-17.492629737285597,-6.770710821850912
0.9719507446375246,1.3878299882618077,-4.3845192094314935,2.0279480414658075,-3.787626415175117,-6.881645870336797,-13.473882908266203,-7.378903202536549,0.4737341012229859,-12.869824217340238,-16.319344081828334,-15.50382176105586,-18.066884634787584,-20.722525618708232
1.80928824529542,-0.4665244072367273,-1.4491184137822526,3.1460467759348623,-1.8824905837837755,-2.831786981616574,-11.490426489605966,-6.056681706669565,3.5107225267115787,-8.434047968952704,-15.002219195606711,-12.7158692362284,-15.81568143324921,-21.24139263783445
5.418229696490414,-0.0266091619096696,2.546322609436694,3.4879628662871203,-0.3867024449092488,-0.4025906844136102,-7.531372032639069,-2.788166522877191,5.16946187891446,-4.274187440866666,-12.4216165597692,-5.394700321388712,-11.747754377189151,-7.069859713581991
8.775245677904024,0.351921449997135,8.883629894523345,4.179231628468329,4.61763759277712,0.4565170303385457,-2.4510682478544936,0.6467471122662687,7.248245871230206,0.5773401395287479,-7.349420562553224,3.5797144712020668,-7.55993953921444,12.144493084488488
9.798521309564308,1.3912054026751393,12.274902946878282,4.66917353675674,5.613083983484239,1.0529974315345498,2.170917299059738,1.9017684343035623,5.848066472562304,1.409290285856332,-5.950199828437284,10.091287507709012,-4.866456261085887,23.39055293716774
8.939510946050177,4.114876836716893,12.433953708577503,5.289844148340774,5.289898745230798,2.450063139600616,4.956042549685208,0.177121021777566,0.9357742428769392,-2.849215831197052,-7.254343175635586,11.422231968555934,-4.583657568678518,20.430862687203444
8.427671435055345,2.39822677318613,11.837214429409164,6.29234050088106,6.560666981315656,4.153636359444818,5.283009013285323,-3.2897618508606,-2.2200558581877115,-7.491426706936472,-8.954076996150686,7.878465006455031,-6.613493499372908,7.960053478880354
9.999287504349354,-2.377359389069424,9.150828518225143,7.400000160777608,5.056228044610599,4.460349181580455,3.4203822288130823,-6.5252354303237325,-6.546762377994151,-13.921731322401202,-13.867109197396529,2.382048645578493,-9.818518103284305,-3.285744544428212
13.17534829571639,-3.314835942148875,7.127276982338582,7.939700015484933,5.445708120578737,2.3802319201197406,0.5268450146447776,-8.463558334557433,-7.724533161763677,-15.125220366402436,-13.58945605488136,-1.5075101045263182,-12.39271439646518,-5.610484375506076
15.554984321798544,-3.9154023218089233,5.9711920036869,7.987998933080619,7.238369254635192,-0.7337949969527244,-1.5549100124994766,-9.397771192054734,-5.555888268905923,-9.908716718303744,-9.484729833772802,-1.684636142442173,-12.710598984221292,0.3104473824975002
14.788956202326744,-3.340581584358526,4.669918361804111,7.685340727585798,6.598452618369316,-1.7868660803061402,-1.101838491852618,-9.987382411212934,-4.256687314272363,-3.9154546349676247,-4.752543593623381,1.616212837693979,-10.329425107602106,7.668838451537908
10.505349513928875,0.3166922972653299,3.9472918683071327,6.923118446360928,7.274160199490292,1.3336927147045117,2.2070239824172404,-9.955348011231877,-0.9193153636404504,4.858939284527889,3.289407931712409,6.445873995705028,-6.3932077324999455,10.227046142826453
4.619117071902451,-0.2955266773336399,3.3349512805614894,7.10968943746434,8.579476077310998,7.335428092306643,6.581611852511742,-7.905174159890066,0.8356194397757533,8.691182383531485,6.363889848341722,10.56026782579795,-2.8946526984001366,7.142272151511861
-0.097962399407379,-3.0923325838978704,2.9226398028692797,7.900025780740703,8.25305191987065,11.978412151987186,9.06787570804272,-2.6718825793418546,1.500895300641276,6.400096355032239,6.698326528744893,12.589879253199117,-1.177867082036414,2.3322097685774
-1.9184752872874924,-1.974126769900309,2.711554204632156,8.942399842258153,9.88304518651252,11.4926484792544,7.838551425930291,4.887048303595634,2.3429072179022685,4.284868555694091,6.478077030730768,12.348642897403693,-0.904855448734338,0.1215753570388642
-1.0715480821826304,-0.6059232164414838,2.6548120975087186,10.507208037608622,12.21112616965656,6.081687356702332,3.930009011595303,11.475924155488372,1.7036145138754792,0.2442209689077258,3.5650206992355047,10.39357572731592,-0.5034462061302065,1.6093797388037956
0.7886081840983366,2.6063618552863157,2.2758130929533364,9.828860930229004,10.448487552462865,0.173965125290465,0.6071648467703881,13.246742855365028,2.0009738917663986,-1.1293074502568083,2.8921351590566067,7.397663844375245,1.1711290598303776,4.4732863965195975
1.8332113567005308,9.396500650097115,1.503225604458579,7.371550993202747,8.07521734290249,-1.163174522426516,0.602461558024288,8.893265386470944,2.338795230436338,1.1526428357555687,1.978269068372392,3.8407118842716272,3.4645947907858954,5.382708144388403
0.9666377335246352,8.818084802379792,-0.2606443100742143,3.6904394042704216,4.157423748275228,3.339728070177614,3.629868323272376,1.3953930913959312,2.5165941160522767,1.630300363809139,0.0217077882630489,0.1124535733051175,4.238747286440855,2.428051225026536
-2.0654193312550437,4.14275055373995,-3.253956146883288,-1.2828013808986611,-3.42062334734528,9.84625376211119,6.554634375673459,-3.4837363280761906,3.3641792252994054,1.4980062375075964,-2.017009515299912,-3.264372744138427,1.747940555757964,-4.0502819498937015
-7.021002131605201,0.543509227174795,-7.0086781001931895,-4.595741344121799,-5.919030076198629,12.539009878257843,6.206061769083419,-1.2427079276592965,1.838085065915866,0.0552578504567792,-4.291084159950909,-5.654772824235238,-3.606856474718143,-12.018976630566954
-13.377504171491864,-7.809131754614745,-11.78354030741953,-7.2252967206114365,-6.295504479163791,8.502394577326754,2.3053658750008026,7.854063784395322,-1.2006957981661188,-3.576163170334243,-5.446989082663078,-6.659875661308035,-9.35019355053862,-18.7995948125033
-20.23773237596214,-7.83583052769315,-15.402358123978344,-9.010797765125288,-6.990806015748686,0.1017313424364942,-2.180216913475789,18.748140213250537,-3.434618903448903,-5.441857554744556,-6.225575430501984,-6.5090350132891786,-12.868783678304167,-22.18203507811978
-26.24956079946162,-1.2804757511213445,-17.668258204768627,-11.145086343279472,-4.353225077218677,-7.121514494494761,-3.5694391469385494,25.17302432535624,-6.752417523539221,-5.777386109999326,-6.901152762585592,-6.081705060943051,-13.462442622018015,-21.49133945577228
-29.92980359622257,-0.1293594459723912,-18.72845998790192,-12.041762438600257,-4.0333300618513865,-9.012050626020454,-0.5781748205769759,23.988658186982818,-5.318526332101823,-4.52853583268877,-6.843691027876399,-6.403696355570418,-12.615646360220213,-18.10919845495684
-30.37187223501917,3.5926821538374005,-17.886803083567994,-10.159061866607228,-4.781297087582673,-5.785858562467425,4.71513032383308,16.906257678445655,0.112852381666949,-0.7543327013918414,-6.55121094944116,-7.917054607912021,-12.29066842046565,-14.732183311811651
-27.848500322320845,1.5745840086651184,-17.402935152484982,-8.334301268228534,-3.6835515209255143,-1.111009571537366,8.735028007782574,8.627229333891307,3.262988874399775,1.7717405347284674,-5.84900144865253,-10.088742835070462,-12.929924023815872,-13.46758642810775
-23.756874428872663,-7.569097076692959,-17.144675379801892,-3.6886888720139406,-2.846823591766432,1.4356280096256595,9.320131033552912,3.339293959676759,8.299859814109064,3.2023258949618016,-3.708228958679323,-11.733073949722922,-13.08674766981978,-14.147094663160765
-19.8051577153947,-6.980935852626304,-15.759476232108764,-1.090103675034247,-1.717408888292428,1.1675931628965444,7.195772596841199,2.365400878449517,7.111002989667684,2.8925045087040155,-3.003587345928275,-11.884324298870345,-10.98441911368629,-14.459049417227096
-16.973311879187904,-3.446300541463632,-13.635070641686813,-2.119260888910288,0.0252981659004212,0.1086076683461674,4.994839304681857,4.187547388294775,0.0458188952291989,-0.1531147519345236,-3.415277850905851,-10.578609169626365,-6.452123230282475,-12.05474101755717
-15.04662029016643,0.1610013153378562,-10.74131963105868,-2.153452428049037,1.514713869995835,0.5137111254465889,4.913617022623576,6.008449383492369,-2.9818717375544272,-1.0524854767169982,-3.441382051924851,-8.894783356215912,-1.3766054634465608,-6.8993676239678265
-13.104606265821968,9.507025861782726,-6.910469469042158,-3.4711792581576115,3.0165115521716843,2.626123849136775,7.014484285003078,5.392518951002103,-7.928229977136697,-0.0448257948819269,-4.607270667813617,-8.133624855021921,1.7484768241881454,-1.7153082276618008
-10.52912955528346,9.033006951728003,-5.275649980677556,-5.066557428960317,2.525433087979912,4.56520708850762,9.393995627221138,1.3303749312084747,-6.968720101659764,1.563236669201465,-4.472537797637577,-8.718746692592397,1.846866742489425,0.0355092239968968
-7.60293636636095,1.840141904815458,-6.073058062815409,-5.40615380006016,0.3786678735505416,4.126715367478155,9.843757367182093,-5.201552140922914,0.5146972178733016,4.825550168703864,-3.01612989176657,-9.717160379810975,0.0703824954508149,-3.019650787392223
-5.14197876509877,0.014374947990382,-5.596713056225404,-6.790934946408347,-3.447980890913366,0.7607785004024379,7.572372749118202,-11.343650929717228,2.7287625999127583,4.981177863264468,-1.86212695542014,-9.481531820937748,-1.2602089470063331,-8.944158907550161
-3.561583066576887,-4.307220266796997,-4.471727639605826,-9.860571692811018,-9.770711527671462,-3.84929672551813,3.700173544070438,-13.65969674150834,5.910514205861202,1.7632931209127622,-0.0208263475501401,-7.018575373684342,-0.6267946608138857,-13.931819454794407
-2.374748140397557,-3.918428736642906,-0.7483688487006924,-9.583982425262947,-10.984624983176875,-6.904814093603051,0.2881797260540395,-10.499553069062545,5.122378269625336,-0.9932886400683868,0.2349960092628381,-2.990519128754244,1.4707887373500768,-15.17359017807803
-0.6841369151908907,2.832003943792298,6.447064887690984,-7.271742672401341,-9.690835242867283,-6.403992992758603,-1.238649991063994,-3.8049006108773824,-1.7942920913111524,-4.334110779476611,-0.721025775149478,0.5863375254728567,3.0394572765058,-12.73558894947729
1.8475593476286465,1.7095777743877831,10.080593942966471,-4.657253569170751,-7.167279395998531,-2.549947492615757,-1.036338007036477,1.6478018668094307,-2.824414057489574,-5.998064986435423,-2.2257677901749435,1.8511842614309444,2.390005609308048,-8.946526909741607
4.633155545745012,-1.6659121219327977,10.445105059801527,1.3096518930367258,-0.3576964798142661,2.253318827613072,-0.488642970829062,1.7001093025955925,-2.959074795387768,-5.284425332118397,-5.238144494055027,0.6253952687332855,-0.297180385054105,-5.975184304763275
6.8645960080630175,-2.020667744445997,9.860315092309444,4.081984302752676,1.7316176306120004,4.864804685211993,-0.9528453516376488,-3.6656425420835888,-2.493912327810696,-5.365857638464623,-4.541076443373018,-1.3776715620589073,-2.956194995273705,-3.8176390631210495
8.54261351565188,-4.670095176574381,6.797541895054406,4.311015492718686,2.270461915262432,3.4522878558069863,-2.7061389081236484,-10.049646498680543,2.0438453460606576,-5.582603865424938,-2.106987494267308,-1.9180543634307128,-3.215347295943303,-0.4797888741254326
10.621898508745716,-1.708411766877101,7.18176972502064,5.633095760331535,4.288751223075984,-1.2447366118600485,-4.949446890069794,-12.264200993868542,1.6537207996502952,-5.366945952125462,1.2133444556264457,-0.0318793415467837,-0.2823988206235697,5.854973929641005
13.923475424950198,6.724992748247809,11.415707730595589,5.141611093348528,3.7433185704159424,-6.391277821733581,-6.735594390325275,-8.792241327080973,-1.157653677208641,-5.142612346564437,8.25798607080302,3.2757659452319103,4.426719325505246,14.66340460338418
17.82502156156511,7.481512323163086,12.780547781842484,4.68474855372508,3.618448780169035,-9.021972151042434,-7.859856519464301,-2.9776751848480103,-1.6030190960653354,-4.096199880046728,9.736775294231846,5.983619453155569,8.414546298636736,22.89837770433175
20.160968362497584,6.243947335124634,12.407424823327869,4.633473513264215,3.4056125310781966,-8.082465916802619,-8.860224330132326,0.1507543978929675,-3.111674949136205,-2.195922548502188,8.718708150756044,6.709329982410168,9.990834448969707,27.002060105421663
18.72414372767878,3.132066781852064,9.727821857904448,2.7510186586779897,0.0792490296888905,-5.020267507705455,-10.214250604685615,-1.6213428082555197,-1.934744884802849,-0.3870881466525558,8.280844735814425,5.606791409342463,9.336143459709549,25.43853358884957
13.204650245998153,-5.903416548787653,3.460661241962383,-0.1958209756745333,-4.241152450109811,-2.5334673728631287,-11.638389257923166,-6.042484639884947,1.9499381521242565,1.4599895434604062,2.9610726164210925,3.9154851182513255,7.970283435716624,19.68187601124299
5.838111379089895,-8.079298124456022,1.0330221558112105,-1.367324863858845,-5.292849240210593,-2.5501297534063383,-12.26882259098025,-8.814041050113275,3.2277627513424774,3.3542636548668474,2.4058267030395624,2.8458839899022337,7.277012880835514,12.945738560414128
0.0445060152200937,-7.323521794420415,2.3711735172288924,-2.045639717632864,-6.055586024728215,-5.039230599299287,-11.559609613635075,-7.413642655154547,4.310271203080941,5.106700832107147,4.495710224548526,2.8663770098465307,7.433191111019255,7.77186399937068
-1.947427887134154,-5.722127212338202,3.251374023073068,-2.2960486594559897,-5.282521197804192,-8.418913440180575,-9.956761389094908,-2.756958626398074,4.001541237184731,5.619933034175743,3.8514383067699582,3.7417000442940775,7.5298927625644865,4.395011759547458
-0.5840514619663395,0.9804906922356076,5.222931090908612,-1.3325860086511354,-1.7810670145635594,-10.929265795789036,-8.607650984561644,2.256295971845901,1.4307686550018708,4.681673622291381,7.115872567373843,4.862853300554178,6.541560626403083,1.0782857439195936
1.6291275445226745,3.914975124939648,4.426096099181009,-1.8851320695635527,-2.402493576934342,-11.668984303779697,-8.336354598238415,5.244774382505796,-0.0705996613194903,3.359857639802548,6.85147529182292,5.420540797415356,4.202517320994474,-3.9219477690036513
2.309520873331252,5.629432330634379,0.158054983121792,-2.7373961851817965,-3.173268104980536,-10.59054156444006,-8.865343892255595,5.486769345558258,-2.185942113348082,1.3265695033546367,2.802746005240497,4.572627068184431,1.1749893238838638,-10.299954301837346
1.0865744487684026,5.873877836514493,-2.1170753893763337,-3.2044455073203144,-3.082145526067296,-7.903711814956267,-9.028838203091963,3.405240581275251,-2.6195484159120097,1.2728531452216512,1.5271522159293678,1.960695917617386,-1.4093332647628642,-15.19024506504428
-0.4195364854042793,2.578686573893317,-3.250003327363146,-4.309338755345767,-6.190705599415999,-3.826200433363411,-7.763951421558744,-0.1371317824783204,-1.2906725183060963,3.5787226546289848,-3.373792143409868,-1.6444710080714344,-2.594333109125216,-14.818682724706576
-0.4645322168840238,-0.0561176139881609,-3.287314989372708,-3.564781504778873,-5.451984361132549,1.031980335932161,-4.954773397679716,-3.759543209005841,-0.7878680722594794,5.071973724724775,-5.874391904935251,-4.368564072618341,-2.0992241499962603,-7.392385076961062
0.8722777382206885,-4.081409889615188,-1.217350816056736,-1.5338712042004925,-2.8516604850333684,5.358186242587735,-1.421618197309655,-5.409596512377902,0.8244334749152372,6.383208475758604,-3.796269126092567,-4.361955222117899,-0.5305060388705414,4.787542529250516
1.5884395800887887,-5.47814445609884,-0.2666354840709523,0.9091130658449004,-2.2497040519973424,7.714977437082638,1.7967524207901988,-3.304294143821366,-0.3333637514393133,5.553082182451695,-4.138265140726183,-1.3103143999903608,0.8183948105292416,15.809878356485882
-0.2376110258715584,-4.803541315542251,-0.2425082158340796,4.801056487084131,1.9870837714859957,7.772217261739215,4.126135574574263,2.3190778817435103,-3.951591052239254,1.8665002748068091,-1.9698272090509032,3.0575309026684323,0.6604289571258306,19.438360561233253
-4.159630956697583,-2.8273045349012658,0.4839801825092086,6.439247987227916,4.2632193183255644,6.902405469673596,5.568694597668454,8.472819354485708,-4.5133286975213975,-0.0154172869585786,0.3403614771657767,6.126787604224575,-1.3468844113817935,13.306673007276302
-7.111104381125543,2.373135127353842,1.3311172763574304,6.23331690533036,3.4791328937347137,7.161251121620651,6.375792991881767,11.090646042363986,-4.895395676029847,-0.5417862607578671,0.0212373918373935,6.356152812904767,-4.078650163471181,1.0967738706060004
-5.760164597472226,4.349011425713612,2.340079462461246,5.417498668547877,5.59782183768815,9.313364138404069,6.781863818580206,8.204549322543329,-2.471189557802023,0.7851050249756185,2.219303371770851,4.383548283270187,-5.441153393495441,-9.204203520776687
0.450490931303058,5.416072703011305,3.649501489326208,3.5276987291104085,6.076590397314584,11.851944270732943,7.036298169835533,1.934009703152036,3.8612893866488114,5.035988393364735,4.636703133744896,2.3826856490178017,-3.7676438208965166,-10.253787047966789
8.370775061581973,4.386515007877857,4.233784874474267,3.240963664157674,5.162662517138799,12.287558561029869,7.498659124449659,-2.7294654861170717,5.894627206943968,8.324020213789181,5.891893954227112,2.316664922824096,0.8755665194848135,-0.3682476024555683
13.376829721666605,-0.4642194816671894,4.051232056352568,3.705625007321351,6.259140947988166,9.726487370969537,8.476523088157286,-1.6660879526882653,6.803807877505066,10.978861500511837,8.113096711825758,4.567410189942777,6.574328670565869,14.930452491195432
12.988691630873042,-2.4973358931075342,4.49604598250744,4.895051231396957,4.799162710573194,6.181095414254912,9.864281035068784,5.04710545069322,6.022734931085071,11.11993886082784,9.31183771427761,7.885056569328967,10.833067702984524,26.20690082930349
8.774396558680362,-4.625561595794548,5.406407909104831,5.8825741514748575,1.8593988342462664,5.012951008212106,10.983841833963304,12.95039869034716,1.3821913141573714,7.69977763555994,10.758960334592588,10.414149902634804,12.234141480722451,26.26332195151927
4.915530306870897,-3.659084588787183,6.406344113739913,5.812948892582838,2.0872940904059587,7.703830416023106,10.903972506501368,16.350236861136707,-1.834985537989541,2.675109185025059,11.157993701718096,10.870005856157093,11.168400358595363,14.988257224328509
4.728018076851491,1.9096701268810148,7.754348584263875,6.310918107261772,1.7119121208315944,12.023829485513794,9.058203078732712,12.355361592929452,-5.979912957958179,-4.862845726285866,9.84334510202649,9.155985739105828,9.184820271769262,-0.5441163226422665
8.13757817954378,3.88379574286141,8.442100384024105,5.368967095265754,1.7101016896379069,13.57079020526053,5.689953408967126,2.772461221130833,-7.502078729169241,-8.258878171029915,8.795746194841659,6.299505994370245,7.727021620536568,-10.879022669470602
12.128347064534529,5.871147079836867,8.400246359488845,4.738155852907609,3.952415831048489,9.501245187748244,1.796698609382413,-7.354757701194311,-6.416680881611971,-6.845124466382232,4.666107255979706,3.914346811567068,7.401004492666148,-10.48991654254889
13.528709525137623,3.639482981566204,7.922262189127378,4.6385982688148815,3.12261602166692,1.1061609615186807,-1.379452300522484,-13.209513624379207,-2.403256672005619,-2.2298310440781384,3.742293415183031,3.4014536075298203,8.145892652901612,-1.082423473012291
11.5944297036662,-4.30188430677672,6.727620695825475,2.698569989973548,1.390318766226249,-7.127798814454387,-3.000162907834813,-13.055041445685925,6.614981976781908,7.628916663145255,5.853884171342125,5.1326678877479495,9.689542250361054,10.327155472115184
8.27155499139159,-7.203295513720908,4.69972841645363,1.7932203419447168,0.3781145542575702,-11.11352282056972,-3.064479094420172,-8.688000341160613,9.87643552338832,11.93809265301268,6.139083291362512,8.040839781172778,11.575630468959377,16.81460822836088
6.193023914277106,-9.941780052567124,1.7457890850614042,0.4064731564553111,-2.622027796477325,-10.19306187828737,-2.3701138368478567,-3.651380771638067,11.306723089621748,10.330555957424057,10.537874414500392,10.048550475010927,12.87652893230294,16.179793414635796
6.3617752914701455,-7.346225172147117,-0.8636631960655357,-1.2763007095291332,-3.733509084854449,-7.062407272143432,-1.958258824735232,-0.8011624308186995,8.644407870678913,5.747173006592536,10.630725874294289,9.30141267332597,12.358086342237783,11.47973319482098
7.511357575765345,2.0923778913048188,-3.0964114291875444,-1.0033532198026291,-3.1228064834232523,-5.003902916812116,-2.342464429826265,-0.8580375341045396,-1.6406463384047232,-4.654797695521912,5.707831207985602,5.47131513995177,9.414596786782198,7.613389579602682
7.482137595088815,5.603029708051553,-4.237532020406693,-1.2485233250762584,-3.2349542470950534,-5.179473117531913,-3.106691784773737,-2.5729741530275163,-4.720644343160406,-10.269894603610153,3.163547736991201,0.1183169543333804,4.990772116455801,7.1621587663011255
5.196781357390982,9.540763579976511,-3.842647091448935,-1.2469153535964763,-2.422300732493951,-6.3393972765956335,-3.3039452508040483,-4.035764555794287,-6.000530397208725,-10.819074106314556,-3.8344547178895,-4.316329989185348,1.323659223279094,8.843172558847968
1.4829064943594543,7.992921253793553,-4.161016098346303,-0.9879456634164548,-2.041669686947515,-6.757467999407773,-2.4156355700062804,-4.107666452308422,-7.4039145174707315,-10.243973647620862,-7.166190689191947,-6.222811894139333,0.363754794439096,9.339529308944662
-1.7899292227084658,-1.1341870392671511,-4.968528925670379,-1.7681118883440723,-2.713458214104558,-6.113416450130941,-0.9935053733060216,-3.056675715282786,-3.998483780790061,-5.944601513606231,-4.5986509352662965,-5.905733684173384,2.193178000308897,6.421645467958541
-3.269320179097818,-2.366672685785974,-6.015596825277394,-2.3064564864020154,-3.26325919951168,-5.40056159741895,-0.2432301696797196,-2.050018601793724,-5.27303520127779,-3.4568201920626365,-4.2751407403975215,-5.124258398118094,4.9851591042422,0.6177383124243931
-2.956076366685309,-2.792700652849007,-7.759717287201213,-2.699018489660503,-3.3864908467296013,-5.219521310202708,-0.7904423649645338,-1.942929071250788,-8.955538275685031,-2.961304515342752,-1.08636126038274,-5.452954082172113,6.606121020332665,-5.550964138737712
-1.8096254489081216,-1.2255345114679568,-8.094408561772436,-3.1069934734607,-2.891332161187215,-4.593997875308759,-1.7929106235376937,-2.3756609515245657,-5.975291881437703,0.2491282019325091,1.3388144315273531,-6.8791755806916655,6.29930028448473,-9.551125219086586
-0.8195664305469279,6.585962484127992,-6.983395763280536,-3.117409110099268,-2.041046782821329,-1.8550882152218835,-1.4095272245713346,-2.029721021064759,-0.3059788788026086,5.121437527175527,0.1339771411714014,-7.900085289318099,4.832640644281284,-10.211390295050265
-0.5239627685010504,4.89729483918616,-6.136618022911181,-3.0535479225091624,0.0992664470148418,3.194622720003963,1.597415382165963,0.0689603147107078,4.719450709637486,9.731692123587822,0.6741875232505047,-7.059887121640074,3.169861890437246,-7.832974584057737
-1.1846250561719671,-1.3007506063399732,-5.139073998556588,-2.904845757795211,2.570088394471937,8.227361388766525,6.510236465241107,3.357781611670262,12.72797515338138,14.594437143580649,1.9302988884906305,-4.526620620946176,1.315832073546801,-3.709023298477732
-3.012049067892306,-3.8237945807075673,-4.970170299920534,-2.961729567216401,2.976632348359624,9.90864404283822,10.8482807518523,5.889898560052743,12.016681679389205,14.01141549567918,1.6553428441544362,-2.199003908277845,-1.293829957746354,0.2122144809684272
-5.92092105176954,-9.571196440653171,-5.97240162192866,-3.2634754009966103,3.329838102333871,6.820462483864773,12.06821081012771,5.906230188670619,3.97172674847043,7.1010035043853055,1.833076605646592,-2.1388249187675257,-4.3632803026054745,1.7006283564321762
-9.105889611554916,-7.9323879899187,-6.120749451500965,-3.587290578044548,2.3778004630249017,0.9869320087067592,9.393670033710949,3.4839808589317016,0.5822446291280383,0.9455635984899184,2.274526313775897,-4.692634657065554,-6.13148902926234,-0.7523413209358409
-11.17860710805826,0.6318655389446586,-5.657975687363849,-4.028553971897282,-0.2318982935940694,-3.6373778020480927,4.286467651081438,0.657820153929066,-5.357730018394928,-5.804758779286753,0.7383799737957291,-8.02624405661281,-4.685467695758945,-6.537514578110475
-11.062633808982454,2.744143901123341,-5.224425201205242,-4.210380545038363,-0.1250302898843715,-4.444020223400003,-0.7458785964296339,-0.2916058586623222,-5.947894552724991,-8.243290970111039,0.0567814369571372,-9.564906460844083,-0.1118460914685073,-12.463886791950443
-8.89099672094769,5.519897480197248,-4.471725082149209,-4.139390257097095,-0.061250145337022,-2.1913309666452534,-3.933108083481685,1.0549393233611113,-0.6122193300250905,-4.68713306831735,0.3806388697502528,-8.112647891642155,4.807205892094217,-14.31436714607304
-5.959604624709442,5.397930168083295,-4.207389833002639,-3.953270064473806,-0.1308551598903855,0.0510417164914542,-5.173892014278458,2.7202220415098566,-0.1834817351237756,-2.4042334502010863,-1.0907827154542618,-4.801040886245545,6.442144029519056,-9.784150264143932
-3.692440095556222,-0.3336059249544967,-4.506784133220813,-3.732218225099488,1.6673741051791713,-0.0999816063881979,-5.532179887146725,2.046957937146601,1.3907718061670422,0.1325039426127869,-2.057809550108203,-2.059645469483449,3.273085395359722,-0.5931530240423228
-2.615708181628968,-1.2961899152887046,-3.9096439471999216,-3.7432872269513378,1.175015908113212,-2.288848256845462,-5.952529703617508,-1.7022758076928568,1.2267584503451252,1.415075018239726,-1.9713907368356605,-1.5509227390806828,-2.748321992574269,8.118776134589496
-2.338642445416781,-1.8698699524444533,-2.51931784232091,-3.802421955632421,0.0280896742111541,-4.0998134077892985,-6.395851249388912,-6.2050005336988505,-2.097599834775372,0.196254780832134,-3.011707280841575,-2.8758517873853435,-7.772811880597104,10.91210207506768
-2.448154984481448,-1.7834903297244715,-1.346999910382682,-4.108338166541894,-0.1114819606670544,-3.544248372655467,-6.0729129123030745,-7.662635464228288,-1.9236908005290931,0.4571203016168368,-2.7598996107432985,-4.100232816702913,-9.182275854864066,5.499936503676814
-3.221897600168376,1.3263737323202434,-0.1492358722425445,-4.500429705059055,-1.9748895338835928,-0.8635735346000359,-4.416016687984914,-4.025910677462477,-1.3448767700077775,1.543012588262476,-1.4659409456371957,-3.513361174992049,-7.479670867890249,-5.8116842754889575
-5.266052721734098,2.630506335714544,0.2635104004327752,-3.888101327240412,-2.27366747030826,1.8961797510695175,-1.8133851505530456,2.859414639797748,-0.910378697852756,1.5688497006761537,-2.305609490151068,-1.0126355290991782,-5.391020286102439,-17.474028173986234
-8.401600906527563,4.120024909575601,-0.3419654027898215,-2.8134366575768843,-0.8463003776792996,2.82623315655534,0.5792236799727633,8.273911521388875,1.1185127072244847,1.0274806988930565,-2.4683653520143984,2.0318714474255373,-5.248555644358639,-23.814929418893016
-11.07212127621674,3.219546128616213,0.3249143301546439,-1.1189037127798382,-0.3763933662283871,1.654515888204962,1.7552012029241195,8.310055840419388,1.1876759568017992,0.0522707530192651,-2.467550000916011,4.140052390677056,-7.158142529461166,-22.10429693097856
-11.173535555787993,-0.3607921911641483,2.150591035928185,1.388763435122953,1.3180397014198897,-0.3926580809960214,1.64903744988883,3.273345244463833,0.207085630151124,-1.6212882777327655,-4.540538757807064,4.957339529537656,-9.43903451134694,-14.008772145083007
-7.814945158867349,-2.890174689274206,4.613557839505167,2.3718430466066347,2.301342242107041,-1.8674327598688047,1.082402599806258,-2.2134251448939466,0.5740611944174816,-2.249108958201832,-4.116270415717309,5.263180844532734,-10.544750411778915,-4.674531998575631
-2.458838604024997,-6.8995834812928845,8.227687965188537,2.6852529813676886,1.5352665241268215,-2.155371427421155,0.932369950269269,-2.786754560291943,0.6939393805280409,-1.7424160579166244,-2.9545571448072687,5.90317067383409,-10.44074603719315,0.2635801437064557
1.7498854297424096,-6.26272766931893,9.80777332037066,2.5922334603709274,1.2051696554590612,-1.5290794548834548,1.3146085602219415,3.2080795511084794,0.7318573004440795,-3.14729912585455,-3.2556931125607176,6.807296372176964,-10.278166001474297,-1.7624931567089843
2.117367020863586,-1.561859188071676,9.16740538121841,1.6346538011455825,0.6356135348980587,-0.5389112685059558,1.5692704924346117,12.122832540120337,1.3943708762702671,-6.249205488735833,-0.6945297960727893,7.068125940429596,-11.039854658488178,-8.408524824236284
-1.6916453711002717,0.5423056883023205,7.101919343052053,1.5640980440250811,-0.0301154556536427,0.4623189725885446,1.078375852590451,17.68642970844976,0.0938447064571395,-8.739450921247567,-1.3051744275548764,5.90669383728752,-12.6945410040906,-13.905619556699534
-7.53651953854043,4.329727534158178,2.7163027306855083,1.4815372985112785,-0.2330124516089448,1.30971399514495,0.1063670041690478,15.782330598396456,-2.4689404344742,-11.109094284815342,-5.310909266243254,3.451407761190193,-14.564630909115664,-13.280581691046638
-12.505158893751757,4.445903575551578,-0.4792226952001402,1.2744480643830765,-0.315011078316862,1.819153651764342,-0.2545372871517646,7.421879024827259,-2.5984046354140693,-10.642075529044424,-7.711358965945934,0.5218796712017681,-16.222171950573436,-6.365124666032719
-14.917507904143884,0.4126632447716,-2.4190957551166608,1.0729659898419923,-0.8652480083030036,1.7842425923371206,0.8495353034430515,-2.3553772229881837,-2.286669885733792,-6.680894691193516,-13.56534468918472,-2.2688534813046406,-17.835610917823296,1.6637234137886487
-14.986983514809488,0.047627585894416,-3.2088977095765827,0.7400703152334904,-0.2872608029421978,1.1836342238031143,2.8872742341907216,-8.463494636328761,-0.46127797382177,-5.294976650285794,-17.56415688842046,-5.031463587288053,-19.75645788552787,4.003129139031276
-13.894413380563552,-0.580353796249787,-1.877831498680285,0.9176833363469784,1.6950029656268533,0.2785114216211397,3.922460975663984,-9.233255116893096,3.957161203595743,-5.99415685597646,-18.064219675251493,-8.133465926293518,-22.069032147960744,-2.505921356120094
-12.523965594498344,-0.5933684853145453,-1.6891380108327605,1.097056029405469,3.926215942615527,-0.5916220701929118,2.0359682490292776,-6.767885563953685,4.221775594817984,-8.582620185563613,-20.73134555463344,-11.315503118489303,-24.70651573582099,-14.795987820755714
-11.175415956584503,1.677455353947782,-2.4516544841178924,1.4483848631310876,7.27616749665589,-1.3098306891529283,-2.8653132531714656,-4.450115423416587,2.655636454102006,-14.434311698831422,-21.951620478617382,-13.519326510911773,-27.813138080836104,-25.90013831939429
-10.215630464612088,1.5756502595165445,-4.307193795034743,1.5529874444108338,7.6437810190031135,-2.0147658536258035,-8.484784579207501,-4.109354263837158,0.992793131677596,-17.588330473225295,-22.33108816040864,-13.810252258269037,-31.581480145238853,-30.33991571916212
-10.43495141881532,0.7047607852909497,-8.032777137712028,1.001981348674893,5.189494937535725,-2.7893327479464656,-11.557870035987202,-5.187875561031166,-3.952759304221721,-18.13719843299727,-23.88856348560168,-12.485446718429236,-35.47721760988432,-28.05861039597861
-12.26578367098349,0.177345623485388,-10.084041787102224,0.3798357910804854,1.2743637457327073,-3.358829747518815,-10.305250702245726,-6.127169287317395,-4.145565662421933,-17.329194906131498,-23.266921701118665,-11.072501267452168,-37.789433291662206,-23.58065916109593
-14.59522424820463,-1.2723231485590438,-10.57034042649416,-0.309552677445456,-4.93594093070746,-3.216263144883444,-5.949456076212282,-6.224791757197068,-1.1550196753699915,-13.73534089976314,-21.97156002584066,-10.985937133564198,-36.436214325593305,-21.254693560748624
-14.79847175559917,-2.111139321099242,-9.858102567405677,-0.8000197607536308,-6.775996064007609,-2.1528848934781983,-1.9595470421393253,-6.10309297801019,-0.1882620649289343,-10.379761955513365,-20.39868439190699,-12.08718219330238,-30.66634555379305,-20.97050283017337
-10.590021044661476,-2.768277869624564,-7.088127602820032,-0.8741678006333504,-6.325207401074689,-0.6556873887945969,-1.4963980299174082,-6.56967164888297,2.934355121478045,-7.113434232202376,-16.818032643975062,-12.688017154981717,-22.0740446830344,-18.358829158716887
-2.268092202818345,-2.04422328299044,-5.696982595266201,-0.653233386457842,-4.436451947779923,0.3635625317541908,-5.001139741092635,-7.328732278910778,2.3508154417543783,-4.356087416182468,-12.99121750788152,-11.189403027881694,-13.68321647413067,-9.382298895593324
6.86742897045589,0.1630493172825694,-5.656268044012269,-0.6623211325123021,0.0452907047978614,0.4119538390409971,-9.779097302426909,-7.085591992981197,-1.781494119402761,-2.8491777420801183,-7.530036913590014,-7.845405144279228,-7.663962708530715,4.922697102114537
12.647672366586551,1.547814433002895,-5.157585043220005,-0.4292455991162017,0.8025555561963464,0.0579162886784097,-11.895551481693015,-5.03503657256811,-2.626406289903145,-1.4084321293625357,-3.175048353476635,-4.8346910994082215,-3.71739278460365,18.09528558083105
13.02859619115088,3.6131729704380704,-4.923838093322074,0.1493006572297567,1.0312972014498114,0.6306347895979592,-8.969622323476827,-2.125312388563877,-3.4422953638203446,-0.4458064185550435,-0.6338863524391616,-4.357172089373584,0.3243468475343114,22.909608656992692
9.365430777242487,2.8798508769054365,-3.628377633776321,0.3266043331495226,1.2130217619764214,3.0711183952451577,-1.847063941843459,-0.5456515177239609,-2.4390230526084014,1.950012385120642,2.4746615351719625,-6.431131918286621,6.241742160355269,17.11450531908013
4.961868333973527,-0.5808686193602842,-1.0379578850817317,1.2836790636464273,0.1427646836938532,6.9113591173368825,5.983267239361666,-1.6566745438704338,1.3030530111409906,6.039166934345796,4.251256645102319,-8.524863150948917,13.695567566371563,5.362727959762772
2.37511298056949,-1.6712634150511096,-0.0793358399753222,1.8644735586810897,0.7492675153727018,10.358012197016269,10.729033906803732,-4.33408089295887,2.8625889777765923,9.5503295646207,6.528000085989995,-7.569148736703909,20.645317480278354,-4.154764864606491
1.9351338473503752,-3.188305921960612,-0.5815553125717084,1.5328602487864196,1.1806737233507352,11.487819511209851,10.704862903163267,-5.555904333096855,4.18597403497687,12.91570036578548,9.308279332894358,-2.687522189729954,25.365734495072388,-5.38403929372398
2.551107028187193,-2.298513552786122,-0.7120557999413731,1.9215878152879988,1.299201280247982,9.55166970685757,7.182973685115165,-2.98976034000847,3.737475793947195,13.604699430815824,10.66005908784284,3.790213651007413,27.94863304144787,2.0955484891377445
3.615037843354706,1.781698984280113,-0.9956222630034848,1.6904535994513743,0.9888051914758638,5.343676654854292,3.234718264436616,2.704424727176597,0.95123238433402,10.97767278702464,12.485413656027658,8.037429762817684,29.836594226028023,13.852498014419885
5.902949406267361,2.7807557009511465,0.691944872350975,1.135048485526604,0.6853086238375199,0.5312126086901792,1.5323380864700091,8.078120508795653,-0.8195881651992498,8.844670647573846,13.425155746436284,7.803101088831141,32.05591709956027,24.16325506714375
10.580132041736023,3.4324469363960457,4.7923191381002965,1.2681769999042531,0.6174610761156689,-3.271869617512561,2.706349468829387,9.601141391994211,-3.564606685999323,6.542509167973852,13.242100316557217,4.284907401890546,34.121279815118235,29.30643660367474
17.432314345784313,2.69649771915902,7.73722375535622,0.4820722834153574,-0.53852757531393,-4.97628241550737,5.291891684564991,6.5560330989566005,-3.585290826182181,5.418706399713366,13.930036829275252,1.244524151490154,34.727472230858034,28.758424005571097
24.25559739990784,-0.7827834351784344,9.983469618440914,-0.573284542856498,-0.4047584987950707,-4.109282037458474,7.0572318919576205,1.5946383764559613,-1.0206606171236166,6.273920744397159,12.488790019702115,2.09910218957803,33.348070213651425,24.51514528982928
28.19511906649861,-2.2959152060908328,11.040690439699468,0.4544292122415554,0.4534715695905347,-1.0199317808137425,6.591889569131716,-1.4960167689001835,-0.1219948859389989,6.178658946122259,13.194069539390073,7.338942273744255,30.934700861560646,19.657140067558835
27.87824909046956,-3.763566815237663,10.137521675519933,1.9923051813319403,0.6178209392921225,2.8260416974542792,4.073894504657854,-0.8477391553454616,1.849931099101112,5.63581535352413,17.0004025219912,14.266817409887317,29.00613402803839,16.875426433870935
24.35766945263348,-3.765113830890032,10.326348708193915,4.692109753083753,3.7347479231654974,5.180063814343818,0.9225386767301132,2.1974146538513004,1.9384944785855764,7.310337366825158,19.588259883841875,19.13719962636939,28.22009459979102,17.233166988396892
19.98722643100858,-1.6222923769874764,11.364773614157954,9.279169102677589,6.9838495037549375,4.398186602414928,-1.1834200870421832,4.510851969331178,-0.2919977174284541,10.977766995122762,24.823908454448087,19.911571592881906,27.9929664413309,19.62822925097755
16.341289643782005,0.1524534778790681,12.260604827219504,9.26387846187724,5.91599192293562,1.0111927333869524,-1.233615035390784,3.933698289583997,0.3549864930946651,15.496106016298942,26.75847164864715,17.490987632429395,27.42718248623733,21.55773675834004
13.204462947944748,3.118802777001762,13.594896978678376,7.099667483936924,5.342793383546384,-2.2148065992506023,0.6513901267783773,0.9671549585768772,1.7608846076024185,21.391069435180736,23.664108370174343,14.610691392754743,26.306572127262903,21.02717872005091
9.564763893659991,3.774805135013312,13.205197910932643,3.6683338232974183,1.5894214009985883,-2.416438245068388,3.310330157414312,-1.9313018159962,1.417925671260976,21.414880998215587,20.810904953668352,13.46320113809372,24.961742157564345,18.225554691959644
5.493673913706701,2.7062263323005125,10.910624162525624,-3.6783216300856343,-5.942036226764368,0.5814006041053528,5.121938968139119,-2.6405919967668847,1.343440057500185,14.790424465987924,15.709018507394704,14.06210209846486,23.287170745480285,15.374931912043872
2.836115245255465,1.2188536415154867,8.960935867756481,-4.475928539382703,-5.877022263375445,3.5493704520737968,4.89470108886856,-1.130787197312916,-0.6512321617495607,8.154327288058955,12.02610634909475,14.644816508944384,20.313113342516733,14.636921622871522
3.7816342941691232,-2.4600767597527557,6.90419198642764,-2.023995470968352,-4.868295799895519,2.399436016846592,2.644762168389453,0.8404603792001595,-5.215972518957673,-0.2640323505613394,10.998519780091314,13.63411689444063,15.13799368007333,15.908180471843352
8.553582766660869,-3.538324380261716,6.27982731090035,0.893880790084064,-3.297752512078028,-3.933001907818186,-0.3064752529502978,1.6623054249939069,-4.6174554074052265,-2.0698944875584706,10.00058066362965,11.317445761673676,8.353018922843159,16.690529813644048
14.482778039501644,-3.35623183476814,7.611808019959738,8.69330623271854,4.435918892459873,-11.861003123940677,-2.173770714052541,1.493816123677952,-1.3261322743555013,4.418371095514624,8.204285654727741,9.662995670207582,2.282265601005797,14.350511275906932
17.5683367181644,-2.280070877901202,7.727426199378346,9.90288294743302,4.242024859761089,-15.633663007887025,-2.008994802844798,1.9609872534042772,0.2566695649646078,8.029957820318614,6.776150986069534,10.398370339159111,-0.5655044865612373,8.71280374123064
15.35740030777368,1.5396122409530892,7.0103300731510965,7.655304779289798,0.6647977826983892,-12.05509114377614,-0.4400735783115292,4.193355512980978,3.4849075229084328,10.849384999783249,6.136164699758912,13.132044630015344,0.4398645399020369,2.498507032180401
8.751362601390857,2.7134218239158985,5.433694626742376,6.047126832932289,-0.7732377611138208,-3.321730444164059,0.8575285123858007,7.135086054780921,2.9065421844710557,8.534971024594062,4.127838840605624,15.346396893599668,3.422188600498531,-0.8366241378762247
1.283090263036314,3.0275145916310957,2.3469768944460525,0.3025260548311996,-7.942833644437761,4.601306695229575,0.5976846062940133,7.926639136437474,-1.1061949021884727,-1.2299958990033704,4.19761663042233,14.409456390003854,5.45942466748685,0.1708596820997474
-3.435107717382754,2.1576778562625765,1.3571019380594027,-1.821490526010268,-10.016372006474931,6.699468363457395,-1.00879428870274,4.299210478721863,-0.9286202228559506,-5.568375348337005,3.910492858953904,9.865532736257176,4.813648452689063,4.123360505440642
-4.001970869095143,-1.614699292565983,2.474426931081056,-2.18877611348517,-7.492976258827719,2.660864754181673,-2.4908315520521134,-2.9756750561919083,0.0428780630410508,-5.598977068947912,1.081767298385937,3.962753831187469,1.945556901751685,8.181458580801326
-1.6528328853960934,-2.104029482785821,3.0494959675979234,-4.396635976944068,-7.767141687409816,-3.401644872200306,-2.4998462152609338,-9.79787155923982,0.8670241656116243,-3.877890327669204,0.5561196737092056,-0.0564112528861758,-1.409157987529069,10.050870398586092
1.0837558798824318,-1.482526704885492,3.798170310532734,-5.138396172003261,-4.989083571009357,-6.689041694091889,-1.0583046301294368,-11.214604694301368,3.704029953851035,2.202189445791568,-0.938642346711702,-0.4093553299540796,-3.983670821605141,8.756330622913637
2.1186141334926454,-0.4023253757223221,2.030654970853452,-6.528865559963713,-3.868859554184193,-5.485165197415023,0.4770732210674637,-5.074993483154719,3.0812644490266523,2.7305590987513897,-2.85324252224831,2.0650938980116305,-5.838181433020118,4.232413912833303
0.6754026506167827,3.0581999067287,-2.864955102974527,-8.245147880264508,-6.134975555125611,-1.895085787795848,0.6580422587472645,5.8181222922035865,0.2193636344784224,-2.5949231995051933,-1.9144755152443225,4.81120409340147,-7.744041140619869,-2.905186311567622
-2.844704348074303,2.965923600411476,-5.522479122968182,-8.46794548342734,-6.8664681702178125,0.5641454376377459,-0.8156907729302598,14.91792138561288,-0.7191911881061681,-6.209249112711446,-2.3392052051045447,5.53912642644083,-10.024579653324036,-10.808883324492466
-7.331230920199606,1.1529260302588336,-6.460748851378656,-8.900476309765885,-8.1206371159762,0.0120357399630846,-2.990075875074875,16.094577128934628,-2.3368493842211184,-10.1684118990082,-2.700174507580138,3.62924457773455,-12.133002716505253,-16.234591419186827
