AF3,F7,F3,FC5,T7,P7,O1,O2,P8,T8,FC6,F4,F8,AF4
-2.335139374163585,1.3064520794356411,2.3548932477399136,3.304354179462216,4.708328751512838,1.767276814118879,0.1371281763380211,6.120627893624968,5.621019798999804,0.548736573764099,8.047653078979224,-1.0406973445805816,1.4810886721288574,-4.718822251999846
0.7884335108404583,0.3972486375107216,1.0419424202402865,1.6135900519245396,4.27744933926995,2.690841528907418,-1.2424596269677346,4.200989308472631,9.191438089684745,1.7994537325777349,6.981106418963634,-0.3149416410899814,2.0597468066276337,-0.0115675389301903
2.4600599155567315,-0.1847671617564722,-0.6322719584552501,-0.2260740975234938,3.125725276818756,2.6280506105295114,-2.4788158527398294,0.051091966433912,14.373385971750936,3.749776193763566,6.314174975679251,-0.0785094297561613,1.3516330517464867,4.054380203619737
1.9569733435249228,-1.497438666665727,-1.848441196945979,-1.8321981605219972,1.6376984787323463,0.8963340436517523,-3.5859220872302204,-1.892849587255812,15.908223715590513,3.676354353205726,6.457036527369752,0.0422957600519751,0.7798835311239599,5.084320600636266
0.050748972685102,-3.818093393806856,-2.787421922663273,-2.26254507845141,0.555860014834721,1.34635196655447,-4.724644994859849,-2.2475591819941787,13.185236688692342,1.617224457471459,6.846362749280203,-0.7143953988261629,-0.3582689816065157,0.5946669587708058
-0.4586683994857667,-6.629893907865219,-2.969535130087008,-1.1124246838922147,0.3563470711181793,2.6094992595302893,-3.8001988577333528,-0.7154675157207985,10.507667586851568,-0.8583223033446817,5.954540345536529,0.0467933002279019,-1.6929538643919582,-1.2581146131414884
-0.1475716844791917,-10.29155516766997,-2.198828790563726,0.6368386151679744,0.7931451753039624,4.698725425108568,-0.6669041091856653,3.649839860133562,6.540093853883201,-3.776564089881345,2.4468710551303587,0.9819760119097056,-3.165168441026511,-1.0577375523092174
0.298390444663753,-10.651582901820056,-2.129640994089369,1.2294979614678567,1.161101023399823,7.539657683072366,0.724409481668032,5.327172175859,4.500291303551891,-4.4109777036342654,-3.203797296563522,1.1117899177671424,-3.493867755012567,-0.1523798441937992
0.3011956893528,-7.354907113912398,-2.694153839931548,-0.1911306178298843,1.0548149856552271,7.503303057919346,0.6308437074172581,4.343165324191227,5.137814664357762,-2.162933724444688,-8.17393420225315,1.0842399628557802,-2.4420323421045214,1.8087967055439516
-0.5627000260304102,-2.699029167012298,-2.350973612129273,-2.584949539760032,0.7876479148506377,7.94422075116708,0.1344305330447691,3.4953515150889816,5.199440657625782,-0.9880499460943958,-8.815128588049575,0.2813207049954622,0.5087111798937749,0.0889780408385552
-0.6238181250520668,4.431044489890127,-1.3581811010513674,-3.884597241117348,0.9468487843004852,10.320795106316549,-1.6092579165086682,1.580417454370414,5.619720101476752,0.546818159184628,-3.485943415233692,0.3471680473762842,5.909248619519767,-2.197119955631139
0.280662475005696,7.817988012586446,-0.2970947256170914,-2.9702199525841166,1.5408842377729997,11.68967001029697,-2.619933884206951,0.6407059716586613,7.019481860192741,1.680850228731674,5.576303891959682,1.2377988578863413,8.899519730269683,-2.24531502908264
0.6702232930950782,6.8291036001382,1.0611010350128862,-0.7593941255102408,1.7539747962924397,12.3260411860838,-2.8597770435491863,0.9867408892181448,9.116818438975,0.8489401870978805,13.271305593136162,1.359774739721956,9.449888330821883,-1.5357756520842387
0.721140861339004,6.434821979352022,0.8404006164591749,0.6987147531252162,0.7404879466598118,11.818572091660656,-3.553465585818877,0.9833720678841368,11.853513332690374,1.6439255616106738,15.20376294854696,0.9343897357682368,8.968181182619368,0.9070886827326764
-0.5325698607823917,5.091774649164333,-1.196863408616382,0.1811239973873029,-1.293469278128498,8.761208253250308,-4.288394084967741,1.157398536568477,15.280071182900008,2.777531039784634,11.092101272910362,-1.3604455074488984,6.243355138489495,1.2706244560093622
-2.1462142974425635,5.895198301492255,-0.958737110071196,-1.653275216394448,-2.9551184870650715,5.523147113309782,-5.099319525693121,1.1073581506387655,16.110266853561498,2.3562530187419504,5.065320024425368,-3.7356359741780096,5.968226671869931,-0.8522502062196454
-1.3075257790780457,9.64972819960742,1.324285125629362,-3.022914959615264,-2.833202709001448,4.697416818972598,-6.096567848963197,0.6476182034884755,14.005337562792445,1.185438195396488,2.344455873731384,-3.3522612979201614,8.32900011241852,-1.338258807504371
1.028161363696666,12.25741173254775,5.320469738052514,-2.6565044979811105,-0.914724082025252,3.289370459029413,-7.301268448212991,0.1598091445887612,10.94001432595104,-1.9149239892294845,4.971547976133721,-1.5014765570000193,10.417653520402554,-0.1679861977844845
4.095080561273993,14.553298110381022,12.002036116034477,-0.6765449186095935,1.2287515446267463,0.7225071898096689,-8.769296353308926,-0.5111315366050345,6.004114910540361,-7.067958094071436,10.242522184914392,1.9276220082114703,13.30279014617144,4.433854593202862
5.244821118082812,13.72705372994502,13.15038212112389,1.8680379150235,1.8262340923263665,-0.9886337895099792,-7.988295008479268,-0.7871849645572965,2.890785232580115,-9.378948143382948,13.211845910424032,4.272827407491794,13.698054824111038,8.05994205450968
2.364537417085434,8.85223564560173,8.370311469596576,4.017821131243366,0.5871320632447308,-3.230153439099363,-4.742537966155614,-0.5986939906704328,1.999853208846769,-6.577544972738104,11.01578279421514,2.466674127907301,11.066818401504946,5.186593746592594
-0.976686361154155,5.262976371802791,3.4496224173766787,5.386526917844137,-1.0021238919898463,-5.145904485059596,-0.2573474503635807,-0.2931626081560952,2.782171778412091,-0.6291800341281486,5.155136601523012,0.1991600615773127,9.686892298045152,-0.1053452976859912
-3.967783504686413,2.229397232811155,-3.5038625436399955,5.918394669570922,-1.1337078975640296,-4.551440001747782,6.166925477508177,0.2885053428954465,6.404179940454464,8.949404998099464,-0.1787731510004491,-1.6559816634365152,8.81910018407221,-7.815464224562459
-4.7654875807497135,-0.2804393825401564,-6.972946681718087,5.55745238603722,0.4942906953179999,-3.3739982130876767,8.288716433763808,-0.463140344165438,5.510160878260625,14.09019395088466,-1.98505019494997,-2.573742470950504,6.8412135936786,-11.64492586514533
-2.410686500427767,-1.2312311588246934,-5.862246940492565,4.333791059806394,2.273406792496388,-3.8438921417275274,5.530536846393801,-2.7173774353157567,-0.12753456304099,9.341276426413453,-0.8937312274712923,-0.932050294074226,4.340925787005585,-6.324706833576364
-1.677956433218664,-5.921392374714141,-7.287004475539031,2.6440914753641778,2.137855633139821,-4.104837839058328,2.3500670443866154,-5.036202481660667,-8.814755274994837,1.7560639544597714,-0.1042352474348859,-0.010687734091372,-1.453048419046382,-0.4859828989429989
-1.883664167588984,-14.34837014313143,-9.893036244026844,1.1869601453600325,-0.4747701423582668,-5.153277307732751,-2.8432624993684006,-7.81265561838988,-22.51830968414456,-7.701546176209451,-2.146076248530015,-0.6477752021528467,-10.980199886756294,6.1408324784878
-1.6289527876216583,-17.213873195055665,-10.32265805219411,0.4742333406539032,-3.974352784328538,-7.460514758932521,-4.309212720499748,-8.21562470876808,-27.057893025846276,-11.50106967786556,-6.649979128360659,-0.9440256633872544,-15.174924535138016,9.314668161552774
-0.8812029762607831,-14.99918726101378,-9.405035868976231,0.4422267229736611,-5.852029951291666,-6.749957055202712,-1.1392222123472913,-5.781951185260822,-21.63050478897127,-4.231409832424526,-11.031206298650176,-0.1613415197674798,-14.105706418656522,4.917951993817065
0.5760413690843926,-11.07329712288976,-7.353676970811451,0.6453303950951685,-4.668416428563074,-5.526288280948831,1.490881066277142,-3.951891892109881,-15.98642998694034,1.8150113911367336,-13.061477370456204,0.2938359074417199,-11.263227486275497,0.653205206581045
1.844168451057744,-3.446993179775512,-3.6585451691390745,0.8526038661072981,-1.105902913912585,-4.721489676329987,5.104846176759475,-2.0386893438210496,-6.780861538815894,5.082091324368621,-12.69274052541014,1.0917075822375382,-4.521027794650706,-4.391598655116813
2.668310259753862,-0.1559905536646481,-1.7190428492242082,1.357041984853785,2.6541126252538945,-3.09356347363826,6.531516083121615,-1.2998091193785068,-3.0405156470155537,4.330595914168368,-11.564835521852938,2.1116247561602437,-1.3767889017855652,-6.425856332152718
2.7730373877745,-1.8608381290407927,-1.69226586672087,2.57201519275511,4.534753226102511,-4.405079348788927,4.902278784994284,-2.4175002620239643,-6.487184307595534,-2.2087079116625343,-11.032637945943105,1.5780351531410393,-2.3725764924172705,-1.9742486589849335
3.7109315458772807,-0.6971716486109716,0.6062591499958716,4.289580957952348,3.83522899699274,-5.852370638962543,3.2305570620718176,-2.51094445159966,-5.219533809690411,-3.3894759543521857,-10.826393432869182,1.8390088002719596,-2.802963293732602,1.7574107690679903
5.892619681533656,1.6033605807205271,4.586778301957776,5.447100900409222,1.3928553903727126,-5.978706186625964,0.5109653670578425,-1.9941481480954484,-1.3747946478525026,-0.2643861133213452,-9.540803322703836,2.43817946561873,-4.499818195216864,6.0587462423709
5.580753978026613,3.102173848670083,5.496235341033952,4.829949454063027,-1.1749154990490345,-6.728879507613443,-1.2528803611292374,-1.9764214502634416,0.9197850306414443,2.830763058143271,-6.217638777492579,1.565788720973904,-4.087766625724279,7.364445023663023
1.3276776451932146,4.789531073620911,3.676538581878233,2.177919448502733,-2.451514389934174,-5.861513858121616,-1.6221311514223802,-2.030704551852971,3.2823719822840256,4.746314818351613,-1.349930564340796,-0.1312618585596231,-0.9681063743345552,1.814487622147138
-1.891464677151015,5.25164411165597,1.181928828285766,-1.3693454217958108,-1.8917745179936016,-4.85460736357113,-1.212392186059171,-1.0315084604733555,3.289254746912927,1.1668083126921929,3.523680038189873,-0.5151851930393772,3.858910143658068,-0.2887935782780659
-5.563480365725601,4.283883821871167,-2.942626353600548,-4.0469424839022,-0.0356952846217311,-5.009211883068748,0.6794995900121614,1.050114371215089,0.3568733254939762,-2.871658334767335,6.948118944569028,0.1425195404122352,11.495106196696929,-1.0340092469510718
-7.129966074524852,3.073066407568469,-4.294322788260275,-4.877232048586251,1.718342298465343,-5.189322701256315,0.5856639737164202,1.4477561569613162,-1.1072233603218482,-3.97813699967004,8.171073926513825,0.2533949714547941,13.34546862905522,-2.162388334891279
-3.3574585507954304,1.2732976293597782,-2.3722337765860178,-4.459482299320284,1.7754890178761045,-6.388723341733592,-1.6024511161557649,0.2287856149475807,-1.5881691398455222,-2.904668415777574,6.907805967275618,-0.3894562325120873,8.900440166530725,-0.8847868150218812
-2.90048468990734,-2.2142251665507624,-3.6581193419161937,-4.379873581275,-0.7092151736301915,-8.432145757083246,-6.007117592831662,-4.308719045330972,-3.6130261873119904,0.6105781002548587,3.0623731435969024,-4.085685076306351,2.304832157062497,-5.546800745542689
-2.816788764606029,-7.376109850996173,-7.341370071908653,-5.74213375268603,-5.093021111874808,-10.414725226057524,-13.644043226965012,-13.07681368095056,-6.508085214003967,0.0089691077948117,-2.8008744784500337,-10.375574784275347,-8.667581957027263,-13.549851852364744
-1.3045993097278503,-7.944698063700669,-8.014311055462793,-8.140841650075682,-9.350774576249496,-11.027079547872177,-16.22116056031366,-16.06278614711945,-8.022876215069,-3.3882615572776418,-8.6689485528448,-12.39083671438477,-11.59976464171283,-15.54020555602956
-1.1259630540256969,-3.591596460298921,-6.4546220825302605,-9.982671062448553,-11.1987784202433,-9.583474348636312,-13.50356587017074,-13.230879433725711,-8.273268462726351,-3.9720457022550577,-11.338895136757133,-7.428890952427711,-5.343146434322364,-10.445174719228682
2.244350755907922,0.9747573224663896,-1.803543217375445,-9.822026835876844,-9.577760084829368,-7.412115058039205,-8.855759151563863,-8.467429611100945,-7.982314731295598,-3.630155164780735,-8.343922400884892,0.3044797567198961,0.0109001005481692,0.7069290941923317
5.785292634948638,7.217180229326273,7.139196659944933,-7.502381861404313,-5.38773829897514,-4.68170705792717,-0.2089254899802983,0.6168988784357535,-6.627746601988731,1.8847999755548397,-0.2599528772470378,11.05105626917546,7.462217901091316,15.546727455379784
5.7179408141275285,9.170534187435294,10.158717888253038,-4.166174801157663,-0.857679132223879,-2.0895261046255653,3.02080728394788,3.881824412404384,-6.480177845792197,8.279070238838877,8.887014926313245,16.666856714492535,8.535431244500636,22.01955663358562
3.43762448941754,5.748392222480048,7.093452929758531,-1.267101862032547,1.974914105656861,-0.3915415398809043,0.1104077130103189,0.5569221512633603,-7.683775747586056,7.697481705365505,14.04211068168554,11.44891287969904,1.2888948445521615,15.624018134632257
-0.0716640628709319,5.2746010971733215,4.8870968063724725,0.458647535312064,2.4924959595531533,1.658984972041392,-1.8016742818366145,-1.46454648820093,-7.827176166102991,5.381261381402522,12.654738981717417,5.463427345168292,-3.7325832664845815,7.090498001411102
-2.942132751485478,6.378985650977307,1.3497609105576682,1.2178120789989713,1.5731144031668265,4.341062295470196,-4.941311238777256,-4.54634183758732,-7.35781452445203,1.0449122509299136,6.328720523768787,-1.646946845189447,-8.792339939465316,-1.4840245796889855
-2.854255708611517,6.5950861801957625,0.3291406493431572,1.55204212235099,0.6650024658113232,5.652429239343647,-5.378401477612825,-4.753404588576263,-6.765921768625082,-2.8353987115493062,-0.8228175849901973,-6.514626150045443,-9.994278617049904,-5.552076196177078
-0.4084027377597164,7.17439329144141,2.914228503192231,1.5857523816981145,0.7379101274635325,5.764913327019346,-2.0071459323396987,-0.8483450967273812,-5.68682160816557,-1.2253668387001964,-5.524858417465204,-3.607963240207361,-5.357238471800813,-1.3008184565660743
0.6112897575898812,3.755169531305991,1.7942271826712346,0.8661340140443166,1.8588868379076509,7.055101263173381,-0.8536884529597268,0.9205801658117684,-6.458420323547363,-0.2367670601630929,-7.343926963487455,-2.1815769373451945,-3.257537215530056,-0.2651624123756577
-0.0485770238825145,-4.153229698089789,-2.182836839155243,-1.0492814693423078,3.465556309188514,7.9532641729869855,-0.9067068320250746,1.61193040051616,-9.271582441671631,-1.9294536657270749,-7.813373349732153,-3.146063749461733,-2.437781655029035,-4.722159015836364
-0.9896878317131268,-7.095645230542023,-3.478791809927252,-3.792859678561012,4.915979821653977,7.715925021595513,-0.4654876070570998,2.074667030594447,-9.48018486016782,-3.801286416556134,-8.013390906474392,-2.99702284492815,-2.282511318469878,-8.071533340133852
-1.826265621299279,-5.545599876177222,-3.042234161706705,-5.967679187965675,5.8961496399715685,6.825536327920805,-0.4190686970908138,1.3027191438843353,-7.354409564356596,-5.446480381789495,-7.255708414868256,-3.3942711320789947,-4.27163879964336,-9.545918694194295
-0.8416305253036573,-2.239162302703011,0.6237480622216995,-5.897593618384828,6.51638325111637,2.6754306049841734,1.6762694488883856,2.4738234208197585,-1.9658199619188768,-4.266516357152457,-4.12411176897248,-2.150755682339222,-3.4847762110157228,-7.676962650617239
1.4982333276423268,4.903802782415857,8.725988797069187,-2.9217658627107745,7.107338328282971,-2.8984637265160664,6.088986336758505,5.628300987693468,7.922607240771001,1.1734840298374922,1.392514967042619,3.1149221934855995,-0.0288818943499872,-0.3403332730953058
2.5003560786795203,7.232355720226155,12.249964929591291,1.7963400910860727,7.834852652353067,-4.888080867509517,8.301743819030156,7.217064866734523,11.68609547508425,6.091508621480699,7.011722497484687,6.6474801465510565,1.2849795896583731,5.325791454851663
1.1365948174226177,4.252518650377583,11.332696101882044,5.7786789915766565,8.405782043490921,-3.854734219064031,8.647819732401683,7.743622678721538,9.18475253731445,5.91292204015048,9.566442653810046,5.042668640065967,1.2138474885785833,4.400134368514338
-0.0965198457298252,1.9725548416675287,9.104353740517556,6.889994438030541,8.18543341543719,-1.1267856056188288,7.916548102290068,6.626424654240519,4.266535255552406,2.793804085085541,7.513667613368815,2.543010845052845,0.0078936025541721,3.3081903699839987
-1.1223563813534847,-1.6037670385600875,3.490096217964642,4.911096805612411,6.760023083290438,2.2793027252032982,5.123427839434886,3.0982782890310827,-5.678113737506463,-2.043858265218918,2.2853772719087573,-3.040426167544851,-3.230923491640445,1.8287077816415525
-1.817369386736645,-2.8332264928807858,0.5666100948943114,1.685581112101751,4.475387438059439,3.3074976783766705,4.532455611960129,1.8781175705751485,-9.454433051079976,-6.342283054612717,-2.7653102509354603,-8.044392855018756,-4.984836260976415,-0.6721873929105473
-0.5582328150169344,-0.8153285700596214,0.6610801204743653,-0.3979833426733901,2.340296345330815,2.7536615882528634,6.2579623449466855,2.87401397005531,-6.324623078881402,-5.485020882774951,-4.973786315342174,-6.1305724414487965,-5.298882334426018,0.1993003329830195
0.3260248815547077,-0.4759672268782127,0.5187806649287373,-0.3719930284139323,1.2244258232843066,2.0160429703916223,7.921031786941519,4.519154799327808,-3.1930783429535463,-1.2815140816679722,-4.33816938761168,-2.112061103739385,-6.7585376048613215,1.8056860177293328
0.573496864664085,-0.8776358039747675,1.6018006001488423,0.5784252537206314,1.0533101625198178,2.0745414067669343,10.49377308971873,7.889316913413553,2.673039398869949,1.795153984164519,-3.211115105173601,3.756451877442935,-8.709363365344698,1.519700470669617
0.9857748318488756,-2.528130865770087,0.4867322236573161,0.2612386775662934,0.8405341281696614,3.123022329393016,10.522567437911208,8.322129071327142,4.565650652117762,3.238458409314687,-4.02784810797144,8.479943362405672,-10.236758474281546,1.7062263412592058
1.0857384599574404,-6.286479861260444,-3.24358971330112,-2.5148691098950184,-0.3744305169814108,4.000359453168683,7.543767751557,5.507148916742775,1.4485412073866324,2.679400306000862,-7.096818002011046,6.641545307108062,-11.601240152225564,2.037618357763036
0.3307897505188399,-8.363024345466306,-6.545822626384088,-6.834172473516247,-2.5462808731460207,5.159221793147886,4.812152900076175,2.6204048511339857,-0.752004061577378,-1.7940970190301473,-10.403108611413836,1.039438596737368,-11.88221958553523,-1.0640035894549813
-0.0859898875450191,-8.957051920422286,-10.238449480386972,-10.37805373517371,-4.557408059110109,5.563460855838887,1.4734728037212657,-1.4476523228305638,-3.7744558119064666,-3.9919990059063695,-11.51960959732611,-5.139591513462191,-10.846655562565395,-3.783735493968598
0.7163558635512806,-8.452354994777327,-10.483615156176986,-11.224049717094012,-5.1397940049754665,4.7798908476019015,-0.0677808453513038,-2.048584034495244,-2.622230301398785,-1.4210003996322915,-9.755110064689072,-7.6420528419000995,-8.007457742295824,-3.479490517187358
1.0728820843763212,-5.977722093742627,-6.517906868424884,-9.154839897032584,-3.922426484745941,3.284422071402992,0.8410868357904421,1.5406112647064925,3.843523358403999,1.9524798523813145,-6.496797044666149,-4.331576080281522,-2.935120015259894,-2.347402267854352
0.7416587451655678,-5.431604152221845,-4.465943326194861,-5.507358944955555,-1.6845524007466348,2.2481367805368477,0.4986912293873335,4.510843567269244,9.004198211304045,7.008246411127377,-3.5465938880951007,1.1006913079294491,2.2692679949042174,1.2500965670278303
-1.0991068745513195,-6.835305264366365,-3.482969493959074,-1.9692297879355467,0.2926242882969072,1.7197781036339588,-0.4679728188593386,8.033399799486052,14.150803747078134,9.764957841827824,-1.2926830901303523,4.903399144350193,7.781862949080937,4.798156471893803
-3.66308679643247,-7.1474560979178205,-4.229055369482314,0.4866117675455667,1.0868558570471996,1.379153997898762,-1.9844030072631456,8.218062223618752,14.31500567798227,6.341067810090643,1.3208506403177336,4.471725884456747,9.06273542473492,4.436123226091048
-4.076148582204738,-7.121511946052131,-7.974631757106346,1.756339338630878,0.4985148044748093,2.169586593894316,-4.694420681986455,4.015604643427253,7.916020966698351,0.3990898158647101,5.027880701236502,0.323553877993278,5.174958694106602,1.5486983620133576
-0.6804935017558049,-5.097269815369271,-8.072182011970366,2.077998690130124,-1.1673371045212737,1.6521899761496797,-6.872298941976847,0.3486577834897608,4.380854906530676,-3.5035243892245,8.681302268395994,-2.358493831674456,2.857024105550875,-0.642583571136407
5.50651419097332,-0.4807227742229775,-4.708482178475652,1.5831039404758736,-3.448611580533792,0.583479778699173,-8.657841437245834,-3.9127356404851663,2.442869509585175,-6.351371365924598,9.77591577409588,-2.0043368739215888,1.001758511685841,-1.589921141495351
8.570171250218229,0.9805662997675072,-3.80123246918718,0.3542079483247899,-5.8166723902367234,0.7866828336515934,-9.679244333479131,-7.00295770876772,1.5152112866520122,-6.787239348159304,6.741975830812285,-0.2566806800004787,0.3005739779033847,-1.920278873507207
5.246201975484653,-0.5348072362973412,-4.258321520284211,-1.2522285127681636,-7.5887016486550625,0.6681344390467894,-9.523115083132543,-8.051030245651203,3.388847438281657,-4.6093282453597615,0.7387827935553704,1.5668491529767488,2.041815839360745,-1.828823092836673
-2.286323250798345,-2.075704471128656,-7.082715356322199,-2.5223451118754845,-8.022561923085984,0.687386181454151,-8.639850378418997,-9.20257226029694,1.5080625075313807,-5.802579671424966,-4.955188564068685,0.8650087103081474,1.0685433183422866,-3.2581974095246853
-11.909696533454282,-4.822721692912162,-13.424683531383591,-2.726198949709847,-6.7382742616231415,0.6569860524939857,-6.742091286247613,-9.737994549768048,-4.003501428365189,-6.491830751982866,-7.509757466683072,-1.6008276255682006,-2.2720955337801936,-6.10159076192213
-14.91087280355784,-4.532512169027759,-12.989522411059577,-1.6090488131463818,-4.155760346760411,0.2726960934372434,-5.220260480291514,-9.08937030605987,-4.400711778163074,-3.9611535627773846,-6.678129890587996,-2.7327682354469225,-2.1716498952519587,-5.977195807346228
-7.671964664836354,-0.6049302223602212,-5.604950392536743,0.3859514186915689,-1.4643665226717868,0.5787474841206134,-4.161012173478143,-7.350122745498477,-0.4709389014901172,-0.8985991251138977,-4.540178817663302,-1.639140270328204,0.7772706555956875,-2.3695964625405077
1.3397683800183555,1.7624268675432957,2.063167809563477,2.3482815394401357,0.0199666807919882,1.894358407169887,-3.296886938578497,-6.720287265244681,4.174173109248937,2.723197173331567,-3.225334914843653,0.0588893246295275,3.4075623101803028,0.8547960470841582
10.894053323739149,3.5137958325349605,12.264138368921232,3.4370326491432586,-0.3053543285521058,3.586313743552792,-3.0268989181716943,-7.287060762471667,11.174565283291216,4.891889978514572,-2.866730198187783,1.1124932366737237,6.701852430477143,4.720166603907366
14.13074890158062,4.756612608585864,16.43345644885198,3.3955268409695227,-1.9384735426286603,4.879178710361098,-1.1499215263401958,-5.114805256471583,15.00923960297058,4.22300262814014,-1.6765482766784316,1.259681249272337,8.771047442915984,6.1202391982277575
7.244338205803761,4.608922076445881,13.108998825125362,2.733774218122312,-3.632738993370083,6.213176801252222,2.404138781540291,-0.4700763325856595,14.995088376658256,3.4386329615977367,2.0791077569801217,0.6605776849269243,9.064746544145311,3.852805046893993
1.9030258055012583,6.806551225061557,12.738637485227848,2.446072251736528,-4.2047638884220735,7.950395848896229,7.073712396817106,7.3531668156931635,19.188601985000066,6.428666122353214,8.175709155833955,1.0947096665454563,13.87328272076598,5.062997365872538
-2.8107740567546697,11.304622245554867,13.262998586724104,3.390854547814305,-3.186005655193224,10.831756907310776,13.440552338725716,19.37643457586905,26.554945743946167,12.053271177846884,14.35195512826702,3.148191548254648,23.045083001832268,6.945074141059968
-5.445077019318763,12.046452170358108,12.884729565684829,5.698076750039196,-0.9483743303858728,13.244054456728565,15.888959539536485,23.86784997674753,28.54712366921917,13.66786495847496,18.02514706571832,3.831685296867743,25.001743128723916,6.222490308813693
-2.2510007890551598,9.391231344327956,13.11012757972447,8.61007493630032,1.6003858491813023,12.966660983336066,14.01826649911378,20.38838364384057,25.925499779705145,7.717932134745467,18.20053973870665,1.5533762252045331,20.2056345987459,3.867103913098468
-1.704069862989502,4.949063680219746,9.9575230630536,10.908387604684386,3.4432602428721086,11.72964524333167,12.073958536542769,16.743876010847256,19.85773939140306,-2.3564968273754388,15.994029560573544,-0.7216970973870046,10.938330911962026,-2.5285321625247987
-1.874934889293572,-2.611852283169461,3.2768558304051782,11.674321624777123,3.826535505847868,9.078898364121509,8.71475081696475,10.240836823492772,8.45064552093339,-15.639395065914616,13.550571704563492,-3.634532768757912,-5.559057266461268,-10.211642935647504
-0.1726965600726718,-4.712021653370127,0.9517357766764704,10.877144528791966,2.565197761122869,5.844293684292413,6.093501163251967,7.084401062853157,2.5627270021093267,-21.21858401975774,12.44673283844793,-4.8918354488861215,-11.407067434517328,-11.74910274876916
0.0220431498944669,-0.7593785414819761,2.659544363966177,9.39416252500471,0.2011397402719126,4.648181872431983,4.840254907836766,8.548266842560801,2.594695469526473,-13.189787681365583,12.821027078331465,-2.104451897467885,-5.67703783934278,-7.10578378186726
0.7290737512082087,1.8519985223502609,3.1884009978009225,8.463406549265937,-2.190837319067432,3.0818079043484023,1.2886852273815814,6.354427154164988,0.540623045952541,-4.7858556847644245,13.619312943924747,-0.7690592546935784,-0.9147207417907508,-2.138066504369976
1.457476904728235,5.046006034968508,4.024144991410995,8.945992238476283,-3.5976094174648257,0.3421986367242237,-4.036568458388428,1.9953469645548212,-1.2337322401137032,5.200610766986504,13.452244788133138,0.3972448937529663,7.0106669718015695,2.6460666082433018
0.3172965517345927,5.847858329672713,3.1738017831361027,10.86114637361296,-3.7042854878324034,-1.2457881731420446,-6.325914000949244,-1.0223714634385244,-2.5337326824982545,10.864566000430049,11.381609766174297,1.5247374801904816,9.630417976016936,3.865870819421593
-0.4250024726395157,3.0000731036174897,-0.1983453838053532,13.423819790673848,-3.03300741085696,-2.702899138409792,-5.785359503842013,-3.751926073921701,-4.219189035286454,5.541968122441536,7.336929852658783,0.899432773568527,4.949438706185887,0.8955892822228687
-0.0096000535028437,3.1431822841437,-1.0397213751469243,15.473262793690072,-2.423665974114191,-4.66199483503132,-5.502509213538578,-5.777093964359931,-4.265882972175902,2.837487235074149,2.189664474506163,1.360259650777354,4.393371311048882,0.6329492201869081
0.0575591600682366,5.496893724740653,0.2019562101191774,15.99041336125209,-2.324050854284679,-5.001952211211687,-4.538311600330404,-6.602625144590892,-2.7923703180526505,1.5345053324007143,-2.5156961065737957,1.640202672904165,5.812956601802657,1.836241432985707
0.1267086600884263,5.350442081256992,0.116121185650536,14.455932280978136,-2.548016527482127,-4.39409353940706,-4.576019646591348,-7.759214791398929,-2.834888670992337,-0.1938460795926119,-5.256698424346633,1.223425413730954,5.032132458638017,2.362410147810494
0.0080813184315873,3.5803032865554223,-0.5236353476210978,10.982991657192464,-2.6654092755545165,-3.7812934415128927,-6.129597361861265,-9.053560920516505,-4.244860328349725,1.422123052134686,-5.473787567811407,0.6993455037431286,3.5110654031521307,2.7580986249399024
-0.7871700455622442,0.1630681799430485,-2.142896014535272,6.267007047598187,-2.5320478556825687,-2.66196447148577,-5.8377030017203895,-9.623643994789465,-5.115904646528217,-0.0542143626236245,-4.11854775624419,-0.7907310083953107,-0.7439933663652893,1.1849134439693971
-0.2433287437249068,-5.762161952046246,-5.322324007693911,1.376787865055615,-2.375738132817416,-2.328589436930613,-4.076831595969921,-9.67742740437343,-6.024889350619498,-4.897736304059753,-3.146267228944602,-2.418867257056689,-8.376717031054445,-1.0296752664248867
1.1883644715163095,-7.833168661778378,-6.38580702916612,-2.609139450443178,-2.399702948284945,-3.836822846586121,-3.755345328734723,-9.94967391033516,-7.4895805895189,-7.079239943233182,-4.042686297095807,-2.9376708639196005,-10.692460346661475,-1.5047969715702558
1.4927842911826166,-5.852332079593524,-5.370019604862388,-5.030085587876925,-2.413325215876344,-5.197740761376313,-4.467328409056053,-10.383730769631178,-9.350256289175553,-5.492083521037694,-6.474234908828542,-2.1792135086553914,-7.655926747766779,-0.9773288788878498
1.395509144175181,-4.919764818656522,-4.548723742612647,-5.913295321778523,-1.9418037988687555,-5.137022533344807,-4.830613396124532,-9.950345408523743,-10.155133831881772,-1.6640622721310907,-8.354475271566699,0.1880634895419383,-4.55671521279278,-0.3204318625773082
-0.0214638096691447,-3.70122114237523,-3.1715733918402984,-5.896342273678444,-0.7109196163157856,-4.292558784919689,-5.305223728876738,-8.727104686684662,-9.835575589398283,4.739792969383469,-7.562401232175093,3.5811186667315003,0.4921248095405913,-0.2537908028476214
-2.143401851648317,-3.817000342060062,-3.701167351710634,-5.844264603428581,1.0054189283045103,-3.437217725424776,-5.037765439247541,-8.399616786183017,-9.9443689628521,8.508440639125737,-4.013626990431614,4.727684242805371,0.5513930931404263,-0.690828872837499
-2.3132155108366264,-6.095609720098724,-6.603050091360669,-6.423513798389253,2.524776189478466,-4.935740695813389,-3.7960684032043406,-8.894080499406181,-10.187284299463602,5.973573645233461,-0.2257014690024652,2.603423627880165,-5.500336684834008,-0.5397270464877723
-1.3860279687361323,-6.716827778624183,-8.44769652054641,-7.858203723581933,3.2402879554921284,-7.800595580912834,-3.3040605054727434,-9.79849030704522,-12.62834727221287,2.360226980333098,0.3588169194527637,-0.988508222847323,-10.593030974472295,0.0683532928320677
-0.2954969354739812,-6.153458480777313,-9.804438657353993,-9.87039708275831,3.02618183156001,-10.582275511192952,-3.3883571177785727,-11.505125565926544,-17.744967355217696,-1.243676323080856,-3.908826303106083,-5.579046579941126,-16.49982665695346,1.4052849657102349
0.6859649335868261,-5.535505073953924,-9.666642251865534,-11.702686808737043,2.2971265001974066,-12.36123457054573,-2.036701166525768,-10.443496949519307,-19.54242489008524,-3.3245901002727605,-11.346674797434137,-7.035127432256308,-18.153242791803,2.158273245088914
0.7092704893479235,-4.214576012123046,-7.314027621341467,-12.276102070902034,1.776465120846335,-10.864268777109624,0.5836311230201395,-6.350759125429889,-18.24186740639221,-1.7025839816818256,-17.924427045292312,-3.3829214656881463,-14.109731203797931,1.4932661397822966
-0.1085474537523525,-2.4212695595718148,-5.994581669750843,-10.665576808984104,2.1660260833132314,-9.746651011448002,3.130390964864504,-1.7337639738758317,-15.678571623698282,-0.3355297724495368,-20.0387694899284,0.3805438470008369,-10.469739566665524,0.6376850695536599
0.4291186388892906,-0.1485034464331159,-5.375416678065013,-6.827842169447972,3.835238758980462,-9.882997177517458,5.942903136490557,4.283681884270735,-10.50660364538322,-0.9443810890138412,-16.91592852550484,4.384496377243278,-5.696835868887163,-0.5527673484490241
1.9526693638079973,1.8260440933170063,-3.760953410046881,-2.043716208599699,6.583791197224006,-9.890630962851468,6.809914352893674,7.716116390861291,-7.548771124575333,-1.1734449187002458,-10.86994092344892,6.324510879995392,-2.5282477266823005,-1.0665569385040212
2.4076962977166048,3.39145370426833,-1.6654986326707402,1.5482452937165283,9.60398603465056,-11.740131908920583,5.31283361057241,7.961360734659053,-7.059262361196344,-0.4985139508792137,-5.431104714441801,3.7242352606051954,-2.015652715945464,-0.7198258446630135
2.0004300181442742,3.7381573739186846,1.3986513333969044,2.2861979477965173,11.798322677837003,-12.878380446386029,5.155619013502892,8.742969818791266,-5.748417872502758,0.5267758347663896,-2.942127668560615,2.005429739792987,-1.552628464103445,-1.3440302800078383
-0.7284628192493422,2.5015680408995578,5.679692495598903,0.2359325427846257,12.39861639437699,-13.310453263561971,5.875620026544055,9.022216780433268,-4.714620033161822,3.4417986932115454,-3.360676441871236,0.367424923091695,-2.168459225620615,-2.743487768968286
-3.896161180176312,2.476292579737235,7.292225385289278,-2.7680921327058448,11.492115412026424,-14.622853123224074,5.514038202527822,8.409499089792375,-4.079284952123997,4.659449267874828,-4.826955804009133,-1.552250837414615,-2.676253801575861,-3.657846306269281
-4.073686967489256,3.5096712704546302,6.091131975960382,-4.485576801632989,9.979519362450793,-14.484098308220055,4.625963735329633,7.289927740758404,-3.5695225392142005,1.7833950570317936,-5.223122009936136,-1.6286353848555042,-2.857540605730461,-3.4923009933508133
-1.4455370278590205,6.091959380806044,6.096107103601821,-3.968373745570601,8.895778084759263,-13.28034651938932,2.175812563740721,5.534916581218493,-2.647009295412522,0.980793447484173,-3.510935608483237,-1.357131764251235,-0.5096192725764245,-0.3572946040162156
3.085596708654707,10.954326894710936,6.558786041382442,-2.175710202787584,8.618545297393847,-11.066908472592903,-2.197609391618682,3.1937147721339265,-1.1853080666458269,0.0242973415072837,-0.1486021477980779,-0.694218529258767,5.004694217821343,5.292555984638299
5.500791746968012,12.107361952499325,6.110557102947849,-1.043048165465959,8.677476766690353,-8.060621060709233,-3.423519401292744,1.3289434592895402,-1.289390338971037,-2.1091056408133557,3.339841078621343,0.201016530393079,7.63384570606774,8.175915083499081
3.250295911853476,9.482185511981912,5.305525331351014,-1.9004686876550907,8.356099109574844,-7.034416179601101,-1.4511661041512502,0.0596846896288246,-2.9401332211533378,-2.614100184987131,5.194664775264931,0.0725817924141078,7.746772562065864,6.2090193691066204
-1.2534599295858129,5.66671844597984,1.4361415813155418,-4.600181389370002,7.48960757916908,-8.10801765780891,-0.6439722524926403,-3.7411152474538687,-7.225936965089668,-6.1837039413701165,4.263019850208015,-1.5975966924076392,4.522471828900086,1.0671873892523955
-5.749832695998003,-0.7597509836233299,-5.8789044808775,-7.922543590347058,6.615862706972522,-9.635720395177945,-0.0151927955088071,-10.02683133624407,-14.833049787538792,-10.576669929325927,0.6018405017740449,-3.481083302362073,-3.5827215985506418,-6.438181572319403
-6.289207104622955,-2.339091373512913,-7.594206144889355,-10.650170893148598,6.275467635258072,-9.611213062752023,0.0688845509780584,-11.62698651659502,-16.108963951459696,-9.112561908453683,-4.404357969011856,-3.450564016733882,-5.537123001677644,-9.930187719750068
-1.8157932893969857,1.6094477344372689,-3.730796233115353,-12.267772705796704,6.192384892683483,-6.115509602748407,-1.0893023536665614,-8.649318163461583,-10.756195351124845,-2.476662135486648,-8.591339437889019,-0.8735275977937031,-1.2991412669282636,-5.663503197781127
1.7822007553409658,4.057172480872375,0.8424541855613016,-12.83580063714475,5.299717653832717,-0.5094446725965763,0.1041052348581772,-3.7351627218615695,-4.347351112836053,3.5960448975304624,-10.068912212898116,1.751586132770957,3.540955401133045,-0.1036527048655782
3.455068857307952,6.697272328940998,8.134215195226481,-12.458004700345594,2.7540501242726485,4.370064397385751,3.56374627005387,4.797308740758557,5.39187055924765,9.579187328083547,-8.195222898297818,3.3050609426878643,11.457449303591194,5.588969396879467
2.857941683881556,6.377775749783689,10.447274910945808,-11.036771620896054,-1.021799066686132,6.93977429853219,4.462024797352486,7.530458415428447,9.042527680324596,10.599978985698666,-3.83557834851624,2.8556847889785644,13.722654044351325,8.142321621934489
-0.0413801191032831,1.7980385328733044,6.767126484870258,-8.544969745437044,-4.423230223636935,7.49633739502109,3.230180565833179,3.707644668230533,5.381479847040651,4.649146053997314,1.2255934461988005,0.3765757045178122,9.28190746851111,3.903374164837981
0.1913923284444399,0.1950987415008381,5.284501026298267,-5.431107256163864,-5.994463215765705,9.098172704927007,2.090156884514885,1.7731383099792373,4.301159389475651,3.442930332849881,5.230345153713621,-0.0231892238778902,6.630355485577991,-0.2889645010021536
2.3386104435488795,0.7650919356648483,4.195394794353823,-2.641504545641059,-5.816149086571972,13.703876638083036,0.157408033265845,-0.4019174023812223,3.582599030858817,3.2022923393512843,7.13590508728597,1.1161014832548926,3.7045538174368193,-3.096642505693452
3.125342174211947,0.3783311838114204,3.461385835404536,-1.1403275293838284,-5.546136024233295,18.31153294680037,0.0580374357842035,0.1101549957425218,5.095894989761816,1.908178153575676,6.859370464912473,1.8965064747655669,2.8465511668140584,-4.059969209301973
2.1306586330526907,0.2260660739340146,4.302397595151536,-1.2909851455554442,-6.91449296646935,20.27826650268348,2.2014835315501085,4.732348995590949,10.488880613612253,2.0088725735228063,5.284727761374306,1.6280508795462256,5.456941742506906,-1.5149192083266496
-1.171971380075406,-2.7506585968256814,2.9158527210465577,-2.5838753544991686,-9.992192282212011,19.433101801908595,2.070683760184713,7.0544893920345855,13.166930830979696,-2.6665713808310656,4.103521770972529,-0.6301271329424746,5.805130744701666,0.6919601753582681
-4.5883816636585415,-9.102888593185064,-0.4876619058507159,-3.909369469450047,-12.884830194585454,15.34090461759879,0.1307575182556427,7.952322646791102,13.813994358265814,-7.411550148272317,5.196551644045755,-3.052763263148678,4.662642037558506,1.7645079615752086
-4.695512072723197,-11.145401841805311,-1.550570424759676,-4.175968388646368,-13.256894128111243,11.021761314592712,-1.6798544633134596,8.087460867768323,13.99309161904806,-7.384304992870874,9.417598895199514,-3.3882612578777374,3.830344983209793,1.7832367468950057
-1.4736165779126218,-9.205386127882674,-0.7156380682574053,-2.879511193043289,-10.404730379438586,9.455430978001868,-4.145618012297368,6.293366333552246,12.479640650958686,-4.702135038354096,15.453116978543555,-1.2859337310123222,2.389277653559311,0.4922408640550372
1.603538403048404,-6.463275657527693,0.3511737290342564,-0.320544403580655,-6.050093270555063,8.818739694130496,-5.223143785275693,5.238556576092016,11.569584210296057,-0.9128192373671332,19.98495393194321,1.1690972930892325,1.692377117715351,-0.5546304785542977
3.3465884362705167,-1.300877182954696,2.4588744665999878,2.5954021292643965,-3.134078165064322,7.39684378347253,-4.583924860236118,4.758413528799656,11.27108455668118,0.7366373494927198,19.664148907018596,2.326257170974815,1.8958469344147977,-1.778044631752009
2.4299332940970046,-0.0097333497624202,2.456504959011493,4.82893704578937,-3.622032979610751,6.71773745962855,-5.379111090280564,3.3467533631006545,10.203024688720904,-0.7618367742152347,13.720176417390084,1.564250772710001,1.4736041210247892,-2.604578616208508
-0.4303322757031665,-3.2224442892306677,-0.0069245707808381,5.709080265053414,-7.123256823577824,5.804707636758785,-7.20813037713066,1.450141825508874,8.81612100024638,-2.3183445042756663,5.006069304042271,-0.1461398136193676,0.6951997760047762,-1.7773940257464038
-1.171289821036201,-4.222805211533136,-1.74200664454248,5.232006419409638,-11.334967886239353,2.937046608438913,-8.947773554075706,-0.4105145799316194,7.254058405862167,-1.2202338487442312,-1.739515324537816,-0.5414419082091747,-0.1746878535640101,-0.1301894988102805
-0.6002249196234238,-4.372121846826263,-3.4680032567576453,4.007811033444389,-13.758501148768977,1.6379847267116168,-11.123495649200043,-2.3573186300112616,5.401332003798022,3.5663283345167,-3.265493464702752,0.5228385612720627,-1.376321362567987,3.219204803199579
0.5176348364807097,-3.9080649053489926,-5.0821723980421725,2.872458149136479,-13.22854979851379,2.6419479725123782,-10.476162223456567,-2.6810769267516985,4.734510346448356,7.957022785522871,-0.0965568903696372,1.5679134828324237,-2.7908970179065857,5.893359792852015
1.4501324968847915,-1.7751186885839862,-6.10492336338514,2.3924417095092387,-10.221327540285802,5.420598828539585,-6.636239080246203,-1.108719909341995,5.400773020226336,7.66897955041695,4.146482568681682,1.0219870269913622,-4.456511914448744,4.482846181789576
-0.6317449384662495,-2.291441643750798,-8.096720895810558,2.600908765894534,-6.085430182726844,10.845903301418955,-3.590905792096053,-1.5021311647812,5.135795482633971,4.046686856948277,5.722968189374508,-1.5460793551155407,-6.009970009260963,0.5798300783210866
-3.4023357936414067,-5.428855613738674,-10.94890235411908,3.164454507678869,-2.10184088399544,16.534375601108653,-0.6490275767966991,-3.628865110711105,4.199660702703991,-2.150644620085512,3.4736165099611576,-5.022692219442814,-7.413314707781014,-5.5628671887990455
-4.384829209576474,-6.422574312526638,-11.28576698742707,3.818353636167675,0.9360859788228436,18.203488710839263,0.8296758282557213,-4.897381230990526,2.323291470414825,-6.389207685054887,-0.8683304404270391,-5.897937976358728,-8.980716375874902,-9.066414816249829
-3.2527929471317973,-5.929786567294028,-9.11389155302358,4.632950771833919,2.6634404571098558,15.72390608202026,-0.0029205994636993,-5.9799633946271324,-1.0015807113193376,-4.471641505094889,-4.631177011746752,-2.5649346577897965,-10.622655607340024,-5.470471311479516
0.15914293272473,-3.952073037675559,-6.284972254823069,5.80826432828478,3.0457471505851217,13.065817486436655,1.0534355317143835,-4.166083935818063,-3.683901952854821,-0.885357353716342,-6.436962969382561,1.1894499401648242,-12.690022032153482,0.5856124549988946
3.278371083963253,0.4745276944345337,-2.0406805448360528,7.199348977562959,2.436558543706205,10.500958085553291,3.597439520135028,1.1780599148147604,-5.861894922336595,2.432657589096685,-6.831671799810682,4.982988939822634,-15.254330121122411,7.696394150391736
4.229176336527102,1.8166877738484437,0.173980115667451,8.147206545136015,1.5583605325048318,8.995345221979335,5.341742392693273,3.207838961206051,-6.460725428348892,3.9623229514030265,-7.126133631945326,6.250264205095357,-14.971535198815094,10.152504064271358
3.3142138289956216,0.0239580301587207,-0.0832291026169313,7.951934011868246,1.155654771011175,9.379512716689725,6.962172490384602,2.3102200263344583,-4.884939600531471,1.053260279964249,-7.8242118389453665,3.0529883187554376,-11.632606092715433,3.980677332095733
1.7518358804932148,-1.9245205304625823,0.5736401049522599,6.606428677238313,1.4813615374011349,8.41560095949816,8.007083438935327,0.4786174363772554,-3.0761277284086272,-3.1599865711810207,-8.123507442385655,1.036277279624245,-8.154953802385592,-2.94509970343518
1.8316269127866545,-5.259932240174734,1.3086336614964496,4.969860715168972,2.09024155951016,5.972152636733201,8.1548338169808,-3.7534587775035866,-0.5991478127843698,-6.074344819412996,-6.792049828017406,-0.7502412895198413,-3.784152221915408,-9.56535542825956
2.2541703982046712,-6.260476500265884,2.472192586975257,4.006445513283468,2.209454473921033,4.101802080710276,8.105984335508722,-4.190008900376074,1.1732607300875917,-6.21284871553894,-3.480142731423774,-2.134836270221386,-1.230268795929868,-10.881974074972772
0.970402487897311,-4.411218071835992,4.553828781281728,3.7230006635240023,1.4151683560551298,2.081946926385672,7.653497065602417,-0.452234502176404,1.830293353471196,-2.992195899772567,0.7267773418243699,-1.4422421211625205,-1.151385916410273,-4.025352812400664
-0.0397884619991988,-4.028528877987671,6.433717461727785,2.9566431219407043,0.0307165043627257,0.7464618514959599,6.338055430193241,2.6276524822533545,3.232794966145752,1.7524628882454665,3.944833024316264,-1.0788918142232158,1.2953149009838372,1.3618505914387111
-3.1397386666461635,-4.274808213248756,8.335705423802533,0.474629260788042,-1.1035414325305233,0.3666721310319777,4.176177416933777,6.440284566137486,4.972649688549769,5.830932532763109,4.7509548648957445,-0.2482531944540778,5.506877764218759,6.001223804007859
-5.628279703277038,-4.411577909210444,8.700940111438353,-3.508499010064053,-1.2881708020794136,-0.7119120397419786,2.840893349769165,7.204342811737599,5.477799690730673,5.8811474664986685,3.0733866387581976,0.4361040963397001,7.11181092391681,6.865207890300402
-3.618380668443439,-5.07318551214101,7.204776814587263,-6.940118186182776,-0.4985241869103873,-1.0890695545257096,2.375361272167436,3.984585638129796,4.857176847389493,2.6187128014705183,0.094048956251445,0.0538987117246764,6.645543539776419,1.9102704161116
-2.3237998985476533,-3.167913537831498,4.928972902992858,-7.326237890810436,0.6288650312186732,-2.980594318196637,1.0408696138997613,1.915256798043138,4.111930661345908,0.4369979877349528,-2.679542055391,-0.5062668743525934,4.951253546985781,1.3782538297775069
0.3789101954293655,1.5065304723267483,1.372391500904533,-3.8672959394009183,1.3199908806853244,-5.757937313146753,-0.8464966001368801,-0.006148493584836,2.947132660441018,-0.3066168122994334,-4.420160344395601,-1.5144220605743632,1.1661347155406572,2.1547428407041207
3.0509001885802367,4.297850247941525,-0.4557683868070246,1.5981621859223978,1.2580265802961,-6.682528700562477,-1.3110699856624306,-1.0152218419051238,2.5664803227143835,0.791504361017422,-5.295931423161871,-1.7071175060024646,0.2238744679953496,2.328098097158595
2.0412572719081403,5.681326704052809,-0.2428263770666232,5.855295104287126,0.772805896568638,-8.059338945331218,-0.4553511356747852,-0.2067001118878965,3.2117336088517763,2.476300183049773,-5.889379020339341,-0.1696689192222553,2.401557459324021,3.5187851516785504
1.706606362311455,5.467168479859283,-0.5285307661945331,6.823456683786933,0.4900056822553544,-8.428280042626257,2.0336776896896183,-0.0569687143128109,2.8148618342008964,0.1737882857697981,-6.268635899600966,0.6328031504700891,2.3271941580675395,-1.219892306040364
0.835543716146088,2.6101494748053224,-0.5742332217225439,5.153915155376886,0.7534573564636489,-8.409789097406042,6.698956199526815,-0.1361430507263624,1.625237009509851,-4.328903719035078,-5.626526778597135,1.2977016134064867,0.9512399598604534,-7.444886216773499
-0.3594963447762244,2.3992751017489584,-0.6648054958133001,3.48812920045334,1.3267289306122798,-10.345356226229162,7.499938909423768,-0.2821138478306025,0.7537945194075905,-6.391553803553848,-2.9827212490850243,1.7827808060574069,0.8621869284369165,-8.485993563442149
0.0591163077239396,4.751405440717766,-1.1069083895703895,4.012839351550401,1.6357077414058416,-12.536986218960552,4.207680053554948,-0.8865845531960747,-0.1123388499195593,-4.814050965886199,1.5515596833225018,0.7242645854106083,1.3731865230834672,-5.385906799707872
-0.420500553463315,7.386630954108462,-1.6291053286562491,6.478195575244847,1.3262667125671328,-12.950393689490229,0.2222584070378522,-2.8353698981462885,-0.6973016422628219,-0.1578252772061049,6.168763927357961,0.5622927035197256,3.698925481328785,1.7818896859899824
-1.135304140655902,11.459590492713216,-2.424351412443484,8.442351319616861,0.623807199797831,-12.14369710761084,-5.907746111101595,-6.377764950510046,-0.8277908673373134,4.815970467092853,8.28358709398514,0.2853150973429162,8.343103443187438,9.339536353375657
-1.140712927261625,12.490467527994662,-3.350205967915688,7.519254756343109,0.1757916499884011,-11.236274084346574,-8.543583912094263,-7.808444298580917,-0.6359233294471082,5.316754167801584,6.489114185729722,-0.6333631271938436,9.21874514383059,10.51035410455504
-1.1297479623414306,10.032800646500842,-4.439960581246016,3.617759635516453,0.5406536533222202,-10.34398670800185,-6.988651769796015,-7.15489247608554,0.0265942919928924,1.415477990209116,1.912155777778711,-0.5995121409068995,6.295996207145591,5.373639757334306
0.0310016848189009,8.216997270086177,-4.190288169659294,-0.820098570746886,1.776271756961684,-11.99507655253122,-5.918271337855975,-5.06778669468364,0.8602437983530742,-2.1802829419286103,-2.391476003471821,-0.8342145280146032,4.043279890813693,-0.7621541553015171
1.5792330129834222,6.009044935559723,-2.434324140405673,-2.780632550653351,3.423086067736678,-14.576663254132407,-3.90015324177496,-0.601028896208791,1.889653992329625,-3.7491940917559057,-3.685348747148247,-0.5443579930861295,1.2178512517561195,-6.103093389801652
1.826670446490037,5.750148029256521,-1.295292329659332,-1.1028404391830229,4.796849015818443,-14.671553496735976,-2.62993590051647,1.3834270189421265,2.1050451458014767,-1.7547162079924603,-1.577344827954489,0.3634369356894292,1.00375727454889,-7.465052306929137
1.1799554704373152,8.230573272730627,-0.4760651664575832,2.7039975535238927,5.317476699309646,-13.01260591351968,-2.745756704810146,0.7407913876899802,1.3392618828898963,2.360187849099819,1.9161811436445984,0.3755333547235659,4.273029694176589,-4.1469646819078765
0.0857371624443047,9.803458186653026,-0.5295013259341801,5.82708697553881,4.726281428842354,-9.65153357303242,-2.445744806503326,1.3898713632226212,1.195403733785691,3.4298177158553766,4.228247618936345,-0.0247319632447304,5.987633860688447,-1.7923784642155576
-0.7928273692314435,11.153835340776409,-1.9314341137433155,6.391151309477175,3.208857224616061,-6.154806999998487,-2.3185221081394296,2.330055099132335,1.4607978620828417,2.476647799367098,4.278040372106609,-0.9051909925062008,6.963054282901956,-0.9762774112811484
-0.6966797189657945,10.013121540506688,-2.646114450568993,4.678590869089042,1.4070004995557517,-5.329298309738836,-2.8720233850846046,2.529712772072253,0.7508746618571347,0.1144814726225724,2.9504097750389544,-1.711973875093642,6.64848004982967,-0.536428955866395
-0.1933003184359931,5.551053610516696,-2.87692221107673,2.52061119849804,0.1838341876375029,-6.341001527662799,-4.017746974621397,2.405462975173814,-0.755818315278019,-2.792962628708114,1.883059918849652,-1.4882962833902695,4.078071747944212,-0.9504051773549635
0.2448482664656521,0.1829305787666717,-2.431864227974996,1.6410229985441802,0.1048646499115246,-7.221082126820467,-3.805812794930871,0.0408095655364969,-3.4343266912182746,-1.4831657735439503,1.931254971867336,-0.4449385085112964,1.7069211185634052,0.3472012981128569
0.4529026059094765,-6.921523843648426,-0.857554071135711,2.3965039074988628,0.9325107953988576,-7.322444124207061,-2.154713333174914,-4.859547225868652,-7.619903642684902,0.2831723365808241,2.6790580414749554,0.9882759489255728,-0.8802354420304069,4.127472912753694
0.2932855068958067,-10.573617899179077,0.0253990956724079,3.7358950177556753,1.6314770488822623,-6.264339687431347,-0.7631797362045374,-6.695754638685358,-9.49645197677824,1.1946394903889832,3.1190079149943326,1.9561402552330465,-2.4934326863079157,5.954276957603295
-0.0087293829655349,-10.072937931351351,0.33272229060058,4.126658421990628,1.091780435486605,-4.923668741766233,0.7918930271731046,-5.578694598110181,-8.95945647471725,2.350559747676764,2.575691626202562,2.1068441325175904,-2.60222169425743,4.507351469462637
-0.6431969665444778,-9.706354123005427,-0.2434423875649871,2.6381118879464323,-0.859674917290528,-4.14558715850528,0.4440692207817732,-4.1706218706378655,-8.661488901402741,-0.5128463907747969,1.0529607985674725,1.7735159384281376,-2.151598098898548,1.9426968421899995
-1.7576747928338263,-8.097194507487101,-2.159033972064009,-0.4665795400780155,-2.9990283979097665,-4.096762952193799,-2.2511863886543355,-1.2503125971162856,-7.760081884336385,-2.3784724955293206,-0.9893146055061236,1.307566924577819,-0.6213359411865024,-3.291246318563997
-2.332088468832003,-7.129704041396148,-2.29615733079863,-3.850312810510628,-3.360629229594821,-4.344756283295426,-2.389646190311951,0.3737299486726512,-7.868658125310143,-1.6336083367870162,-2.9390887178483265,0.510182206087902,0.0801116764379828,-6.6733976654141385
-1.4390007318246671,-7.383926733213347,-0.6750231204714892,-5.838004184603998,-0.7180484991669029,-4.124880982647604,-0.2807027271278883,0.3564367444619039,-9.412665890588771,-0.7913407637180605,-4.178024063334883,-0.2461150023089207,-0.1878862040371235,-4.101517668729612
-0.0984021225151334,-5.164082365767755,1.7224706407745969,-5.4394875655969805,4.17098692174984,-3.2271024208221384,3.076427746637102,1.8287450934872231,-9.53492580874795,2.7431437181620657,-4.253118614939428,-0.5784355374997902,-0.7563935028167651,-1.545209351899505
1.7146447501215527,-0.8862243103221525,5.638059352191833,-3.092092642135583,8.644605671495032,-1.737035140561254,8.758779484811548,4.183852792935216,-8.59818269044866,4.258553194000342,-3.2157971865874515,-0.9912241885194228,-2.1486020868426663,2.440553906186893
2.9662705592923797,1.1065688635391722,7.350836705093856,-0.5356167904510762,9.745856196601018,-0.2297963711635265,9.762114116393446,5.169705690376732,-8.239459028317263,2.055464525501627,-1.8543169224509397,-0.4471850813265167,-2.9818246944865243,6.055556526847561
2.14462383168559,1.140823076637571,6.624257176835847,0.2871728004969611,6.347389180734645,0.9343079472228464,5.684995627174407,5.071509055656697,-8.05160045789601,-0.7861717984420479,-1.3835852644031466,0.3587883516108723,-3.230807818322964,3.839869538009376
1.0594361164992678,-0.3875747943112384,6.175604807875558,-1.374475300285393,0.1925841057759747,0.3399566070231706,1.9825288991298269,4.142686245253748,-8.60074074912298,-4.764931690412828,-2.5880359710467307,-0.9528237002050816,-3.7244168899138703,0.7045362183177866
-0.0207030659402736,-4.490041597822989,5.139193596833374,-4.4640570786988665,-5.089572181629551,-1.172740730386714,-2.92953048141698,1.911840096167148,-10.189195859688644,-6.780061875382987,-5.035685156105355,-2.9203012748736072,-4.1694629101311405,-3.2803501714657277
-1.1569082464468392,-5.822880598676158,4.924592041991669,-6.852014129436084,-6.391655055633356,-1.190059025086287,-3.811602136619892,1.0582470231978276,-10.87224980140868,-4.4701046486533045,-7.124073026449759,-4.234557665072301,-4.335836226845574,-6.825006448846926
-1.515039961689712,-4.286741832308045,5.935116666264664,-6.906862939729736,-3.158656003885458,0.2844038036307464,0.4850600749816747,1.673099969663351,-10.762355501230388,-0.7522305448211017,-7.131067061846373,-4.108832257437814,-4.264166195935397,-5.67998851826248
-1.1038104211989697,-1.459191833950688,6.435317679359993,-4.6688711874076,2.5034910747814543,3.326583457394117,2.3496109035342707,1.7263601738645236,-10.21381488616174,2.722839492988326,-4.57663609428651,0.2775378150108656,-3.4966164601295677,-1.4532758048363883
-0.4932252661511636,4.007690476308028,6.8324815624637285,-1.7110615124529218,7.600954734308475,6.631591388236356,3.0518830558963908,1.7915666031866304,-8.795188255269004,5.656366177399747,-0.8040800290208097,6.31612819318747,-1.931146847251576,4.078383320743789
0.5514479840912299,6.8962915717931015,5.850970380258586,0.1367014763145597,10.321117510279564,8.023312347215812,2.660310719686573,1.3332725882457614,-7.69806861794576,4.806419230034347,1.8231863737499123,8.511205595680135,-1.4458367325836332,7.386663316958707
1.764409224397939,7.000009851674375,3.1231200725558765,0.122795525604161,10.724264969009749,7.685101757672077,-0.1776261694595307,0.05776305109808,-6.903682077838914,1.2822967463122763,1.630938403285846,5.899573802475695,-2.049140804298309,5.941940921644068
1.250853557380615,5.730350956910089,-0.6131415173738886,-1.067149246162348,9.793072757003609,8.390951269613032,-0.8974082621102302,-0.5634842524235056,-6.850849514497732,-0.3594285026482374,-1.0614273438977193,-0.2295830564114165,-2.3111462472710054,1.5348136671658097
0.1607902516238018,1.712007020586649,-5.830930878487909,-2.0832957279794755,8.085714279138646,10.800479563886904,0.2770347367010937,-0.6704593337307626,-7.888708161763887,-2.657107638842117,-4.162700529392488,-7.1082487349940005,-2.6120415821737835,-3.075539862137187
-1.1129936729460324,0.81755710266003,-7.735796454762596,-2.060670629543278,5.400701163346298,13.075295344318809,0.7448949409050093,-1.037640415828207,-6.611784690690419,-3.411896127962309,-5.47115237779677,-8.7367566870948,-1.5055240637827638,-4.641545083003925
-2.064769955846872,3.253847027659029,-5.913822242897593,-1.1942177529868658,1.6293014429623265,14.947290098322505,1.3299591336657417,-1.4250015781398635,-2.9910021212893545,-0.6055281267593392,-4.423818652288613,-3.667806159598125,1.341480636288534,-1.8177190916291504
-0.4084245468389996,6.4536838375953005,-3.859513335187315,-0.3808201060626217,-2.324596862677069,14.41668908539026,1.4686706649160275,-3.105643395284904,2.312208143331425,-0.8570511287937126,-2.416609365269352,1.6643030259033744,2.9712325276980205,1.482816714028801
1.6041171056127157,11.856170318495504,-0.3722853194105946,-0.3678296109696966,-4.729242754301033,11.864970682493302,0.8324148418700571,-6.297576343034954,10.18632425685028,-0.4359703711819116,-1.3945513711509108,5.809831358273912,3.657790041653946,2.2943503491980866
2.7786087122056253,12.474756389851107,0.1612017294211827,-1.1750893353806084,-4.319307945255499,10.452220651269853,0.8186873355679422,-7.330629527298471,14.600961011372624,1.5659635421569018,-1.980184006662622,6.485870218541839,4.256719623057237,1.0898202220508504
2.577371450581965,7.699886726567371,-2.987835999156737,-2.2201105277226745,-1.5375525870806506,9.883967380925572,1.2635986034942244,-6.29772860377875,15.257780594087432,1.2881330256316563,-2.8604150174401006,1.844939446771201,4.197369568805163,-1.4855348647133713
-0.9503124568183328,2.575580616623136,-4.841538596909445,-2.9328085617456203,1.4828813760050643,10.3455953266239,1.6789767622056333,-3.692693684572508,16.199608373139206,3.191307706354176,-2.006673658974876,-1.840686120055727,5.461994160873416,-2.927101790972192
-4.405442483792394,-4.621796392923053,-6.479440937969287,-3.265730082145751,2.329672084570248,10.576498446839468,2.298312199637404,1.4009655682222055,16.020353708433245,4.371900015672804,1.400775158304267,-4.775487873119406,8.18196283138023,-1.361141081674151
-5.272757672204548,-7.163574395081889,-5.763364393682152,-3.661104572553583,0.0603588077243344,9.611793917637014,2.554779609124626,4.586298160777107,18.34478866509666,2.106632833360493,6.126560054222608,-6.078816371071913,8.824425948332497,0.9662159852934776
-3.773760110593479,-3.952211590588832,-1.7249798276687187,-4.542563535535408,-4.066093363434014,8.847028362942616,2.378616003604278,5.790516659947588,23.86531735261644,-0.4892451333207019,9.885773253107818,-3.4511940466861315,7.630905365390369,1.4682923108769643
0.924129621989983,-1.7356087973936145,1.747747451474308,-5.804609228910326,-7.45553857902895,7.254514025473536,1.8882676017393736,7.683909105570527,28.364189832993404,-2.1192185894629465,11.268295898291464,-0.2985226676109117,6.018255280868427,1.8804906980235436
5.242416848607294,1.2273155694065612,5.357497247064854,-6.765801372651492,-8.022310424801873,6.305555854516021,0.9077507448479146,9.307597807939567,32.75508941295734,-1.8550027555007813,10.8372222435364,4.179106630895919,3.2843093872939666,2.489220360431762
5.788807101647134,1.3707244040589457,6.945755078872226,-6.664163321775749,-5.663261873047148,6.970571449241562,0.4698163382623423,10.038118142651909,31.991479891532013,0.0524026667136368,10.450791808956906,6.889033605337431,2.3574776854394552,1.8245468198350931
3.4272095449972872,-2.5233108459141427,5.644156886387026,-5.317955230295272,-2.284165582562018,7.496084046256592,0.610440630627055,10.010712664676332,24.92279628602246,1.271192657788906,11.47169978452865,4.72333131864786,3.547588384954772,0.8978447324773428
-0.7229333632598007,-5.838342080539891,4.955561494748033,-3.401777110769384,-0.364401621101301,8.698741651814377,1.1284945369593484,8.664097555156992,16.62639745775366,-1.379727651192993,13.484025245180376,1.5248992697048465,3.934216746553013,-1.482833553266568
-4.204031335761606,-9.714783184079906,4.17161853319567,-2.0465094132234523,-1.137787688411878,9.931908913904005,2.305628498143629,5.798495242364512,5.593986302521817,-7.079490655474437,14.629693718076169,-3.102659491318442,4.183273112171833,-7.40589854476054
-4.649552539702054,-10.889620320679914,3.6292832381929374,-2.003427763639772,-3.7639619550260335,9.210818007437728,2.470737639503839,3.394032250562557,-0.3425117295800167,-10.23299315463118,13.2245790469569,-5.753269916839001,3.2302676644637653,-10.560194445173476
-2.4137155340801275,-8.437426510814024,3.9026751238776014,-3.021530638391802,-6.097894854133777,7.370857183463602,1.5576380360162134,1.389235118232075,0.1352919870085248,-7.05881078047165,9.227422838048886,-2.982931251683688,0.5398069125265771,-6.713137560473164
0.2255849774868024,-5.064672748497378,3.6968891473396304,-4.001297280271835,-6.414231809176952,5.928782009682802,0.5568365211998023,-1.0695971592683282,-0.1610465889011039,0.3407545600600042,4.324348058351824,-0.1713187522001237,-2.3182196842519867,-0.7534520815286467
2.0005582910309188,0.3414458876894531,3.268089190666866,-3.889997126264221,-4.701520122352344,4.56135035568218,-0.923641856131879,-3.558695731678622,0.9097930571540808,10.242075278610756,0.6248165476740404,2.500515213222924,-5.755781712184103,9.411540824558235
2.7967690213089504,2.244582586442047,3.1790909366714444,-2.612007716914702,-2.523648769735223,3.455038480422384,-0.8974944721184253,-4.208254259813396,0.1920469814374896,15.088009856640545,-0.879117010242009,3.848173768023012,-6.877882125019038,15.965638895511422
2.22504428849889,-0.007690310227853,3.2968083641520294,-1.1915325076847054,-1.637484326424321,2.742732468451848,0.8912014189534849,-2.826613362691084,-3.3752515894548787,9.671487252603074,-0.8321881344496518,1.3157445905032226,-5.205398958337492,10.529474308658598
1.121907225391919,-2.935573412090976,2.175534259779699,-0.8538238599531471,-2.555781145964854,0.0011449164723043,2.294667612743682,-1.8964970944218087,-7.031007001479588,1.7148115692188983,-0.706544807036888,-0.6586850043605059,-3.614291995935982,2.9149328768131904
0.9795731412656944,-8.056046434639198,-0.2396576421445048,-1.8234473683965176,-4.228958207649024,-4.11487877314846,3.777385945943275,-1.0197319501308115,-11.883553744694394,-6.602281947755088,-1.4669584222603067,-1.8547593494550785,-1.3335513641282766,-7.199009942223852
0.6133904413439457,-10.15294240256805,-2.132705692951673,-2.9274867292548965,-5.031814263504146,-6.84376749052931,3.3964259824744176,-1.7703634947696822,-14.25757470163896,-10.163093433547523,-2.841324738472977,-2.348126759407084,-1.912471390092791,-13.337626909175592
-0.4699630276927669,-8.607645773608354,-3.7599894513925434,-2.494389110233705,-4.152614413359019,-8.621614939775199,0.6255233236510742,-4.771491379233267,-13.680550897121313,-5.057991384108568,-3.707805006809311,-0.7968681989337474,-6.061998038155149,-7.535395526484458
-0.0729164580999229,-6.386330031927234,-4.019787242967327,0.1230250400544417,-2.216886217427525,-7.996914439290747,-1.3358805203875257,-5.806033526850282,-10.675641719179124,0.2350195652774217,-3.1792223833799813,0.4369318909176351,-7.768950695059829,-0.657057740075919
-0.7502903769280191,-2.0469092561904296,-2.437612681168685,3.7313645897909264,-0.7136058437965254,-5.885824859283884,-2.9826914451178106,-5.218868047838781,-4.046395309890972,3.756701154563422,-1.491407777614981,1.7710381768135854,-7.780805852557503,6.161765592135565
-1.9397760258756984,-0.5773011406672245,-2.639766755073408,5.995735646986887,-0.833097238329163,-5.671510449616931,-4.805566907547385,-5.178746575969993,-1.7438380368004884,4.217695797093825,-0.0309003700306114,2.458654237308092,-7.953975988968841,9.071408290860644
-1.381152999159791,-2.472703955843643,-4.431395945074084,5.161899629946465,-2.73338625920324,-6.473063432600945,-6.263283751039409,-4.950375546084502,-4.029138371772525,0.3168184318215396,-0.4697871727196379,1.0691292609799643,-7.250445563017972,3.132761169003631
-2.323299773013789,-6.183428068124846,-7.449934752641324,1.4073132198383256,-5.705460042307081,-9.639082610904302,-9.77010985988152,-6.668961259341112,-7.047858067769856,-2.2339884930078724,-3.570841245250552,-0.7157850806451569,-10.604015984391165,-2.3338501148662134
-2.2358931325052964,-13.166338705558674,-12.54313717217963,-3.2513535555113364,-8.813264608353137,-13.451522162880432,-15.426382657815688,-10.75963137854714,-12.729305053040074,-2.6621117620538155,-8.479179470647559,-3.8598359465777015,-18.48606103719903,-6.775184589409176
-0.6320099268663213,-14.96601230966044,-14.356356299082409,-6.341543023216154,-11.256649408806762,-14.278543493247934,-16.792643076998147,-11.134015596098594,-14.504857924194187,-1.724733988975094,-13.08331288131427,-5.7575206107230485,-20.0201207097119,-8.084061875410365
0.0338287849456914,-11.130744217207054,-12.71118416397521,-6.46790906444528,-12.251138308098078,-13.367673126690416,-13.91616801060912,-7.973497742304525,-11.728683006594014,0.5701122832522585,-15.325742043116108,-3.420492336121783,-15.692848924445409,-2.8437317209238917
1.2327588386996398,-5.2241985450260335,-10.149945517140774,-3.932383353792666,-10.966601885585815,-10.26207781185894,-8.722479094156801,-3.324286955663683,-8.617127710556357,1.2723137869320604,-14.559513061300764,-0.5500754971320716,-8.571881911360789,0.7881297266829566
1.764239040451565,4.951154648988328,-5.368331280231287,-0.2721891432892107,-7.077851705316945,-6.698763901673424,0.3664321483823323,4.189213646800538,-3.4805502235682964,1.051840232650115,-11.85487050616092,3.6519157464133016,3.7811937528392847,4.065864744302455
1.5372266698179564,8.58451703099274,-3.225252275666908,2.6848131367427968,-1.6281509777833207,-5.637577033333599,3.3559287335928376,6.670449664749638,-1.4145448040031652,0.6575792149322949,-8.949903404112298,6.587421569797241,7.925463188729438,6.215608080244225
1.7190149840162905,4.836772498132213,-4.182466811687887,3.616870607281641,2.861773439145928,-6.430413062683523,-0.4254988104623449,3.5083781861621373,-3.1339198347156643,-0.146504465150065,-6.776566881113688,4.486778799321894,2.984560303724764,3.457607841587687
1.5959281734728108,1.5033577060788763,-4.662023311956542,2.16596060299802,3.7364390942306898,-7.257671908146947,-4.937636310182548,1.2102852092940752,-5.271902293468146,0.4250038463254603,-4.969823367650648,2.381217552565257,0.0759522788541749,2.349378042151686
1.6053650573024725,-4.025794699035244,-5.863064023008494,-0.8784947372950995,0.2866124592963075,-7.108874929054942,-12.6749998198069,-2.056087663791618,-9.242414236867832,0.7917916136730319,-2.8207873282798843,0.2334018688087595,-3.817017864149624,1.0958376517691344
1.0030156371187873,-4.520249757343671,-6.16262484162033,-3.751654342030214,-5.2156134364203695,-6.247535430174932,-14.755716176678098,-2.403993802677236,-9.816970140380915,0.3477360475813511,-0.5836504008263717,-1.595040814846706,-3.648670846826716,-1.0732361365813237
-0.6129129488795706,1.4254803885111385,-5.094345140612704,-4.443355169300702,-8.757618161337732,-4.175069096277121,-10.023453055172602,1.3203557847176972,-6.351509340536184,-0.012361278131223,0.4408305220559612,-0.9784449819338112,2.4606077707067437,-1.1098009412802905
-0.9094391600070324,5.240294127515701,-3.930117014762342,-1.8647723293789653,-7.412037508111098,-2.5903109043785166,-5.268717873614306,2.8350269995073054,-2.55469037465509,-0.941906946617453,-0.6706303514883416,-0.4690760950107688,5.350175259966693,-1.563803452056074
-1.1176497254385642,8.75332730362821,-2.134414479303101,3.238001806431356,-1.5223140650519724,-2.2925374318386336,1.8477354051551929,3.158318405775398,2.961858696236934,-0.8532378460308727,-3.053912597890616,-0.8062326472886548,6.426853634595098,-1.911751768657836
-1.0189726790920377,8.910216131124471,-1.6103652879953088,8.4488764957905,5.577690538101066,-2.1376021823469262,4.578010688726523,2.0863732104366504,4.281821956105459,0.2540472477739858,-4.448919589812405,-1.2988474895564048,6.162064666431531,-1.5040038383189676
0.0881436620825773,4.0982274837957,-2.584045633651445,11.08894072294703,10.07022482278407,-3.39668435525953,1.70854146451056,-1.5315097526461845,0.5765334798355481,0.7860973455911849,-3.359043842961725,-1.7889381784454277,2.921434854987719,-1.326804644189861
-1.0146161464750278,0.4587238532623722,-4.635788644291025,10.01362925751448,10.302905612787072,-5.04279768425715,-0.323099078142627,-4.605932216633139,-3.488377352739632,0.6414077461237968,-0.8496221715892602,-2.1471683023239247,-0.3020555172838673,-1.2173723288788163
-1.9264720558292083,-3.069277815587137,-8.360977255059671,6.4792636008926365,7.538537780178643,-6.575499037441642,-3.333187007069939,-7.485568642074271,-9.502340194344512,-1.032890096943626,0.1378942139417063,-1.691620236708909,-3.935412897049477,-0.8362218481820021
-1.4987043774814284,-3.8601366375134174,-7.814864739847723,3.343846436822446,4.517555090083533,-8.125634151551326,-3.1829594275358604,-7.885744531353064,-11.253650095861843,-2.87291575879764,-2.32412595328303,-0.4283461732239402,-4.850710607397854,-0.1458970142333032
-1.0685380133600797,-0.5987928911129475,-2.617700168964864,3.0935034894951627,3.300839453936206,-8.305476059885848,1.2691413106767344,-4.95578426698411,-7.737742372780929,-2.4575707991717755,-6.783590580654817,0.8534098543276263,-2.204468065580377,0.7103781895169072
1.487883016525059,2.981537591931936,3.0719472420799803,6.095273942747724,4.118752276181667,-7.584213782851184,4.497911351125855,-1.2638721454422417,-4.417004429974033,-0.8115981825177296,-9.138625240011734,1.5354966978996174,1.449099405724424,1.0372568534145088
3.660543013618763,7.934916412029579,10.68412768399746,10.34113443225749,5.783684556689167,-6.5184555076044495,7.664049774362976,4.036163207950961,0.3899802569638113,1.8956419212679592,-6.162237339905786,2.066852877200544,7.186624956332051,1.073279110034301
3.093190831620338,10.928905532484752,14.014752959385634,12.87360682786047,6.924561617752431,-5.899836614712866,9.609487310152812,6.643563418243888,2.8601008467718936,3.950253255386932,1.3205341108879765,1.7912164246733653,8.908829317770962,1.0606670281759258
1.204425694381389,11.234105126160603,12.090842649890222,11.87798369031401,6.950109390172372,-6.549144337336395,9.378398350069656,5.91639528396378,2.0715304862512025,2.882869936212645,8.67194246346304,0.4463989887907079,5.923685424499126,0.889900648345499
-1.7129086225954562,10.162588336168795,12.229819186467816,7.962522732232841,6.207136470165878,-9.505844227240988,10.23682667962395,4.244692318003626,1.8398262329921249,0.6839925021532712,11.0930538071813,-0.1517282836604082,2.978763397512546,1.4894077435930937
-4.345269433251318,6.546361500578044,12.954027926149694,3.7407356233484137,5.506766913776481,-13.21666848494368,11.70409335773305,0.3398972140898236,1.036043406929601,-1.4980752529203856,7.5147807633738495,-1.6746295766409665,-1.4947067982675166,1.7210025742372634
-4.252148733736965,3.4709156548137785,13.368152232271902,2.028499569327664,5.488026893895693,-14.39272383015154,11.99138866578968,-1.2080493187644117,0.9936235587839896,-2.6527881285117605,1.31863889551893,-2.9633581109424547,-2.9836226874245235,0.8651555412736932
-1.8916477465972807,0.9224926440842216,14.546783282667471,3.919691982396501,6.213055651113535,-13.183406377539828,11.51336688233486,-0.0201664640752995,2.234703398042054,-1.7418491770865618,-2.627186382403842,-2.178837730821114,-0.61718732976707,-0.1036522726302995
0.3494965434280098,-0.2741950887273411,13.041717586199644,8.058694319923362,7.192592598860124,-9.921011782012885,10.724157911457093,3.258665313703949,3.7854430326063366,-0.1082460827476574,-1.8725143183932855,-1.3325023620649223,1.467170050133349,-0.7928633425954734
2.5664216661198616,0.7703734688784373,8.791581850618597,11.574374196615372,7.808648264113593,-6.457249025115308,9.382703464410826,10.00749803511432,6.165808195743992,0.6792175578066281,2.1233847683794664,1.1921295853461684,4.535046164963032,-0.2116547172123334
3.4445229010306497,0.6909543315183736,6.331038446001779,11.99198573825742,7.827568900193178,-5.500220618798872,8.09967289668697,12.712419397206965,7.726936587854878,0.4340170037440522,5.850745065033536,3.5676152072020137,6.549273973137591,0.969089821000998
2.175826993689729,-0.1206257631888353,5.173242066125648,8.798060714232975,7.565906129174337,-5.86453325712462,6.947004317169882,11.222922437979088,8.346288934344349,-0.0899027660467741,6.905450007340583,3.090638137818692,6.900510109518438,0.6317710884552157
1.412170236174138,-1.896927681185543,3.775881249489197,3.6305605914909336,7.519092405867767,-5.3069096882815066,4.15670248213265,7.576057205579589,8.130113601654953,-0.3707405792234729,5.591856646786837,2.238369075106078,6.422311243646186,-2.0903669745039264
0.6164043951444578,-5.342242750035441,2.972756916351002,-0.9291299002381556,7.784434135831443,-2.636581508291773,-0.2518384839295778,-0.1503237527131328,6.580483092206879,0.765889388393782,3.959846180530192,0.4417929960997432,4.339260571003165,-7.071943878797837
-0.4451297182331598,-4.910496709576091,1.7527477375577944,-3.0245967567850407,7.882245638746491,1.0578573471420842,-2.0051824315820053,-2.7911424714421305,6.136398579055561,2.31428401664547,3.6802726898921687,-1.3315402218344667,4.56399653740251,-9.628723670601534
-0.4513584590722589,-0.4797684738081433,0.0319452329008207,-2.4947563961417227,7.222329140915828,3.756090950129362,-1.1454268841078128,0.0656608738432263,6.789116468824183,2.525740858218141,4.855427731603498,-0.7171732869434551,7.262986103077592,-6.331361412449159
-1.0351602991003988,3.419963659660496,-1.527121321794184,-0.6197846387952675,5.767868462253113,4.920860462087746,0.7532306487003373,2.5860633483713693,7.818980978601792,1.528995129354028,6.506927289450317,-0.4725334316417575,12.708354137034538,0.2377196784145304
-2.2489961848743807,7.916540043627082,-3.1496152459580373,0.9628185800964671,4.166813878529777,4.435865530487155,4.705343186153749,6.889114844265504,9.80873946647381,-1.087602549443073,7.783433050845522,-0.7543991186997323,22.08579948456473,9.333982534063043
-2.0208092766946617,9.614224732871854,-3.3814078239630154,1.3056392028404282,3.136367231101543,4.20628916384761,5.878358459393382,8.14926305853009,10.31266561810988,-3.267507529454331,8.576834117991968,-0.3322580848503585,24.84771385260812,13.764925128691438
-0.8000846502044174,7.540617052537137,-2.0191058423806365,0.5325198882214366,2.706514204009068,6.251958125391825,3.909618203541444,5.459508544381443,9.208942135303984,-2.882530312577238,9.232984121661566,-0.5493259857113769,20.6687119901647,9.086739284059254
0.5290792422136125,8.593350077328092,0.0551034370078861,-0.4918694536702332,2.150281846795302,9.59654846816746,1.8438162417266672,4.151930713007242,8.4972981921805,-1.0104585858478925,10.014815288722044,-0.907721470580034,14.34093405165748,2.8424619361588253
3.200430712367352,12.026392595117612,3.2642849570169763,-0.8549615362444456,0.7496982482475261,13.052596317177144,-1.5224876894955712,3.000849673872206,7.654296841252681,1.8462671909521065,10.918427174893148,-0.8424981337346162,3.2655190010292103,-4.399837459691695
4.375832791141783,13.328774615267434,4.563971309948802,-0.2526387765855276,-1.355886045405725,15.633620749489802,-2.8112557230561963,2.6935858222392026,7.133860221764545,3.8539626313606665,11.749864525147927,-1.069877117783335,-1.7774415350263424,-8.027847914535426
2.192917176214368,13.50236863047452,3.643773707421405,0.7109759586100992,-3.1436780449810016,16.542923530935827,-1.5230719212056287,4.057022010462459,7.239969106020728,3.0478679061027365,12.102242306707964,-1.1182169111969986,0.1698029696026067,-3.8064791368202378
0.5818846458307152,11.290604800037764,3.5117108668819137,0.8199757803590444,-3.598766134514662,16.294198014778406,0.6978443554656889,5.826908542934194,5.063915137039219,1.423637991779235,11.295811048053013,0.2963676455096341,0.6633057023324415,-0.2674888824058874
-2.493627634903171,5.834836785576818,3.4651487909814254,-0.8731357616528328,-2.668059814192617,16.549183080878997,4.860061124622427,8.48128667833137,0.5830247818480863,0.3426223203608549,8.694919875776407,2.2441472421609583,2.286961296409051,2.066962673124802
-5.250413134040371,3.779635127154744,3.6274991174489184,-4.110312391382479,-1.330883829992871,18.09098035799313,6.159461934212713,8.217288534807127,-2.798935808655007,-1.383973204464273,4.413594338267089,2.7784051680667834,1.6746141378864463,2.790582971144049
-3.702770981237317,5.012543565189124,4.440908997608635,-7.303016551737642,-0.7224111121046946,20.07192069134863,4.238154073063541,4.599238960237806,-5.547137769045487,-3.340882417004908,-0.2981876760485278,1.7095572295683097,-2.3729973714171897,-0.7211353825634134
-2.1301585419399265,6.261544191729901,4.840510044099796,-8.638924449296127,-1.1929489493649044,23.483070064991225,1.2647804464162171,-0.9980126786322358,-5.895822666330269,-5.170767742108491,-3.6727664941051046,-0.4818730762236767,-5.466655200705571,-3.1709390503722013
0.7418702111316373,8.95157445469487,4.9711896606873065,-7.690379182616965,-2.2061285845667697,26.817922415503052,-4.043846848472828,-9.727040847437568,-2.974025992122958,-9.216802305433776,-4.732287304697536,-2.951838804065583,-8.664688829549187,-4.121111435906538
3.784768865649631,9.147465591449444,5.405777991578837,-6.015042876622985,-3.066670404859366,27.584122485750555,-5.708364931843316,-13.275714048855832,-1.7475565854205026,-9.78225454557206,-4.059176456628279,-3.236133185330097,-9.541180351833964,-3.6762488498156554
2.9870513176280484,6.333109260290429,6.007263874362565,-5.8977107104748825,-3.611771586017227,27.685288296308137,-3.252801650576373,-11.07987561852013,-1.7564996932182693,-3.9133744692328776,-3.167598897644581,-1.174776005106719,-7.272983725026067,-0.7656840959657483
1.153398919042718,1.767404299148698,5.730390720929296,-8.146402840274561,-4.125455908244106,25.224974566229463,-0.5262558872354817,-9.201917792156712,-3.4247957111423792,0.3285151931464263,-3.036606046769577,0.5464801550568267,-3.83493763069365,1.488602027692055
-1.3343953307606196,-5.753616647662745,4.556905291394901,-11.023401274247163,-4.678497197089598,21.516810594949224,3.96613381265257,-5.663603096515602,-7.887790986720159,7.202058836003432,-3.3085308205414776,1.7396617225903963,1.6715100579685056,3.640107713139235
-3.0795200283049584,-8.266398032148256,3.715624582660333,-11.553837731599655,-4.785400960208648,20.041964560469324,5.587610109845483,-3.717497106324637,-7.663549033173297,12.0332225538941,-2.9821229537887746,1.7025402067915092,4.5467736148524125,4.168011792222006
-1.6724644292106203,-5.308225047635765,3.022879033379135,-8.207894852324728,-3.890747959542182,17.93236982216532,3.654789756975285,-4.246114260167011,-2.7273274428714105,8.725823334589005,-1.7917877516287888,0.4136425087316279,4.303049196649069,2.093616788018432
0.7937656230318368,1.1150646884874045,2.6019427092181067,-2.483948010145383,-2.1656678242402165,17.41905601313642,2.38456088333267,-1.870939890747416,3.4823014060415,9.294283992515725,-0.6729902999350657,0.5823840056879733,4.7266539310029225,1.545357702504925
3.1324495121955804,13.24117850629674,2.704884416151081,2.177764292976974,-0.6178744432737346,16.861080990257285,0.5882797039164553,2.6362061068467564,12.67373025763306,8.555124044848217,-0.7107475670066776,1.468713808151631,4.651101661646488,0.5983943947633119
3.808517178388732,16.864688177472086,1.8697088897265104,3.228686147778149,-0.2215087033753491,13.399586889103592,-1.1680913675154936,4.020965975182436,14.69791581103303,3.997399510337784,-1.701901878157969,1.7386164618160562,4.5184665901105925,-0.2015504058865455
1.8614899204972903,11.257821366557456,0.1158525189059913,1.0248151660004226,-0.9230622450675696,10.394981275752109,-2.3518254731362385,2.771650462793193,8.520363697549467,1.4558486095613516,-2.0081650498429724,1.5051035885582145,4.749480934337821,0.8250799321298685
-0.7388950408498371,4.380721993798827,-1.353800707024992,-1.7356181580538248,-1.641339194781381,6.035878249258261,-4.891906134830068,0.4969226284468646,4.413987554792498,-4.018299760888521,-0.0728880573387584,-0.1840115164868833,3.176068230624188,-0.6349143818212164
-3.165465440001752,-7.2473654657799615,-2.803189633998985,-2.4748703505009644,-1.366283707189325,1.8441602833870427,-8.57884682012451,-3.869723959053734,0.0755774803710614,-9.900462115944228,3.829319002448983,-2.061936087189239,-0.1145299753994525,-2.2356686840510926
-3.6830291472016192,-11.675479789179732,-3.235474728994609,-0.7716175059653381,-0.2411092940226353,0.1984711265024582,-9.74368286237594,-5.582446303529125,-1.1562816587197875,-10.431567581007126,7.41222066499509,-2.284062888004364,-2.757747554468553,-2.369120575766759
-1.7283281754824795,-7.45746352202513,-2.3599966022178607,1.728848277669016,0.532088156283379,-1.430790461205352,-8.406313752039464,-4.286940445602674,2.5848431796628435,-8.059390787141119,8.081683956909387,-1.5451581816962936,-5.049741650534625,-2.8262703908839697
0.1371321887073908,-5.135769277911951,-1.890190855500605,3.1176704934700297,-0.1078434114820652,-3.945126346335442,-6.411081992156217,-4.2622287222296045,1.866403657787736,-6.5196144031686885,5.003171390744342,-0.9630285712482636,-6.551248178173508,-1.5767770237104046
1.9106438769342995,-1.7758128064368763,-1.5689443530311578,2.8552201523121994,-2.016944229035232,-7.61099287868506,-2.91953301791679,-4.463419101714286,-2.386706912571717,-4.817983082380335,-0.3155202125985283,-1.261322812067351,-6.718130582974905,-0.630075300078724
2.3970471849944373,-1.5436920895160442,-2.2500990066605344,1.810205115267536,-3.9919984723731545,-11.6299223369167,-0.8463794793166015,-4.341090950192984,-3.8879708006515488,-3.0025771910238555,-5.323307880996509,-1.9238961018515088,-6.665119207796077,-0.9805440856726564
0.5967779816677805,-6.087656314242768,-4.342553672310101,0.9889471035595818,-4.904198827597838,-14.230919247795413,-0.5321264774647133,-4.4277304098004215,-4.02500475711838,-1.4156806426316348,-8.28514609943241,-1.856715246643806,-6.086922143318362,-1.0952386782590873
-0.0812189804321544,-8.55988537265685,-6.471980058693676,0.4233041635068844,-4.624525755944916,-15.649497465987311,0.0921338411645197,-3.767196107377933,-2.899877871818404,2.935448397886056,-9.07435126803324,0.0247103486227395,-7.03320522196354,-1.1921246442112088
-0.3867857934158705,-10.230154024266929,-8.958001470637205,-0.7023650501625411,-3.9010116111194577,-15.851008404612726,0.2654617984554409,-2.362458417971883,0.4928936510089033,9.085766935765395,-8.53336915472039,3.3518128028563297,-9.828739530201258,0.5473261452910231
-0.9281266139059208,-12.68921435514579,-11.665709086291224,-2.979244969673502,-3.518387195727016,-15.787456811144851,-1.3805741168739731,-3.2381876110632675,-1.482521821890974,10.477351921526765,-7.439869351527221,4.578084236707318,-12.783672772683389,2.938630005336026
-0.3153673818638867,-14.978393083170356,-14.396494978932834,-5.960951128139996,-3.70649431967459,-17.92461111683128,-4.855665093750402,-6.463483238648842,-9.13111613673468,6.993283473720874,-6.227844869648166,2.8575794568480912,-16.470663986036392,3.959361212050518
-0.5499949466917043,-18.21269790788415,-17.157279079419446,-8.435774123013587,-4.269487741343738,-18.832714373258,-7.908346892061765,-9.440088723548902,-14.7973059803098,4.02407659493357,-5.474766768298807,0.6396171534093601,-18.71570326559605,4.475157388521818
-0.7895214103647532,-22.465125493178885,-19.812330032066715,-9.461088082496431,-5.022891110659131,-18.799084302461203,-10.73157067982724,-12.789240188442884,-19.964433903524597,-0.4545883735822953,-6.161607249923989,-1.8238669095232456,-19.162160946386923,3.1397932261317485
0.2294996881997272,-24.97645585636776,-21.51700734261389,-9.127574565661774,-5.926296435518296,-20.101738675537188,-11.54369858963322,-13.917563428809546,-21.97641827079572,-2.6448803204264766,-9.003262790905069,-2.05631720140964,-20.774473838300977,0.492010116582714
1.5360349789450465,-25.77323390365939,-22.09976552789069,-8.380938795060537,-6.884450395678876,-19.04353469483123,-9.639770391687438,-12.186185911134643,-19.270699921207648,0.2470873309215746,-13.4066961366074,0.8787746362078525,-23.070398910579936,-0.5658324257002567
1.5676234638030315,-27.366701625914267,-23.214058675859388,-8.17408334543202,-7.688587009362955,-18.06221849788249,-9.629857775954822,-11.47663223747223,-19.93906679442822,-1.7214060060344685,-17.35892398641867,1.007251925921366,-26.20353947099414,-1.921775708032713
0.5445401830317936,-29.259231342785647,-24.68887704939697,-8.762451311577045,-8.307207924869981,-17.303650425892272,-11.09512708543676,-11.124588299976056,-23.24581728167086,-4.751104501918804,-18.784610872631543,-0.2436410268937826,-30.7304845093382,-3.847552818137983
-0.4624417065588893,-29.722669115868413,-23.2165264901692,-9.656411281253371,-9.10033084408728,-14.363608692881682,-11.07198466302664,-9.903370770020612,-22.333957824585024,-4.41221121694438,-17.32655363451504,-0.7884762248277835,-30.635853376370164,-3.1513536591707703
-1.1694465701018266,-29.001535712745486,-18.81530068519974,-10.069999253785705,-10.44398811722474,-12.823227964743818,-10.278291034160295,-8.368128390230739,-18.27786678266307,-4.609314923598051,-14.792015197924188,-2.2129502761123576,-25.63885372510588,-1.4911600377799057
-0.0634098856830067,-27.08507593149985,-12.767032946393266,-9.39426736663154,-11.974512565210077,-12.658194714143145,-8.0378348156692,-5.749310642061603,-11.948033095186924,-1.71706838393466,-13.608007392661264,-1.126083506233779,-19.64642660980799,-0.515712390813224
1.530640639090621,-23.603596000611194,-4.277644331256472,-7.446728551729876,-12.359138345039554,-12.540527291385697,-3.839179933745082,-1.9093941830008172,-2.087967433052841,2.1220576368108905,-14.573027694489513,0.2575267310942367,-11.237446751414833,2.577721215500072
1.793800237953143,-21.61036339110658,-0.118432953096964,-4.565361580301868,-10.205618073086184,-13.328746366439807,-3.0475601503925698,-0.2627070389068754,2.4500550043734,2.3498401416915127,-16.013952640452402,-0.1347625063045426,-6.481249161070171,4.388379905124287
0.81612630170501,-21.21703552418731,-0.8941867327636593,-1.605946116407864,-5.530098769941901,-13.113758595158489,-5.766723243541136,-0.8917537612421242,1.1776750711065498,0.5178072177411467,-15.22636302070046,-0.6730846793045278,-6.275945244460369,2.6898735703942083
-0.025567373097229,-18.71484456709836,-0.6935868531759524,0.2980296951876084,-0.3371692803616781,-9.882880618251567,-7.322527631750854,-0.0676575823315469,3.584711174920138,-0.0861638979676031,-10.9309953187136,-0.5138569898125251,-4.568058033815758,2.5073052955578605
0.6367257970750209,-14.62587788620366,-1.117518633732624,0.3115173020938755,2.5759507718236705,-6.609094543014954,-8.77571291333197,1.5941484605893712,7.942088348661048,0.3103114330368104,-4.515449061110246,1.799506402179393,-2.885222241460748,0.2705429330333159
0.8561466828769364,-12.033031833681829,-1.74106717521526,-1.4639923000071915,1.8243094352037588,-5.825092192240922,-7.001662094192679,4.011452813704385,10.782611563468071,0.0381813809057262,1.0140141688021345,3.3537031802836137,-0.5825715147524685,-3.76319900519084
-0.4926523532126073,-10.515350832152723,-1.801836652118048,-3.83184856144328,-1.2864655235719624,-7.667045998531033,-0.9763036859487364,7.867824210482422,13.404912599393422,0.482501177934397,3.348189523251449,2.448822527248525,3.193123060796057,-4.555840397235753
-3.2419378185688994,-11.46589073704312,-3.1623790376421472,-5.104311097602249,-3.7118994965516094,-12.58736514618235,2.978691935528229,9.586155515132557,12.12305004179023,1.3602519329778595,2.425336623389626,0.4487160037950187,6.232079251530833,-5.301190554824994
-8.40997228478479,-15.677450346797302,-5.53394230228194,-4.127137675985466,-3.1488815727913675,-17.768809777976013,5.6250841904986935,9.136721888975272,6.245374850088568,2.4240470455923973,0.0972150173346335,-3.926969118023216,8.904230969605038,-4.944084098315788
-9.893588854666213,-15.285094662968971,-4.696831559776922,-0.9934972624467946,0.1463337761619527,-18.65468552922821,8.147777324834758,10.52325409018998,4.744541724440301,4.439496187449778,-1.4559114876072954,-6.174598878428271,11.473160784789204,-1.7525287070221545
-4.672847025329316,-10.303149690826354,-0.5398366090311293,3.0539784532918475,3.828609465613568,-15.43032254601942,9.3755822772259,13.168132497631282,7.174611888655818,5.242333359812202,-1.0658370058654327,-3.384353221230372,13.595869574669512,0.2857687675911463
0.5200884716031517,-3.4463286872172025,2.1798513027775623,6.420392263595886,5.687365525823225,-11.897474868829288,13.164582364229885,17.49179489395573,8.828009143505955,1.2886364277877846,1.1900043602005326,-0.7600067859091011,15.503627337055624,1.2975716193777371
7.255401661221189,7.169265459225442,4.233894783446428,8.094405025835385,5.44302739002012,-8.907761976370535,19.611407851624627,24.330703821975423,11.45296833818825,-5.054789778141669,4.544095874669097,3.2861147173420564,17.115629291044733,3.690902569304491
10.439390661262648,15.322798251953245,6.741042453137906,8.16659772200569,4.473152037530667,-7.386662842535065,21.69094778801235,25.80246576238452,11.442232762442174,-8.789458836701598,8.096211701389052,6.157179337271389,18.8014165875606,4.645571242851217
6.079183278826314,20.685623378133823,8.926156898415776,7.680957317736784,3.9923114138514393,-8.109852859248377,19.76387293204992,21.664257637391284,8.079481400179594,-8.106953210205818,11.04619523478368,3.76010396414878,20.602088707063995,4.145627376414594
5.010986448136732,26.34516285408073,13.469018722665218,7.928248861906127,3.755847258739664,-7.251531854023727,16.66106268589401,16.719956313126538,5.621583440976983,-2.5382980464447766,12.843193122643925,1.7261859322466817,22.201349997410265,5.011739323317808
4.312540219701019,30.772022519790944,20.552944239432797,9.575242109401415,2.6818607396203333,-4.967330263386064,10.91185348017261,9.15115210177286,3.165897427993592,4.3234708343212525,13.44021472125985,-1.1088206585343507,23.69011033638033,3.2083308870043483
1.97849850557474,35.41517444913453,23.088273261641,12.172060651122024,0.6302473364128218,-3.593839156148392,9.517316059491176,5.816140537633271,2.390170675444311,7.4379545097811315,13.399289225598864,-3.834612083988121,23.58238803257727,-0.4708149271138423
0.580282771104601,40.40313058688536,21.16646086411369,14.433071463543229,-0.73928315242199,-1.2761698889099762,13.170632175120677,7.721205766916673,4.1143932318870045,5.6360483497038665,13.519105181969168,-2.5348697840505747,21.69017286442696,-2.665579794458563
-3.7576321893706415,45.51286869536092,19.0815106053169,15.170917717760176,0.819324918712141,0.9122040059020112,14.987862485524817,7.016534514453674,5.362145427866944,0.8754697548884844,14.174763630210125,-1.3227528641449977,17.678196899748805,-4.150677711746464
-8.5868723853099,51.13115289848976,15.345684185556918,14.192062785424469,5.903791853493658,2.7697513738353616,16.55357531317951,5.309770467461898,6.724208866574957,-2.5918346153360545,15.028173156748837,0.0109227807714752,10.991736220652228,-3.2047003794257503
-8.512142434075447,52.57406419922607,14.929978582098403,12.402561561592847,12.424237249566431,5.632285035034809,15.392609107188187,4.07902877297502,6.760699325274018,-3.609370963371049,15.486257710561176,1.7623291649609865,9.501346899074123,-0.1708909764651817
-3.955161988445949,49.523365505201696,18.707245612933285,11.015644014447844,16.91582457715151,6.978279934787832,10.253244059353037,2.2359146044964864,4.862482744705552,-2.595095861760803,15.453360259191072,1.3501599354171647,13.598009543591196,1.24953643193885
0.3189195628077188,45.31845882734292,20.337148437655447,10.577484588615278,17.143867873490592,7.893848924583104,6.035672444028541,2.2848775538494897,4.118567573973962,0.4553220166411901,15.511311950979575,0.5537685743481118,20.02120702469531,-0.901678983808126
4.109246478528393,38.82442179033684,20.991981862094867,10.69684730346262,13.74851592440234,9.12406010879839,1.9084059766178945,4.351867951644675,4.122450280492463,0.6644299770348363,16.243590724812293,0.0900621059399721,30.842345279618208,-4.570503273212276
4.397939197882843,35.43896877618575,20.894510776146102,10.66028654341335,9.573637400938878,10.038030772728384,-1.1018218267571218,4.06783056174524,3.926043162347798,-0.754070663120515,17.4235296752679,-0.7499344319439666,34.25846850769305,-6.683489667350572
1.133647215331067,35.993260449592235,18.99645709555203,10.239654631527856,7.370439581126448,13.002649551199486,-2.045474541096304,1.7079071568830786,4.039089697592093,-1.187564187978665,18.045773072524184,-1.0628537020404751,29.3387144755488,-4.439920882934259
-0.1388546578692145,33.48696455013148,18.6937071386925,9.853788665925208,7.8550718282350545,15.637924788277672,-3.598929155086592,0.3046406112223915,3.1420038006522546,-2.246644729784206,17.302652564502978,-0.2826427597986936,24.63811635738528,0.6948410920119543
-1.075771664005851,29.13668800047784,19.854400645052923,9.977112294227595,9.599430502975792,16.83431623193712,-5.246125249072199,-0.8936574264311369,1.1048210088031372,0.947200177232375,15.506745316255092,0.3691312525682103,17.288131873472327,5.535857594138544
-0.3481749000762381,24.951592640044435,19.468697782844085,10.492636429466756,10.569743375762071,17.872540471155627,-6.952635832186449,-1.5297853917026314,0.8445939313659215,5.205785592447787,13.897123261102934,0.9752217077626466,13.575249543052784,8.022197266144
2.066525163268511,19.905347635930045,18.056711760859,10.71956294564518,9.829014326274432,17.606497179269578,-9.128266114663996,-1.1316898417357537,2.24044977664638,5.198302506801212,13.404024351490762,1.6064225029294543,14.86940397282854,6.399475390848381
1.45644446706555,14.542229397794827,14.853828555924313,10.101352406709452,8.018779643731705,18.463576933850845,-11.335784431409891,-1.7742722744584245,3.260364299944751,3.8818503883705584,13.598973124112376,0.6081798305039448,12.624043129501889,3.544603760131493
0.7479018673949092,8.952917758543075,9.226948727404102,8.826562449417224,6.464989937484688,21.04047897305799,-13.73050759674421,-3.3361763375388973,4.439182160372778,-2.503767068405243,12.96128579985816,-0.6796343204971507,8.373663498282454,2.188187012196426
-0.0908126073172963,3.0130371013313124,5.233673436948459,7.708003667639673,5.924262400791122,22.61279691741121,-15.22966566040432,-4.377489431308991,2.448917747867238,-9.109309540269503,10.287369357162106,-1.4038370478660585,3.429135598770063,0.929836976404188
-1.715964967668659,-3.132910681994928,2.739851116036416,7.380906842668878,6.102814141044632,22.242325989238758,-15.706494458672918,-5.241569565727611,-3.323965277762765,-7.516127508697829,5.891476286061447,-1.3177080074350922,-3.5357397009857183,-0.1273362448997209
-0.0659966235384832,-5.765171490653041,1.1670580768812986,7.562825654586163,6.180702311994992,20.44942259991084,-15.038064920760654,-6.875939926791278,-7.380049457898667,-3.285682567294125,1.400435239241574,0.5961388274636619,-8.074924522343641,-0.1535813760379029
1.312789018380624,-4.4491966766356414,1.489235062421531,7.104615924975974,5.626896049932213,17.36056522115322,-12.842598681037172,-9.164141976855838,-10.412872190839066,4.319205618729872,-1.7112640091065143,2.621042384396686,-10.048561877340122,-2.023304685439039
1.5157248965786048,-5.628738546145724,-0.2171292288768582,4.883118921029904,4.500518754378732,14.562466331666402,-11.018594899605588,-11.43768049458394,-10.955479991342331,10.592623301243654,-3.4895491664003657,3.1165371911118416,-12.316761030056297,-3.321895300894779
1.6617876245891754,-8.668310765682984,-3.9689721368280457,0.8384859936151656,3.143131500093318,14.537544734575135,-9.50338641366489,-13.84312397052115,-7.736765751482755,6.964700663140395,-5.473926822230055,1.4623870016935945,-13.906997108696542,-2.7052554486239018
-1.9083129147909677,-14.964722680347585,-8.798238545005468,-3.72879087084209,1.8123978977859,13.291635176084476,-8.11254532642978,-14.305736353332716,-7.2505081905130755,0.2292579714933418,-9.228375809706336,-2.1276790090597086,-17.30796347712381,-5.220778584377317
-5.239720433224654,-26.08831150518257,-15.671612332183972,-6.936853712688617,0.6920314492122088,10.140253034907795,-7.306761208101864,-12.502527417126034,-9.060244254972966,-6.468269632777424,-14.67766516181308,-5.451437017729699,-23.01766263727185,-7.178443354055102
-5.425701403860138,-29.911785843427445,-18.04817939246967,-7.63786146439827,0.0943732679145057,7.843847733763782,-5.99019705661973,-10.986584152519203,-7.494175068500454,-9.287527961288172,-19.72019005452563,-5.522511169259329,-24.009201720809106,-6.119597821075584
-3.524485731023482,-26.44538212421259,-15.53501715094316,-6.234469262206687,0.3771917320657394,4.218728378588281,-4.258145052215549,-9.260777844562016,-3.4841274554882067,-4.242881149910681,-21.570311031709053,-2.0940310930551336,-20.49724764356213,-3.3482685577521645
1.8792360140106428,-20.970882539586373,-12.340846638776862,-4.315421353865418,1.5039042476221596,2.127388721814357,-0.9962357251071254,-8.979014828391737,2.843110559081792,1.495297454836015,-18.85568479783919,2.116098596153371,-14.679220054075376,3.292276651619209
6.927181016060128,-10.705462117160076,-6.882982209716539,-3.408474770627436,2.746723906819085,2.486992480188565,4.142334876348829,-10.729889661574664,12.55538923133042,4.150905179664126,-12.813796833555529,5.886632379757988,-4.953944537736424,10.68938627295264
7.128519532068733,-7.97766830684065,-5.678699161076917,-3.925166323459081,3.0080542583039573,1.7029003556510904,7.539270899684404,-10.525771216448211,15.334161967551488,3.315637934939606,-6.577821753158602,5.661343632511158,-2.8713996722839146,11.540647640460843
3.406076348214921,-13.952614297333447,-9.65963518627037,-5.197003098035523,1.5900528376475052,0.5009943228549112,9.32838906149208,-8.733343737036295,10.64789763324655,0.3279032713844725,-3.056900270528644,0.998442355571358,-9.334007618136084,5.669251835318078
-1.7537538669918655,-17.471579005952776,-11.395334719330952,-6.471197527532773,-1.2740705898475326,-1.8866056357919845,10.161788654091406,-5.539778418934205,9.10623154613304,0.5389602592329938,-3.077737448870195,-2.584732972620783,-14.232284698899448,-1.2793058038865308
-5.60301883111024,-21.38353115060703,-12.409140088179486,-7.808533016623127,-4.59447398600355,-5.235359532414209,9.183080446312909,-0.0810792110979225,8.650418986534481,4.462651606660968,-5.239046964429786,-5.972425864958636,-20.20916200647599,-8.478805090573816
-5.085813973139331,-22.567883577354003,-11.60779042406374,-9.930772265572616,-7.2859047531702625,-7.070545202064884,9.82479555545231,2.571819771975914,9.560044021709494,7.02259385274298,-7.454137334456597,-6.266146825278728,-20.54686618899597,-9.901387663779778
-1.6918993695919975,-19.249237256658255,-7.7044303287862625,-13.147417588443012,-8.720515030869013,-7.4727756060317665,12.141045455101017,2.320312087425513,13.643764818506831,5.0591406880441525,-8.701500951916717,-2.0613244786055063,-13.264698757534036,-4.209896831799081
1.2998305679204551,-17.501607164080465,-5.756185651006268,-16.48968694898153,-8.847239269671498,-6.878905646757447,13.3047253876736,2.062506242579773,10.933795723202689,0.0706739102926549,-9.425155060402949,-0.143468866107794,-9.340927343053416,-0.3367929577944909
2.879076241727042,-16.19262550062982,-5.3128146222595545,-18.07245448529221,-8.036730189030045,-6.472591547852191,13.979937966896184,0.6566233233848063,1.4194618423273724,-5.88341960190203,-10.41457567881207,1.8891035831648664,-7.011561703083668,2.814810522731166
1.813070028262322,-15.593667662978216,-6.571506239872433,-16.555290529200974,-6.924936973986476,-7.346959342845056,12.438917332077372,0.592450689478259,-4.449454994674961,-7.586046630598826,-11.498580753234066,3.075424300682476,-6.778432027887655,3.641755098442566
-0.1465276410572642,-16.710362772358952,-10.656288714751913,-12.470164952534091,-6.26670572421925,-8.551059133067316,8.091402228174431,2.284137551170901,-8.318543711497613,-3.8512888402921086,-11.504048179733772,1.7107627156003824,-10.67800712215585,1.0518678797760836
-0.2472339349247964,-20.318197383559056,-14.29157396328504,-8.183625092366341,-6.654610069854527,-9.28863516551839,4.823887808856191,3.6141457436852686,-9.557936954537762,-1.82019310466625,-9.543010768779652,4.340503501581227,-12.30342478440317,2.6554640142633774
0.380575483388113,-27.094632592345047,-17.81591796678055,-6.373610216455518,-8.167122821179888,-8.674405168026249,2.2452750105714805,5.247166480597186,-6.108202104995465,-2.534271218925043,-6.23904462992212,7.864700393179185,-12.216420280012542,6.369461038172169
0.9075468823590804,-29.03111448313526,-20.068150390603744,-8.146697843375222,-10.274937191457596,-7.096346898696838,0.6104418004868775,5.394432842531436,-6.092839181076803,-4.006149526508333,-3.5113618253366496,8.098735641853201,-12.253544887259784,7.646110938893851
1.2190406073132232,-25.953654702144725,-20.253971628865507,-12.245696637732806,-12.207988951986836,-6.377071856980961,0.7864913095907378,3.675502603965335,-9.072320936384193,-4.304654721975795,-3.008236643655181,5.851851577378353,-11.219258180719947,6.079657216024213
-0.8505138855947659,-19.76987303443057,-21.49022457297089,-15.955891039414013,-13.519923080271012,-5.85870696972739,-1.4520702488574888,0.7294547551900987,-11.45005445921994,0.2600836091948169,-4.697462883852381,-1.478863296516987,-10.790264376920211,-0.7041492767734568
-3.0470859168294244,-8.35977068397682,-23.33430717676412,-17.008113268702374,-14.308605378254557,-5.574398704044915,-5.992079035857096,-4.066502510080109,-14.790980474601684,8.094736123995169,-6.987347202243655,-11.104792359737798,-10.998717913205322,-10.470934418328303
-2.340627082488467,-2.9054296466644947,-21.06264839865716,-15.02720684111003,-14.852451054883602,-5.315670984175675,-8.73423248048548,-5.471337757229942,-14.154354454238865,10.938660475117183,-8.199463710888836,-14.144897197004765,-8.735936350701254,-14.157679774618632
-0.4750949207817189,-3.8762660149954646,-14.775083915455635,-11.469072833460928,-15.034185668699848,-3.1798705527305406,-10.338401242717394,-3.138870794866236,-8.894246130456507,5.809458318235693,-7.861985378652434,-9.606321749219637,-4.115992444968893,-9.362579763881747
1.6114088780711255,-4.017045037058279,-7.273191790768401,-8.222700821564388,-14.208439417782555,-0.963150917349969,-11.062233108692054,-0.2918304146104196,-5.182427751347507,-1.8171512583399352,-6.569195465351129,-2.569418735867983,-0.0756987831916345,-1.457788500273478
3.1200412684203256,-5.8903846670384645,2.444151340669372,-6.130284390724654,-11.77296433731948,1.0396374522101492,-10.152569082420689,4.378195887049201,-1.9707190039212612,-9.929058875994055,-4.762988988643372,5.5203197973601466,3.888832925513132,7.806272322347955
1.7713325393507806,-4.72153986337616,6.692884715353757,-4.673476187009015,-7.977253087876448,2.49291369143849,-10.185847102200084,5.7963589019672455,-1.327484988560963,-11.556667004230166,-1.99840758855413,8.255758458083779,4.702167322363815,11.105712300837263
-1.3914331579100625,0.534623793271375,4.461955505883337,-2.9629675696485838,-4.155392168732419,1.454926594707032,-11.100397320876269,3.2977177915827207,-4.570736149910074,-4.853681557270401,2.302783824998926,2.815349331344408,1.5054146501209331,5.043675848116939
-1.785123797928635,3.883788936033015,4.660395653163742,-0.9378152340873384,-1.9957314679711544,1.1627161631901446,-10.343783893799838,2.0694832692468403,-3.578951504640296,-0.1665388374477905,7.391986253558002,-0.696159162096796,0.1177241116504389,-0.4360793062106354
-1.604767142218973,6.527585675807635,5.517451868912935,0.4816603952711489,-2.3204998655182294,1.160251234090823,-8.306760513464537,0.9018420252927118,1.1996773574632864,2.9691231938532607,10.866028520809609,-1.9400667282750723,-0.1919885621377717,-4.446560702928522
-1.3664689854646923,7.401161500693438,6.074377232884086,0.4435811167833492,-4.378729453458647,-0.0794626052974724,-6.335003032266051,0.6024661111020505,2.8878971491155543,4.38952815298783,10.32944779388322,-1.764493732889425,0.483149123047378,-5.413127050015604
0.7540800485468581,5.445497791827971,7.677139990127471,-0.7088521114138757,-6.316973305240737,-0.5694261857362437,-4.070487559973052,1.9901405298089676,2.7415736944050213,3.3767414621201945,5.737317785135076,2.365637002518917,3.3107223533784977,-0.6544181892712866
1.102449361653281,3.471042219854344,6.712764028447476,-1.4931637515772422,-6.521146533992322,-2.939498985982617,-1.7235601221656631,1.7277440529280723,-0.5944909126873043,7.274675813788624,0.044534793985008,3.907509050734431,3.985620959593749,2.151858719473702
3.2628425841534527,0.9194183610331258,3.226401360472121,-0.5889216842764711,-4.754797238451403,-6.667771582119675,0.4925672713058769,0.1098525613963584,-8.49483310459219,13.8457009544995,-2.8436516321255567,2.683006900370116,2.670851750541495,3.074704110588182
6.169304515995606,0.6886555742449149,2.5374458297109235,1.864721868722512,-2.172930574676087,-7.785214081602198,1.843703339538684,-1.1805952315391663,-11.671869225719227,14.740849101870648,-1.2160218798088067,1.1829183467212252,2.9275850530994343,3.2384815980835797
5.203351840051685,3.498869146871598,4.266806457636228,4.2890052306534585,-0.251857164877606,-7.717392242043393,2.0900923924629478,-2.7015496149011557,-10.2762400767486,9.031483962267178,3.0419197948017427,-0.6095583195763261,4.060457608626741,1.1950397560224428
2.519193769824198,6.334380829184481,4.280944948634721,5.050141649796814,0.4152278468421855,-7.242879584845101,1.759523477004481,-3.674703781946484,-10.227050885541653,-1.0911298291182172,6.117951740656764,-1.6060612979469613,6.273951455033844,0.1881519893582481
-4.205084484946346,10.083382053545538,3.4336013518522965,3.940037911330165,0.4776361153091812,-6.220629001091246,0.5536608415296047,-3.852151844424569,-9.675354279903097,-15.077577179723557,5.5114014381515375,-2.484674324235538,10.199770686911904,-0.6134135523423571
-9.760689426777445,12.07370672097239,3.6129795795677873,2.40995799303775,1.1738384098399877,-6.494150705074643,0.1815750695708771,-3.611050945488415,-9.532804949500392,-21.22167323089046,1.943210470351815,-1.7269464487693924,11.251057819510816,-1.6329883974376431
-8.28289294175592,11.72338727713358,4.322482450759253,2.384365642075224,3.330131977614087,-6.830620511202937,0.786172924426237,-2.656000990087633,-10.507357316889154,-15.273627839973967,-1.60319231048328,-0.2212058338884999,9.341381050539209,-1.849376193282206
-4.644728560402214,12.320957111935238,7.471276622105345,4.722311551417221,6.792530324592676,-6.351044714829031,1.3589172218137924,-1.25135707660819,-9.534281533757682,-9.048791429173397,-2.5874068153427885,-0.3594936114521561,7.307074126860237,-2.731147842208013
1.269568950070613,13.16367973003812,13.542007589368874,8.591015305783458,10.532241369551867,-4.721174071929339,2.343575380913156,0.6496690652306422,-6.872772178548528,-0.9069690141564668,-0.8611946450135406,0.9143814422877587,4.132155179114219,-3.331120271861806
5.532712499300446,13.389911451532043,15.669883388039826,12.143665809178174,13.15887953859405,-2.651807663424216,3.0963668033814606,1.4431842143388356,-4.953190685823316,5.170917680261086,1.6312038933984354,1.78953180051399,3.0905874702481766,-2.3687333424258608
3.324950838554144,13.406605522967311,13.936696648063638,13.838349435770423,13.53354230362585,-3.110164338185236,3.5275629822964305,0.9301567397154968,-3.3457126710354204,3.3419832761884685,2.7643503339567417,0.6310596059431544,4.732200474353834,-0.6877749998306336
1.225459147159424,11.992440830137625,11.808286150902456,13.368096904609388,11.358835286235454,-3.881856469239217,3.429452067036939,-0.2908160500431099,-0.9863897035428596,3.914870893301341,1.936286340035949,2.2340126092562675,4.909222789175676,1.53119704003291
0.564611778824526,8.979583966772802,7.783056205996343,11.61895785958729,7.565989131039842,-5.79597686402357,2.5691601559841977,-2.719751352787885,1.785223464909269,6.701525441245159,0.2959644923126845,2.1775360067595813,4.380686277535186,4.241889898146861
-0.2113178593670227,6.171203119249115,5.164292730788201,9.847651158298234,4.095525813942302,-8.987163820183644,2.606773155807569,-3.961942662624762,2.97408815332051,5.978677813857379,-0.3993119366363373,-0.9805125235633814,2.48927127203224,4.228173986720405
0.8338850134979443,3.333031909346978,4.412344561656192,8.770511307230073,2.826229305997053,-8.09893195357182,3.517910912113855,-3.897183572218935,2.4996527892161526,4.456474906720201,0.7334363413778533,-2.785421439767614,-1.5389144408272093,1.36859860305726
1.4839893102082662,-0.132255341233123,2.9157810993362943,8.20676520333361,4.1594023988972495,-6.731981174316614,4.983805835560274,-2.986248615939971,1.660317420942845,2.9510391726226324,2.925912309148238,-5.149940806887438,-3.520002479043682,-0.633948677460924
-0.0331905945268613,-3.921259229695964,1.5266319152464989,7.444241564332202,6.433210743974227,-5.431538731965756,7.413074625591789,-0.5587301758077722,-0.0319105389064035,-1.6316931341859635,4.195941208639754,-5.588712635894599,-3.614334690108163,-3.223922668714109
-0.6063818911175527,-5.375342638774257,0.4711094027107336,5.961097864023655,6.9941520164460655,-2.360432822119889,7.399886293962711,2.1064801178172323,0.9460835891194892,-3.721600477615775,2.7968359268400693,-1.6279262529533618,-2.712532932999981,-3.749545228225849
0.7283397683296263,-4.22627617926513,-0.4535065291974174,3.917390859151057,4.3645676473503485,-2.688892659519349,4.736110325566555,5.136273385412039,5.039422499116627,-1.3327402428140522,-1.220350284134487,2.454630406072692,0.1412425364045594,-0.5384998309936098
-0.0981145186503727,-1.9341853474316903,-2.517560695731858,2.062147646125746,-0.2654746675011363,-4.218311901831594,2.2612399112665864,8.274590309139366,8.634460349480566,-2.427534069665489,-5.563072350964726,3.499229986361267,0.9548635844275196,-0.3102138880956849
-1.0468139196008908,2.2639471013389025,-5.864730249967863,1.1755087222686562,-3.700450115543504,-4.0825604028897615,-0.7884964485712214,11.239253122984836,12.579722802204858,-2.9712005346647543,-7.04809475801188,3.3967331639688694,-0.3948434044075545,-0.0565997008138234
-1.013038258772848,4.5692470472572735,-6.774024109060571,1.499472110755665,-3.256184341737214,-2.9107826588013643,-1.5111440192656282,12.784464460231876,15.291914483761678,-1.6160945714871535,-4.016124323296218,1.6658810570657816,0.5435293296061902,1.43053743198023
-1.8979023388049865,4.628294231376613,-5.310334906228261,2.5721301734159425,0.9012206530352316,1.3296297702274755,0.7439679887667912,12.555009340163378,16.098003842985282,-1.6189457981302346,2.1027523225591693,-0.552077314906581,3.081158695339905,1.3508683559595238
-0.2191048882990155,4.876847166440237,-2.304718984905955,3.556072547654445,5.653912333523948,7.410896239811049,1.0896060234792522,11.959849131722088,16.92889508617681,2.133561450971974,7.618190218593902,1.5543026470787658,7.491406664596964,4.047404602473332
2.0025460756446805,4.3326751331414455,3.158276291747351,3.807349140145874,7.303516355697084,12.206632472891098,0.1733668607230089,10.578699827192974,17.194032102641124,7.168721560820987,9.380157721505348,2.78786592215406,14.653554190121824,6.25383961354028
1.9080791776016583,4.133996981130461,5.241232240099076,3.289991145510428,4.525110456466656,13.548750991909946,-1.3433122768539405,9.130399501625911,16.648066964308786,7.760317062585076,7.241489996275263,1.7502952197676458,15.991661053604446,4.098916224871596
0.5623453934883003,4.505319072589165,3.6291154718898415,2.547026276275922,-0.5403344736346298,12.584847901890353,-4.3650916238284605,7.82844286495049,15.440045747495796,4.392060781436294,3.994691586689484,0.7238288563450186,11.169532373154546,0.3267836771956814
-1.0777489137631315,5.684562086591422,3.662013302814648,2.234110872663095,-3.9816215110248265,11.670784866268193,-4.976853135953102,6.899648748412455,15.49087457207162,-0.4606006208894649,2.82603791589456,-2.4589973548555597,7.485783320824193,-2.866991735920321
-1.5150677156329009,8.098614596090174,4.113255526456525,2.554196792179596,-3.2204675667204583,11.474540316571575,-3.076087074622204,6.67159724346263,16.987237554130996,-5.694661189804549,4.602534418582081,-3.001614678652661,3.132804823070963,-4.625182528200688
-0.9913249110771104,9.134179786497546,5.082398417242063,3.070010186593379,1.0105394917182196,12.287697199671804,-2.2865522876228304,5.942162571122185,16.307392048664195,-7.472403505222013,7.397961850881565,-1.100681579878875,1.866495830602484,-3.886628713700647
-0.1570584032362275,8.842855845249614,7.3647391822297905,3.1219514428591424,5.390694913189023,11.656240831387782,-1.8652850409787924,4.847934729263904,13.731141372152797,-4.231368033441394,8.484976478841752,-0.8723885727046232,5.076032492628998,-2.3647697876555016
0.1391209830317195,6.981926245737098,7.303940809175525,2.5370209627474622,6.758908290296546,9.518991876116988,-3.048437076227181,1.4183282464782905,7.36996471517115,-1.964470062877549,6.749866526787052,-1.1270107397764817,4.386073865681096,-4.171096778701954
-0.9507128523521026,2.8418278450736554,4.948757345628161,1.9533265012814809,4.569542657495319,6.624335273687967,-6.552112691733689,-4.7940009824921,-3.8191091482875774,-2.068323955597062,3.333183825405442,-4.368203206394278,0.6980903849722336,-6.932592386424561
-1.5686166650917257,2.1683781670937976,4.28589743444675,2.341708341483041,1.0810089481444862,4.625383343938637,-6.942652028231007,-7.253218270882234,-8.569798717390137,-2.999584392197669,0.2471036354352378,-7.012441781001119,-0.237753525646655,-6.582325860909782
-0.85840019416008,5.082549878363671,4.763645325928954,4.068343332816468,-0.713374874855333,5.654813052135351,-4.382033498963895,-6.088645566332988,-6.834593523305836,-3.3829562414997225,-1.3468289143469576,-4.227166116917179,0.3972006221135514,-3.028265711151306
-0.7029211383918026,8.89335929876448,5.596888912640202,6.39113732622873,0.4756491585946776,5.654022979352527,-0.9532299589881484,-3.460063073211608,-3.5054730236147926,-0.9854579046009064,-1.5153020424897932,-0.9527169893071068,3.152766588562432,1.9345309343548704
-0.7163872222533053,14.973228823830068,7.511606853389923,7.988024859448586,3.464705846102177,4.727677820069819,4.529453500016076,2.1507258126985307,4.055988582730329,5.661074169636474,-0.6006204951257104,4.155225706604995,9.067522173970142,5.6730877984400765
-0.2922848771953186,16.968064787679037,8.848374810881527,8.146814643502935,5.940599274043947,4.2971987303830135,6.327254166151483,3.7505617163244014,6.844841458548276,11.11983876176474,1.6234474894946374,8.102613594787643,10.94010849834854,5.413203683097811
0.6116609221157376,14.256678901566522,9.60464756966464,7.518815602157872,6.524014646692393,2.898520101228917,3.933498246528461,0.8732302696767186,4.067807452075079,9.49505956785165,5.591278218114823,6.518850467654614,8.721624544068685,3.4115647197434997
3.745393810100504,11.301884296755777,12.098335439093963,7.625983228264232,5.726311783530974,3.165668016914025,2.514348298794701,-0.4347108565409709,3.2474642817209607,3.724427587021369,10.847363632142788,6.590711319314247,7.401036995442772,6.091534903641936
8.762703702372168,6.488073070294677,16.134108616656356,9.423154023865791,5.154888664361835,4.2056559813796985,0.7560603389319107,-1.7101684151881456,2.299048639310916,-5.2474051555470185,15.618706404270084,7.321313780417242,5.490075761635876,13.090233761520668
10.17375908181709,3.5224243115145,15.893288867451496,12.143689247352697,5.9012122523883335,3.355981045017814,0.8366560560833287,-2.708656017528162,1.432864555945388,-11.136694522976349,17.75222784989115,5.716338937830913,3.655948595929937,16.540206352976195
5.657677200143296,3.089384099950377,11.316150460417704,13.521595128330093,7.592693725265875,2.280007645236779,3.658068823097934,-2.60551979036406,1.5569129775720565,-8.093573890056593,16.197501497943563,3.358759147286734,2.5168529845161327,11.286893488907594
-0.8930297470791375,2.2430235693796194,4.308432054827757,11.37133332693108,8.804731453462082,0.7855976189563685,4.732019600041994,-4.7009718441131065,0.3666181488475901,-1.2063514145934788,11.609972008053518,-1.4927148794864291,0.1084597396173783,-1.1132555129404804
-9.52378816769574,2.0368944900997423,-6.610263781810366,5.350658386594574,8.305337053620391,-0.3081038495146572,4.661941029851183,-8.866442482880842,-1.8942299749091536,5.765915072955512,5.5847292954371,-8.993768415271093,-3.2999957544868037,-18.37825256177526
-13.330553802574508,-0.2000665003303427,-12.25430756506526,-2.5024689373558857,6.028659026805428,0.23407871459394,4.19823703341241,-10.320979238809269,-3.1287071931258867,8.177158017948253,-0.5715208403796481,-12.40191100847628,-6.00392652512457,-26.146279415995416
-8.27824946082076,-4.937462659364496,-11.990267283632395,-8.97614300791868,3.0684569707440303,-0.1782589308679391,2.543775363367493,-9.387696377459052,-3.5871404907844404,4.036524531219262,-6.29489103716962,-9.617336407619309,-8.197342760955731,-17.619811558791735
-3.93422737036858,-10.747724425558006,-13.29434758445686,-11.809305496466138,0.8307450528191396,-0.5772704350320375,1.4895681440932886,-8.276529218680349,-4.65492102925486,-1.3065727709738717,-11.218229527109289,-6.523322177165867,-12.09164168319884,-7.087570318495205
0.5408237867860658,-18.453138833519485,-14.064184837340784,-11.14787342667777,0.0638259602818678,-1.143820385518313,1.0037590436227732,-6.05113539111895,-6.01752361169048,-4.15848324445474,-14.540820075005293,-2.0281887817573296,-17.534173272508152,4.17037256353053
3.29907692284108,-21.75735221176615,-15.118034778790802,-9.201995968736874,0.453822554186182,-3.2939773002330925,1.1504847076346147,-4.867141469064845,-5.469077654039565,-3.291071251626764,-15.23936935355286,1.659104432740057,-18.99183295548634,9.922375428921065
1.2708135947286845,-20.10208135819644,-17.410772056381635,-8.37242293838321,0.982494840402417,-4.285240440593785,2.384310517579084,-5.047672821722322,-3.003588992283996,0.4838574804930352,-12.984670778630694,1.5692071477509617,-16.43777077901863,5.105804920544809
1.3581860119406293,-18.19113092653751,-16.48892511271411,-9.379668846339634,0.698304782579342,-5.154730775013397,3.730507477089066,-2.6044218851070395,0.8555080663338526,2.8135430532101724,-8.755078320798155,2.653510004036426,-11.655002516381938,2.6880666040667864
2.800321248892357,-14.460478857353676,-12.57169245667137,-10.95737604277492,-0.6873962513870495,-6.747498203557667,5.364538944235283,2.126755773832868,6.691488561099982,2.381773060904768,-4.4141232795338965,5.02654753293035,-3.251382748337231,3.183185420967951
3.3624589139726524,-13.832176005144584,-11.83662684332156,-11.322033346735251,-2.763249031816912,-8.092454913064985,5.205070828869738,4.519038598644322,8.925432041539043,0.3850644465219406,-1.5829476681618715,5.5243954507514825,0.3546727560570061,3.0841933926400595
3.781079503035048,-17.215686614418352,-13.838286119204076,-10.019895747729128,-4.866261659733812,-10.633812361008344,2.8852099367911213,5.0094269513992495,7.169082096388454,-2.305727387380551,-0.7879172084442843,4.755524721598349,-1.408690225644255,4.052854190764848
2.855176447067429,-18.616974716535186,-16.273254619078394,-8.386561461351608,-6.596430691886496,-14.194568661591344,0.1306247297006953,3.133355644884724,5.470052164365271,-3.644152145808508,-1.479905129858473,4.204459563908766,-1.3904306815926744,4.034457750645237
1.1063364547807135,-19.247611683057624,-20.39472914686151,-8.173651823362615,-8.005131551548427,-17.400659173546508,-3.6665433731326194,-2.222120167757469,2.484163691618569,-4.460967437997953,-2.657267507933014,1.979591926495415,-1.479937494940094,1.8157210392816976
-0.016915911793787,-19.362048578907125,-20.736558518461717,-9.705047801808806,-9.395474663979284,-18.379529308418626,-5.993185399314363,-4.853325827549646,-0.0141077329498357,-4.273416124426073,-3.4695077728240094,-0.0947152639568418,-1.9916159832498397,0.5850538386439135
-0.5653156684499799,-18.036572648663444,-16.783702338487824,-11.44015901063712,-10.981669788081271,-17.444616274287686,-6.469725927517232,-4.866774884523955,-1.4902933441351234,-2.507621061281031,-3.528565792404912,-0.5055406369613659,-2.054163835120204,0.2890936613100836
-0.8405076188085674,-17.45940895770362,-13.512340028186316,-11.459655744251592,-12.695740922601985,-16.046488176427076,-7.081571505817687,-4.902251876322201,-4.956847503956389,-0.2035692780230754,-3.0475005544899885,-2.320725739710773,-5.375060913396714,-1.4438471658040353
