AF3,F7,F3,FC5,T7,P7,O1,O2,P8,T8,FC6,F4,F8,AF4
18.938458284898594,6.591352078141185,12.278805073803836,8.323295687273282,4.302602726563665,-1.6569630609095505,1.2678486903435564,3.871506257039523,9.51417943896735,7.436657461431065,15.112213398042073,10.350483035208796,15.792048740804107,19.190172810045844
16.33046835498874,11.44057173450359,11.466248642412976,5.547498931079394,5.066258984687132,-0.4973561528603204,-0.937794666238634,6.0554093875312285,11.63117533478055,7.93979839653057,13.339611732818128,11.221315814233886,14.652267481125593,16.082573398774326
15.12945147199419,19.99702283874108,10.880139758370971,4.929167019187423,6.342528300682319,1.2033284964262037,-2.698906471845164,9.380833883649544,13.007789160234264,11.771239466849256,12.650220222106654,12.670924366323202,13.161818592092487,12.481177677411791
14.476971147373082,20.218323606088035,10.1351288175419,7.21022340895466,7.693239063915151,2.2896169004985314,-2.292411977358145,10.692491201522335,13.154095211023735,15.972167085471634,13.334994226054611,14.10200724665091,11.17829960526844,8.930270992593128
12.260462841694164,11.281892945502968,7.243284300495218,10.667306176883011,6.206807034757136,2.020508985165232,-0.3870022549782436,9.668425996140678,11.471310271225295,16.70121677891957,13.45120618976666,14.214045440619635,8.109678574445965,5.390094183958576
7.264249505802456,-0.738852153446513,4.084336464688726,12.298741701318692,4.17224753963577,-0.3033146578435192,0.4389428826737165,6.130127666028489,8.031468843002699,12.394240953844912,10.830005722043756,11.955205752781438,3.9301051295151055,2.036774879881419
0.5833818275476537,-18.993562563095185,0.4172113107812503,10.125255259494134,2.872025702798127,-2.578454206093596,0.8511525647330105,1.4538598434951828,3.844895506201048,5.075666842358632,5.283975089863393,7.485749942117268,-0.4312242551622081,-0.4700886118318075
-5.087613524952452,-26.257838434426784,-2.9115248330428862,4.741149227484327,0.3797131028734292,-2.8335187763655765,0.6460795228813382,-1.264227100972203,0.2891491541977977,-1.196166386222326,-1.036500628469741,2.211877431809251,-3.7133768946970775,-1.5601332040098943
-7.642479461054891,-20.887911866882536,-3.952282452013866,-1.1656160814710643,-0.7843695612589077,-1.1172397409563275,0.258293496402857,-2.125129993885124,-1.7452389185651191,-3.358654431646764,-5.374449635768875,-2.1971523483501723,-5.285317587825643,-1.4155548993652634
-7.181646617608132,-15.17280641991836,-4.506953997997824,-4.91322816176365,-0.8070406770490322,1.8624113418183823,1.2949078803177714,-2.6231377292365994,-2.2335846062588534,-1.3671860749984073,-6.515438523247516,-4.93126826846653,-5.495220554220371,-0.8610733440760416
-5.615564547302478,-4.749339267250523,-4.7450307512290175,-5.762799268527616,-2.7157023074146687,4.208334923583752,1.7848698113511572,-4.3731813372232216,-1.757843217863882,2.1981451210824985,-5.455457973091342,-6.328270095636682,-5.151654074906752,-0.5582109383342413
-4.755803442842211,1.5886610645500308,-5.13417004097559,-5.089304544637847,-3.927881456528106,4.0518331131010346,1.0471141460783826,-6.633829092150508,-1.0677258217234904,4.259130401663631,-4.203294475145854,-7.213007254610762,-4.750617650293634,-0.4488700563771939
-4.76061526555898,2.050148819683182,-5.987561320847485,-4.789476627592336,-4.001818207103998,2.068755656683152,0.6448558242947114,-8.312647266013306,-0.8821922164631975,3.231816170320816,-4.018129165151741,-8.058765905294798,-4.215256401660097,-0.147688490875983
-4.332738496860594,5.76653357476726,-6.285365020513786,-5.499861272453404,-5.3728434582726345,-0.4345058420441368,-0.8685472457583974,-9.880752656673126,-1.8402423418779617,-0.4354280905045957,-4.679314449413155,-8.773209692194865,-3.291194936275815,0.1356096608767689
-2.337116148224423,10.388199933151466,-6.458766529379963,-6.266733675435049,-5.579130049928144,-2.5683009737162275,-1.5553210654832843,-9.403095447812362,-4.25824473419892,-5.080390571085991,-5.198525065655942,-9.132014830898036,-2.0640661074406244,-0.7129018376204672
0.7841813908069395,9.900502229976768,-5.988523884302642,-5.83351439600359,-4.769689935335026,-2.866960531021792,0.0059270097397478,-7.188628135060519,-7.706112663060836,-9.020000461664534,-5.021328338357694,-9.19928562088524,-1.029678681575894,-3.818933461716924
3.136662831892984,4.825402924508397,-5.727579533933546,-4.1484221000897765,-5.342502179207338,-1.9355784218225924,0.5164377974470655,-4.997984696552543,-10.886561886441568,-11.3030416702322,-4.501718948754875,-9.205366792455468,-0.6912574126389135,-8.941857991060724
2.910501776950872,-1.0040377903162236,-5.952317808091546,-2.5546712933849536,-5.089542624036186,-1.5830825019456072,-0.2608433461606045,-2.378530177292214,-12.214769068703731,-11.840557149632604,-4.329237613948845,-9.071558719968898,-1.1458464258961851,-14.002377464632296
-0.0456327272551131,-8.6921916705637,-5.137365632641281,-2.485562895802308,-3.926131982254935,-1.8534878113803792,-2.252569354919384,-0.1218085278990548,-10.824285100573253,-11.110357626068824,-4.627644314005272,-8.22539104418081,-2.0503423286898776,-16.1966418843559
-3.969026856145639,-10.167280369589031,-4.085513853196372,-3.960563883510324,-3.819143629605436,-1.999699572094457,-4.321408491544693,-0.0312801038759422,-7.200257192602518,-9.67141643455532,-4.668784879657796,-6.03626579555694,-2.8950611806239763,-13.932362204432936
-6.442114139682766,-4.128237211595803,-2.303591607937454,-5.337664494471007,-2.8987598557873957,-1.684197419269151,-3.976423925026184,-0.4075348330431074,-2.889974625622285,-7.742514153464103,-3.4829589776418457,-2.4954018411302705,-3.225061295798705,-8.029430821693234
-6.113260795636357,0.2647204342484093,0.9966721269153368,-4.560766761538536,-1.012529874110061,0.3555253217205225,-0.1275654802578095,0.6832561316047834,0.4464541944326984,-5.148145463518907,-0.8072298827063591,1.5570175497739496,-2.64208101613621,-1.212034684707227
-3.5123755075036875,5.025992058813727,4.123755767078415,-0.7942665306959953,-0.0976722282644226,3.786511970841707,4.942123265939207,1.98819075038941,1.8557278846513752,-1.7521425506694772,2.485202338474221,4.942327429224045,-0.8019767893511904,3.6833814841662256
-0.4054494536510828,8.410427453124422,5.471879661487972,4.908441034777991,0.4869708616185492,4.472120657925645,6.036329031110039,2.8861349440186665,1.2627509976220144,1.9485581511822163,4.892215559857821,6.958105687057094,2.3087690503151816,5.393848711049436
1.6450823561860428,8.875525700115075,5.460009856693486,10.316794396056094,0.5928911789534158,1.9087435401272428,2.8571667830677216,1.81711425244031,-0.8324571334667636,4.67708912586043,5.363087002873405,7.746060801187936,5.922534236788229,4.62801469028922
2.2527409805913443,9.574139195791188,4.3663078965208655,13.399259289888269,-0.7717743195159319,-0.7661285024431179,-1.1747275411936815,-0.2558642544888379,-3.647572051174112,4.9882055459137,4.076239126830217,7.864268912952793,8.388730159352626,3.088070367403509
1.976586813636549,9.553793641950907,1.8269095800720443,13.304072834393509,-2.318092637169741,-3.584029504420521,-4.137820101095532,-1.6629165196138478,-6.234539134007875,2.281258671237865,2.2468627662468634,7.48527374885218,7.866419695386179,2.052360111194762
1.3204513471350938,5.609505349546248,1.61539984643415,10.442699918989437,-2.209024056658448,-3.2802232145596064,-2.915431559888924,-1.4719540021237956,-7.665812671758262,-2.5405213337864243,1.1105795897057051,6.074043098475309,3.601254821566279,1.6423710085053194
0.1121636280211988,-2.317684699780715,2.899753457165949,5.9545977195527975,-1.9236279998258123,0.4129159196495247,1.1141867522697646,1.514749319581313,-7.441045686594784,-7.287042709014275,0.9810630374692968,3.027822746337632,-3.108891045976105,1.200542673417436
-2.032588178665464,-9.016079162479128,3.231399865670519,1.1321161556841122,-1.356154079135629,0.6031564343259105,1.4105367975136396,1.8632903640987597,-5.800003854991044,-9.503738755473805,1.2335615688967971,-1.2027450743586972,-9.198412314000326,0.253623975681343
-4.671801015615941,-14.926422979327825,5.557930810044194,-2.8915707375589657,0.5692141908605463,-1.2554296413337476,-1.1328075177390735,-0.6819739155500252,-3.5008448543937445,-7.759768205376879,1.174104319576779,-4.682619006582586,-11.50336287424656,-0.8871176062437094
-6.192979110047296,-14.9384284082309,5.489055320938409,-5.3025718895017535,0.5661859540021019,-2.653306075377035,-3.25208808811802,-2.671677412209815,-1.148713155813803,-2.5264450554165068,0.856667910030108,-5.047445417500695,-8.831655630077545,-1.4130642317818385
-4.8574410571975255,-7.317061280947603,3.115250167052745,-5.810715828427891,0.9921843750676792,-2.618407587513108,-3.153066918192959,-4.331444984204632,1.2443235278578708,3.9040378566154033,0.9626585679465128,-1.4884685541956768,-2.9282960482135776,-0.8466911403683106
-0.479740378843843,-2.0329808649729397,2.5762164926177893,-4.843305668139781,2.948332643164945,3.234347468876236,1.89880292469885,-1.853706154272603,3.928669896684183,8.603089804599708,1.8788349222970195,4.042930141357918,2.5396987941916613,0.4443173654500896
4.886685351031543,2.291429840240184,-0.7597812259100081,-3.4505236686248835,2.724285836563021,11.388667716581686,8.39021379437675,2.8741252231752403,6.6365406370610485,9.742513123078153,3.024796063164464,7.792079253505191,4.407544001809718,1.5629822988035151
8.163854095967725,4.300820513426675,-3.93875917197394,-2.7908800746641647,2.5996599932020845,13.462044675208364,9.49675460979916,4.028097207629296,8.279491679297271,7.716051207024142,3.250257790843463,6.882814596713025,2.1110589252133574,1.891015955559162
7.499725178450314,1.922077649393596,-5.496750306020313,-3.4751741338695457,0.5663080803008026,7.912148847935557,4.713185561927935,1.1970457015102234,7.62463165316524,4.65751391667874,1.936410390395305,1.5589044491846007,-2.1300961584503497,1.5503736040454346
3.588662926156477,2.174873647415992,-10.204389986802104,-5.284637987228775,-4.844046510038124,-1.885501250063821,-2.315736890706266,-2.954316801897892,4.382888710836659,2.5678102913187875,-0.3964695772800581,-5.032901693870107,-5.168985858593476,1.0557915012945926
-1.1470862490348717,4.282264468155253,-14.07716304467915,-7.512829389462286,-9.29436627140474,-12.069855718921772,-8.500296015278604,-5.733325112255266,-0.3772036271816601,1.5934912199282936,-2.675294822679891,-9.42095192659496,-5.316659014575183,0.5711058052756748
-4.722664492050702,2.2685380595093445,-14.627461337241328,-9.60686549986477,-11.138002871869997,-14.109515505588965,-8.510948841175798,-5.165486067615852,-4.9248482387878765,0.0753053811488535,-4.420576561444296,-10.47998260074905,-3.347793409971647,-0.3666918549701252
-7.010589641356243,-3.049203900794464,-14.263300852835394,-11.472167719864032,-9.71619092587393,-7.399923867548447,-3.251068273171786,-1.3573133040606704,-7.989752685447422,-3.5575625596919496,-6.135848132173539,-9.834499900643772,-1.4419567373580473,-2.2688759079387166
-9.091962495175348,-8.832766220567743,-11.509445547466468,-13.142575848969432,-5.647130973515087,-2.069547872727138,-0.1794637123414197,-1.20716734846351,-9.285598036810155,-8.801005101201731,-8.419232175989455,-9.782787756766314,-1.1466498650720371,-4.820796184727203
-11.359660557156506,-16.037322879683934,-6.1178381839924985,-14.21603933826021,-0.2100092321381585,1.001328304575352,1.339153738981556,-5.358882997566802,-9.161655582663736,-13.00386826992733,-10.748994896359076,-10.85299285780914,-2.1901002447952145,-6.690815772663139
-12.53756921662874,-15.250833319420382,-3.752781600727309,-13.78659944074172,2.9355794086925853,1.1483055265872146,1.3625813827844624,-8.598024077795834,-8.025073692224217,-13.467285022678752,-11.412655638767468,-11.344257905858916,-3.0508735707159245,-6.416593174173351
-10.844466705455629,-5.214900703412313,-2.3534214437365297,-11.140477555499356,4.20118651437774,-1.598178159765815,-0.254137604379406,-9.952764078820588,-6.217449943825867,-9.837617427545728,-8.95196262506248,-9.189150962144977,-2.5409689704021314,-3.688536783800642
-6.176592809146742,1.5730181935017409,1.0175788213102743,-6.627412428716457,6.74456015635532,0.5361119261509932,1.3852631836568747,-6.569906556571635,-4.251231419483451,-4.525199018783609,-3.8345736693858345,-4.22511994974219,-0.8394385387887606,0.1553868464028234
-0.8843252350098325,7.142602050478339,2.149501365456666,-1.7646955017054342,8.122138556775761,5.340993017812223,2.774270756786529,-0.492724562124319,-2.7703986343630467,-0.6913592382839129,1.408663782316536,1.342691045470072,0.8863973911968623,2.999796995659789
1.995770633051542,7.081136789808321,3.624445179585238,1.7465387776582562,8.917461152679998,6.383237656512758,0.839958340118683,2.0097415159099468,-2.0052046248174724,0.3612404232299129,4.00528660992872,4.690050391217417,1.70983013240998,3.548325194121791
1.4931169846301868,-1.3585847863242169,4.544889598414647,3.332808261384738,9.35170338155258,4.289063602352801,-1.1846539796995506,0.1512276922870503,-1.334755257961172,0.0036738673783114,3.216374488389195,4.651035398041352,1.7309897932059046,2.298761114640665
-0.3870044538299786,-3.637806115274997,2.117539743562191,3.9568198526601233,6.884109481671533,0.661658034532093,-2.0601210396311647,-2.064307169864306,0.2847001486068965,0.627668639969098,0.9518335363128624,2.464222337405769,1.7294230543395352,1.035817077947307
-0.7301281637653769,-0.9722940552046372,0.3912349091320736,5.097188693946263,3.748599896848525,-2.9044891066963427,0.1154759909508034,-1.9264944551609648,3.166898234306708,3.175227908385044,0.0332254634797948,0.4650158590715789,2.207431825729242,1.2592739148554433
1.1889114904097338,-0.7726344257477695,-0.6521607518824206,7.103629967056882,2.1030689482422624,-2.6195178793702203,4.73136072055301,0.6010209406348804,6.160677395858798,6.211641854648196,1.6057208560677028,0.0644559552992145,2.9108017169734377,2.8991673277392165
2.962824494782791,-0.5398293288587901,-1.3534781558180304,8.45693212275929,-0.5813322264541149,0.2321498414918809,6.342478265329442,4.94097811229099,7.34158405263145,7.363014718547244,4.090068759827955,0.8180570706922055,3.3093860668241524,4.41344025564349
1.4108035580808025,-5.932554340924113,-0.7187441613025856,6.816200674385581,-3.457722106559056,-0.1174568860685777,2.454951523175664,6.438228707583448,5.792806979688151,5.681998519743676,4.725809345930013,1.212144947732666,3.4441502918209377,4.157574732298409
-3.97723277703739,-18.244343910456607,-0.8204218545473141,1.1747110151792892,-5.5345633564120496,-2.5622137906777382,-4.559112056068972,3.8880705914614273,2.8716807045859154,2.6910673202247954,2.353482268118686,0.238967199922091,4.143247688436003,1.838707559963696
-9.962888992693625,-20.79102179979408,-1.689692752015432,-6.690665715670005,-8.630428656293475,-3.965978018054358,-9.71082170147825,1.2481766792005289,1.561888667526428,1.1771956536759838,-1.1640386246483585,-1.6870108372386057,6.270289929970145,-1.161854797957428
-12.084350106315174,-14.066642948123198,-2.159138460669049,-12.92337269850318,-8.577833052885662,-3.201356790945649,-8.398302796142902,0.2868559606544909,4.16034552082138,2.887537498501209,-2.366248361912394,-3.1450266270917,9.675303405579928,-2.8487668086350557
-8.546287805754456,-6.483269201991191,-3.2916945270815527,-14.183796828592714,-6.380223016107412,1.266032276367545,-1.215457519778079,2.7119838779449665,10.151037673505424,7.123910115781685,0.6016109278777395,-2.959667891550696,12.84088660871702,-2.220883823136667
-1.92802682166432,5.435794454051566,-4.382782043705231,-10.19411190856032,-5.484136429726467,7.4951423588747055,6.5241085007749495,7.341212482496516,16.129452125138112,11.231628121687056,5.805254980653969,-1.234514856882429,13.58586029440767,-0.2173536508371256
2.799323527595256,8.744698823909175,-3.7817391008845527,-4.103319271633573,-2.9856921551098434,9.402749347757451,9.70816850902118,10.201337739575331,17.999603614610272,12.337075722278689,8.480260282801929,0.5844755768070842,10.30214320658571,0.7206391412203672
2.1718918814920034,1.709491761780261,-3.1311984206963257,-0.1761991437495744,-2.1364406747477367,5.573043397474286,6.72703816299461,9.338931326170082,13.82254951902476,8.987026026907058,4.670281653331471,0.654247202882372,2.8950783302265624,-1.7184317330661862
-3.206241949839441,-1.1733355102812784,-1.9957251045110351,-0.5228744445882443,-2.865414561489032,-0.4401179215597438,-0.5663722110277358,5.029602597341672,5.219167836116204,1.8808218339681535,-5.274841341880919,-1.892909364093783,-7.014674368562151,-7.874066551078849
-9.302260283913714,-2.874998074258281,0.8202196732260589,-3.5040887864330728,-0.5408985198665839,-8.06974107763474,-6.560927214760987,0.025790733021385,-3.5949035690939724,-6.325889048971092,-16.278441690588284,-6.032578767932648,-16.57767327625894,-15.32436382600964
-11.67267524406676,-1.8601375823221584,2.6874232946717616,-5.165140396131623,0.759984102361924,-11.365060550101395,-7.604894198417471,-2.282744450256848,-8.348421142083135,-11.97641536617594,-21.80525463599496,-9.134164763940577,-22.67890639476228,-19.9392930145562
-8.420245643045266,4.324617630890438,5.582079964021503,-2.5325414356270453,2.2743034899272567,-7.003889753140754,-4.324048575725826,-0.4055099948264462,-7.115349712230806,-12.048932340917524,-18.459000659619548,-8.523200109944952,-23.15641022119111,-18.392957403939384
-1.0822442724026926,6.807567870858391,10.490482322653657,3.994713806039536,6.448519685703153,-1.2051892004978093,1.610479473939109,3.863151204013649,-1.1956504795095235,-6.015005208495918,-8.35134225221072,-3.401298593286154,-17.84217728075597,-10.511295989030089
6.830578072876556,6.369127989990926,14.297821835667389,11.14122927966724,8.404237908818883,6.2909451073169205,5.479684952664812,7.178713966228311,5.836436494826121,3.2706125986140586,2.6399295948363006,4.352038705719015,-8.754310823311268,0.3877564662706749
12.327836001645569,7.025636922168319,16.827582977663056,15.57943972232214,9.340500010722923,10.304571532032014,4.857226405768638,7.28303381362851,10.216446051866262,10.799484000308038,9.297382095949263,11.338349577569858,0.9235865638938344,9.6512353266728
14.63876001021425,7.257853535227871,16.667983059941573,16.495313706158058,9.473044115580745,5.569160047392334,1.177193720736811,3.5921394891505165,10.005116624986307,12.473592334123424,10.545200917114611,15.00544407585213,8.512265504520268,14.362641045505026
15.021151345741648,8.601136846800387,13.57669088122928,15.661649485915348,6.419826476287208,0.2242997507473052,-3.046808627592846,-0.4663496913811298,5.942769833743365,7.924896368570504,9.216759506923127,15.274180631545072,12.90437423288807,14.828599929698276
15.041564745029309,11.51047816655798,9.88007148815364,15.18232904397886,3.3415554444989626,-5.210407889642284,-4.304931932480315,-1.9654072044666533,0.7083453049770914,0.768537531073147,8.623455398277256,14.005906823425752,14.251974223799769,13.32189670243677
14.891626604401786,11.043794415288538,7.225316168765399,15.233140535016464,1.5361987610644678,-7.865718333989601,-2.1218637275934844,-0.8283954324481353,-2.9003782870629395,-4.1011837847424815,9.253571819490668,12.863301408394326,12.856839676671832,11.455397827439008
13.2851306291221,7.313030637594991,4.678269556789161,14.008943794612362,-0.8674284287495464,-3.261039156144156,1.2573285923024369,2.4268182067790027,-3.6518968505412497,-4.065788497765171,8.67177845093942,11.685049020720395,8.660380313869958,8.830732795946354
9.082014205275454,3.526497826843689,1.7929903096325863,9.84412837692107,-2.839347578469765,0.8362813641552049,3.3504848651416417,3.241044289324144,-2.3373711821914074,-0.3612214965179809,4.552222597905755,9.002507562299389,1.9725151538761607,4.232621491137262
3.107765933137,-1.2882100773757976,-1.1368133573195491,3.3205572189650585,-4.682422500332889,3.415098568843171,2.8641317786540146,1.0361409836548383,-0.8345567692121314,3.3903772583223235,-2.2694145253233686,4.13927302131318,-5.502985591337375,-2.05279015107906
-1.7306579791212533,-3.3871567191799974,-4.099693893838207,-2.7847554535388,-6.480421402942459,4.082222404674624,0.5838523100074448,-0.9315527134449928,-0.6380944891538922,4.201560658200563,-7.85069503547823,-1.3557408715278156,-10.866843890455312,-7.436658952461281
-2.448170055519082,-2.033732324348748,-3.9107299713795545,-5.712170940644293,-4.658063805492958,1.233931996642779,-1.065847183750863,-2.2111223433262226,-1.970601587741636,1.751549492435469,-8.377244746393625,-4.594681051205368,-11.732180763995837,-8.799147798097612
1.536433415093975,-2.3265009622459925,-1.9049043283058824,-4.982400850156237,-1.094463973777282,-1.053914619671909,-1.5420082948061171,-0.0046628100572391,-3.939279606352757,-1.92264348725256,-3.5269321487767,-3.8457863979296567,-7.974292400732317,-5.150157267873295
7.700086982550611,-3.363827712596672,-0.0392003046091816,-2.5920096840369,2.6712491534194727,-2.8700084799334995,-2.337185071662652,3.518289231547904,-5.33668550839535,-4.356390530053526,3.2206858929990574,-0.2005437997800188,-1.7992084901395966,1.4850204321028224
12.226044578437344,-1.7900447015179708,2.216851533679058,-1.050242146561514,6.143654692891173,-3.123247416896256,-2.3002066923959306,3.932337032625937,-5.381302628630455,-4.434383444330475,7.565809175759475,3.298948590571361,3.947032992680121,7.794592493225927
12.784671021428,1.8570205671062263,2.000930864112343,-1.174031423893088,6.107845769088885,-1.0099540933755984,-1.2369111737918286,2.8464705412490154,-4.035537408606713,-2.818522439710943,7.811543878696811,4.302031505075272,7.557082265594992,11.710971988803967
9.91959060980674,6.453199959687142,0.925964331871484,-1.6247182238479487,4.953570090086571,0.970541070698523,0.1680746059680123,0.8491574532505902,-1.9628010584102256,-1.1411634288943642,5.650935135834309,3.054992097137004,8.754849058409183,13.285726886840642
6.049832044707273,12.55957061343927,1.4487237939621729,-0.3903126792536007,4.51399070045799,4.447646139953845,4.7601318060515085,0.4586324899373434,-0.2572047152481458,-0.8529137348294373,3.942114475203093,1.8290215815981368,7.728131559335959,13.403944484669305
3.263976083309833,14.248387831073709,1.1494634072740817,3.337082442774456,4.220767812987793,6.168341490786341,8.029502767420665,2.655633416040172,0.0505803291373143,-2.4574188759808155,3.924980884996972,2.5758186529175005,4.504160735040779,12.151016317108391
1.9413994320822607,10.889166882544451,1.0738316226134652,8.5250573754672,4.885685951069336,2.716183777041621,5.287791537158596,3.3166222722669425,-1.376827417504622,-5.318504407641607,4.542190729538122,5.136813447039499,-0.4054868307058683,8.78887470968348
1.1326250414606225,11.5452318869295,1.8252535155301235,13.147150691063109,5.83915627673294,-0.285498085687019,1.2918032264624917,2.1428288022204165,-3.8098203750244624,-7.9462370957265955,4.136065940867639,7.567537404082904,-5.07793457540398,3.233313700908484
-0.1103192523836069,15.15157961085118,0.9820194166644074,15.473072404616532,6.199302220967744,-4.83946081923413,-5.763874497442359,-1.352591560077387,-5.780386680165893,-8.692174976235384,2.4187572016374643,7.947382919104021,-6.730497351038534,-2.9209501027060334
-1.8840907831941536,16.509480813063746,0.7865956049133895,14.782968794177515,5.824666919924477,-7.704393012091215,-10.60623077744422,-6.029981439377755,-6.06263800907261,-6.699930918253781,0.6298525472723793,5.7687078409952655,-3.9741286289891766,-7.291348279153921
-3.619983688539838,16.991810039691927,1.240783327394615,11.404507799408016,5.482092067838344,-3.4040276483324923,-6.545365138446675,-7.675818157263895,-4.587700496651354,-2.6163315665749938,-0.0428414023932635,1.8173449104135868,1.2825082050081111,-8.736299093579762
-4.697162857519657,11.935599804515428,0.4655364805253925,6.537434078195672,5.153508012555892,0.2796900498547343,-1.726928949799789,-8.126170111929113,-2.4902199598618813,1.5916492191264453,0.155185871947912,-2.801999601801246,4.649625868980632,-8.323492421691386
-4.714208925412398,0.1354217629222703,0.7537666266608377,2.0110670923422465,4.076197195705038,4.731528375653201,3.7329104799381,-9.401936071439108,-1.20484367899388,3.859063401372728,-0.0873910933690593,-7.199845694492444,2.745821873065437,-8.085751553412244
-3.4181219058348398,-5.1669349150232255,-0.1568003998590789,-0.3603269110098233,2.691432775655952,7.410255507339572,6.842948349270788,-10.170335254278609,-1.4062841568476818,3.485502366597073,-1.5324341377066055,-10.485389516333058,-3.5702442133387704,-8.805894388105282
-0.8320702860330442,-4.54187660145815,-3.029001154697134,0.1161212998649068,0.550746794338852,3.831418673427888,3.29538822957841,-11.50049847030553,-2.7030620153358456,1.601943000406768,-3.414035424658259,-11.65275130324117,-9.402918306513778,-9.166108730298394
2.310700855550907,-4.546557793873681,-5.02292334329719,2.2248094019863545,-2.7456794481691,0.7749948236030855,0.2748974793803738,-13.190801721315946,-4.211347221453858,0.1454118262262674,-4.207746823081163,-10.22158545172153,-9.65393854725132,-7.174253759238583
4.502700998910355,-2.51924800955467,-8.77315189339635,3.3963191198008698,-6.312484130415932,-3.084822495726036,-1.6591191766771165,-12.24573558787409,-5.281843619509524,0.2201947141533771,-3.2704611674582797,-7.020178689225468,-3.241028837918167,-2.3725140941331992
4.366385354304969,-2.9910853508480058,-10.37262884586793,1.600463101477816,-8.317645299434405,-5.4220418690305285,-2.199857963282091,-9.416624513558402,-5.649844976171945,1.3481762995341162,-1.5184425320424624,-3.913007869990349,6.020346081793536,3.462263437716965
2.002390316651125,-6.777458335784221,-7.054793611573009,-2.8658991236277904,-8.766938345322972,-3.2224136651418984,-0.1674552503341663,-6.569136157226572,-5.092089217230751,2.2376111357677315,-0.4132100128979695,-2.3289429455508825,12.540783955668742,7.791639206762837
-0.6499822967094868,-4.358614511661289,-4.273056784020909,-7.40326136584133,-8.804535474330223,-2.5354519969009317,0.1488251856319305,-2.803500791603829,-3.311778798867101,2.165667597064001,-0.4100025888322119,-1.9817071533050596,13.159156468266335,9.369729762974844
-1.25037054602444,3.630674233285422,0.931290976535846,-9.184391085198584,-7.472602481876897,-1.3520713227571692,-0.6341225381733273,0.9534555971192862,-0.4221016210566759,1.517519782339661,-0.5879410251825794,-1.2605890553954353,8.834295956877838,8.808918351661402
0.7248589133984842,5.739817498157189,4.148300756317187,-7.589630465820544,-6.988497857302161,0.3086538540833597,-1.0694526638353234,2.1763812121710453,2.554834360363037,1.0586159757657327,0.1507094474886292,0.929379094361522,2.9335064878597965,7.309611366536001
3.129106626383208,3.0631816114998456,0.3853331473897288,-4.839724684072699,-7.719535523450445,-0.3995108758616561,-1.7253221693861458,2.3784300732510157,4.085598194010356,0.956804354336104,1.6585451724451303,3.7540741069226407,-1.656032355559674,5.168777176203157
2.7781936845395325,-7.131106594795787,-2.802155886436434,-4.213672389815377,-7.253720833960065,0.9912820505975628,-0.4768659051476729,3.003534725735257,3.425818049049564,0.7507780831225164,2.4838567617554013,5.017355608935041,-3.9107878025618863,1.7577910581665002
-1.7164763222416577,-27.743875794716683,-7.675267752630583,-7.394265968777162,-7.274185170063784,2.7202882435235063,1.3841311782337913,2.500979879348654,1.581381183573919,0.200275444974773,1.2959476509553358,3.209303999615013,-4.076409301010235,-3.1405442832532438
-8.562908905457723,-35.10372568940882,-11.79438327936482,-13.20711689001582,-7.458961111685991,2.332673769206395,2.001935387236818,1.72779847759982,0.6486079525958068,-0.2047037525557389,-1.670180557903972,-1.0411952292946562,-2.718327904915343,-8.33924954593407
-14.24882830390066,-29.145154786299493,-10.379894014425547,-18.672964630292604,-7.272623407623157,2.20699933042463,2.2731800795138266,0.8200226244322607,1.8041431190745296,0.107443060636001,-4.657354244592149,-5.564348592115222,-0.7499509487469478,-11.899818057024502
-16.48745810196838,-19.47432590354641,-9.678667512669838,-21.234853414876603,-7.780494035796845,1.4038770088442991,1.4784945295205003,-0.4739380161811768,3.85915526394116,0.7055524046376984,-5.926818984500885,-8.618477114838086,0.1414473319569857,-12.803941214500531
-15.816797357759745,-0.5306953900473719,-8.579579885013592,-20.19982955715972,-8.20744298715608,0.4435164703244815,0.4985216760636627,-1.4772673742373772,4.099305014793707,0.1456720152214998,-5.303382485568255,-10.183740590913173,-1.860375423404589,-11.770789503829052
-14.404069693118334,6.118054739315413,-6.635511692061062,-16.481531990879894,-7.2728123634506225,0.4352366187242424,-0.1398689484687637,-1.1262619300320986,0.9466420491931924,-2.5398949902791443,-4.219273304676285,-11.338603586522511,-6.893564971723418,-10.238890360210693
-13.464300953257991,-1.2704849426063205,-5.3571337174283,-11.414518093701664,-4.252574118472275,0.1837163733724713,-0.7340957177339638,0.6645222167900815,-4.080889392491384,-6.292209453604295,-4.209552349358944,-12.528632519336645,-12.308238866975175,-8.606312436313619
-12.074295192885122,-3.851526725321533,-2.700978031081841,-6.023875479084056,-0.418250255408206,-0.4698638676032222,-0.4069331202445104,0.5175657901557507,-7.282433754231382,-8.320278624515776,-5.321547294606161,-12.672236046033772,-14.039743785959368,-5.750167210204438
-8.61258228435105,-6.478129338099114,0.6514532544079352,-1.221804918749143,4.286617584590467,-1.64912795563503,-0.1586771420015325,0.1857018507031753,-6.016245329712096,-6.441229727888585,-6.019089604876854,-10.145837848672816,-9.842567608202224,-0.5224521637932487
-3.208804645803875,-5.170123341844917,3.2019492509817677,1.8410812962184504,8.019545604177218,-2.196619452043612,0.4218237298278985,1.6015049022159018,-1.2781701945521853,-1.423205066604842,-4.750533334415376,-4.71652943789225,-1.5383209765227006,6.283784717911868
1.5593385062641771,2.924565375858936,2.994345506226146,2.1797104809208987,8.357218583847155,-1.4968521501943544,1.0186420040677218,3.157463025021567,2.9823298248679766,3.083624136826857,-1.707154600923909,1.5583953310065777,6.025695822163241,11.6798559369401
2.706982643394764,2.1264533755162143,1.6765937470929408,-0.0303793053709267,8.486873866396383,-1.115707693962239,-0.6622484243778008,6.891934885336898,3.370405914251261,3.350574222527092,1.010045679152081,5.551373020986386,8.61735433392495,12.48784288348461
-0.26611032297789,-6.657606503961196,0.4808819354097555,-3.017826048439103,8.267962929160896,-0.3662257479097442,-2.5678384257986875,10.74724670403391,0.1762452931838556,-1.1919971021776012,1.1823912415366389,5.493446460529719,5.702913355589943,7.892175764217036
-4.521403213726997,-9.15947815019262,-0.7979912241504635,-4.363004878368024,6.43002886609733,0.0615637079900499,-3.434000137798815,10.713756560396288,-2.814932019160457,-7.1773788499674005,-1.3081931856932032,2.4936316286179734,0.3697202828897099,0.2503598549806121
-6.056314395237363,-7.663904046978926,0.7298764178684957,-2.762825178299808,5.468884287684903,-0.4598036107045514,-3.026651011235153,9.221399867206742,-1.6969811953480995,-9.8007179515298,-3.951507744249781,-0.2569638052139966,-3.541845553423779,-6.494518138203524
-3.0123848269637943,0.9528463437598464,3.1419356327174164,0.9190479809988426,3.69807127460985,0.2180074601209127,0.7804126247866295,8.546682893106578,4.072742735858954,-6.554606632132257,-3.480227406995544,0.0075768862583371,-4.310536236799997,-9.363828737911794
2.81761586199047,19.75652607019515,4.301703820909955,4.311250905303061,-0.4679391936526168,1.041140097527553,5.087346236190299,8.751173557354818,11.17206811981938,0.8833670937544742,1.344064197383016,3.506194034381343,-2.8168288960769594,-7.8556020807232
7.50148940887245,24.01373718624779,5.180875811964267,5.363431074133603,-2.099537725495032,1.2432591993132898,5.850191632557984,10.019614358411513,15.189598965669624,8.066251715429518,8.454453914102164,7.914232935003405,-0.7703051115296358,-3.626728696095656
8.021591228465057,13.698977845550951,3.769269990816451,3.7949186081022273,-2.1157397012362003,1.400579506989505,3.0121003916103435,9.959253044575924,14.073833298229042,11.19214490358268,13.881300976507566,10.36946660885988,1.17058881254769,0.9332757195386296
4.273799442377614,1.5928242935329011,0.8469417860855715,1.0547371880284049,-3.421762320009918,0.6486658075218013,-2.26546022403117,6.839435006117347,9.316177878238785,9.723063470023998,14.690645851405176,9.688474276116288,3.5906227006409352,4.057277064205476
-1.33057748569834,-17.80626075357359,-1.589877238246848,-0.9678246718155048,-2.043028592112928,0.1118679601604989,-7.342993241607084,2.231126181338589,4.223658212452216,6.311022771605788,11.04556032259805,6.986540387680474,7.048743534881144,5.261792770152594
-5.843536042989761,-22.508665919141254,-2.944321925836998,-1.3057999895227184,-1.631861882652785,0.2459359359901093,-7.623321744342315,-0.5667068212801112,1.2105690499711557,4.417778442706696,5.837647300842432,4.425844322990326,11.014815447933604,5.305809315434901
-7.510161598336058,-9.801888341698596,-2.043216824272612,-0.3539474212906643,-3.612577647838311,0.1599879611708995,-3.1362732479710607,0.2674769753956584,0.5231039371603234,5.684628012222591,2.410516127193452,3.407984426783269,14.169448139527224,5.5924699435262575
-6.1682265486541095,-1.95310053218608,-0.1088016055191161,0.7209852979591229,-2.806147545608182,0.0387475779432897,1.2738235593921623,1.8147705462321757,1.057875523036499,8.969171881674033,2.2953517668806995,3.781184666615083,15.568712223279704,7.193971265265958
-2.64286173838958,6.212926185574977,2.186939946806939,0.9707536322068409,-3.086703618859328,-1.340643221079434,4.370743674611196,2.4662128497301,1.911855777443148,11.459530946434082,4.550434342400121,4.4953761297418495,15.27796340461817,9.970838060979853
1.9038331820214056,6.81342163266726,3.067895639824968,0.3144500877222516,-4.284359622208587,-2.700659538224907,4.24441424089139,1.362064707452782,2.971597048445753,10.781439867503924,6.828090657174014,4.806504479713325,13.836047301371083,12.476080223585445
6.17186888514576,-4.13780496560119,1.5802676266460929,-0.5328281388787497,-2.4280733293600782,-2.041301615919185,1.300657710413589,-2.152717045996019,4.25911036483775,6.573108383601787,7.080145239795961,4.799306854090535,11.334738329731096,12.907837480849256
8.741467229878742,-9.808180541085472,-0.0948422203175211,-0.730424617484922,-1.8378386669337017,-0.4537872338987679,1.2050723223598534,-4.164493494270226,5.187626557264349,0.6185747972126259,4.685439990421805,4.827966968918557,7.3188523817431745,10.44907607743926
8.378970765990292,-12.71347132608523,-2.516195121429928,-0.0692143142814361,-1.6470534952512546,3.013291601214789,3.4125788818784324,-3.741632201063572,4.807230374639358,-4.36134809569899,0.4872701846067979,4.5848048393708405,1.6812295107338713,5.842433410531516
4.677476397714712,-12.7339880199781,-3.7998254744707065,0.7858364990913222,0.915615138318568,5.52169225871845,5.000326038178867,-2.700770849885305,2.782396882321424,-6.406877860611256,-3.996402501628104,2.886841569333004,-4.535451376093585,0.6719650384254017
-1.401066016690355,-6.750100606319901,-3.118654057270956,0.8325889065865468,0.7973972575444197,4.127894051317735,4.887423852308288,-2.1921754477622017,-0.1228906871477515,-5.4464473094468575,-7.559836055009943,-1.39064030368335,-9.525027529603378,-3.954240043306495
-7.578579490143994,-1.9290179054889447,-2.7846018838026385,-0.315597268783863,-0.1106208909491014,1.0830836195303253,0.1134530083153677,-3.186508437347296,-2.7437176380232207,-3.17012191888814,-9.903601066352838,-7.924391218008537,-12.09520252174168,-8.057429685163966
-11.073942347763186,2.6886320383599966,-1.5496285445325744,-1.8570178927151533,1.4467867496345233,-3.5611801745878435,-7.453075798073969,-5.604114438114772,-4.678951628441729,-1.7677891307120888,-11.521115528668975,-14.395528021859432,-12.668111143058242,-12.214365564959948
-9.902331807564032,7.112567263691902,0.3084854115743659,-2.1792023977733104,1.1253493035666848,-6.118576397717861,-10.361946293567987,-7.428519606963924,-6.572391243244935,-2.4341616375326964,-12.98656526744689,-17.56989757205499,-12.807401954374464,-16.445246639443535
-4.042781670586389,10.022363279935767,2.965480764369505,0.0206987311465516,1.9661667960460856,-3.873769115459224,-6.752553304389664,-5.375819356982015,-9.08774031469414,-4.7129855177598365,-14.183168415723872,-15.457095007590668,-13.637590147054658,-19.75497408374905
4.251384190676272,13.764007079243925,7.274461271574559,4.732218069555604,5.705046756323295,-0.8759129517626942,-0.2215928675390008,-2.237024048416876,-11.654058342331911,-7.067486067409053,-14.148046498934988,-8.919874927900107,-14.658541526901482,-20.792659486318264
11.422918541957229,17.872752360079836,12.080340233639632,10.525012195168236,6.836994460392719,2.176193572427372,7.201533770545634,1.1305826327637467,-12.452320649074831,-8.054071543385334,-11.79590430283965,-1.3142887867884152,-14.11361055449963,-18.93933748592148
14.527781309000352,18.105108672350276,14.79678629815997,15.3849827713694,7.678496966892973,3.3052591505273536,9.017368631239664,3.7843860107104006,-9.896611595183018,-7.074493227582654,-7.01104282148985,3.755575744958472,-10.61080012888845,-14.74550300609763
12.944934124115948,14.357089135754183,13.8623852899728,17.819930261176722,9.417910451477823,0.7541754026009915,3.095221118883218,1.483143013519186,-4.274472718415056,-4.278324884215036,-1.1303028604010716,4.875774617875438,-4.54862996407217,-9.375346839593668
8.611949583580522,9.846038266340877,11.4427207002792,17.464448516101182,8.367896769860609,-0.2641585750591628,-0.9976139688341342,-0.6968410482623446,2.075322551147753,-0.1188056567231488,3.76782275869113,3.506692046006613,1.9109000870743849,-3.73798430767254
4.498911576177061,3.6311384306608527,7.626261512024077,14.920122107216976,7.833691388315849,0.4046416106075481,-2.432912406760648,-1.477294696345215,6.329385788388143,4.719905787203084,6.301427660871617,2.408186110713089,6.311732453579122,1.7765302994551408
2.4722805944789723,1.2259110579638564,4.820289602538552,11.174818389826576,8.626921377860292,0.6302728467898642,-1.9847953205553583,-2.2940875861403134,7.147329359371826,9.035151203685372,6.726710420591742,3.223717362066981,7.6151110724980065,6.814967385336928
2.293023484416949,3.5597310053903723,4.369899815908704,7.14654985463206,6.208902096071337,1.053893364002324,1.0130967742914585,-0.4904266464955339,5.37247761944494,11.21329008116704,6.517548660873706,5.316013031633762,6.802426225661051,10.599028692385344
2.5249043564075784,4.209406950764095,3.1544921486925714,3.6113483963726583,3.4604115722968416,-0.386761603323547,-0.6175808299818917,0.8213639791451004,3.024886446918748,10.213014347242668,6.966098834799746,6.745348104784775,5.941342986461912,12.254162838968924
2.367361014257277,4.548406563187211,2.025511619629392,1.31687995820419,1.4916720239743868,-3.385846014721898,-5.992800387295079,0.1137327980003373,1.660000579485228,6.771662862338642,8.128090910275674,6.312100327228023,6.508364638540428,11.738900171762245
2.5590476455630444,4.648377612191545,0.9726577842694818,0.8830770226848745,-1.403774607194794,-4.156913284326378,-8.188268180960518,-0.4925295341344374,1.5380543828964583,3.490132264249368,9.08207125248601,4.683277524675471,8.322675321757416,10.315567156282686
4.444932700006792,3.539562697402124,0.0917269569293751,2.3569041647467355,-0.807754437064323,-2.0663793956900958,-5.3689309267987735,-0.7838240441541873,2.068299620907922,3.211380115383505,9.129068646431056,3.6080835190830527,9.919584574177364,9.791862915845016
8.187096783473567,2.934990456161448,0.5111072080211798,4.790000986549098,1.7827469476368996,0.2082064259079637,0.6244332667183117,-1.2662436733753406,2.759183594442259,6.76695145195589,8.614710915096977,4.12024086649361,9.986494622134758,11.047163713742512
12.03025737199992,2.5411945615385494,0.9397495768590016,6.428944576571146,3.055229910046844,2.7837417552579207,7.705211024330693,-1.2649009844271812,3.6291741268426714,12.036825403426883,8.517585833459963,5.580324391802197,8.587860083582695,13.279455381222627
13.511388591417331,1.1496945930378788,0.8898090131605079,5.689861831130893,4.092883325740413,3.944542588235168,9.506087981539771,-1.336086915730785,4.813845218022664,15.313249705355878,9.30622558759968,6.4948401563518345,7.09833734940937,14.828475251203251
11.526845584554671,-1.0949747428198076,0.1695514330283941,2.3038559089235804,3.014007644584122,2.2434905636772355,4.027643675461629,-2.700479657358808,5.998291212451509,13.95857688374718,10.325108673532192,6.172941859797156,6.902201308004329,14.797044084240005
7.253194663207214,-0.4168323366567587,-1.572605082703617,-2.3649718690910504,0.2936539015705524,1.5051232301798632,-0.272686057798603,-2.486385560271128,6.372569303503418,8.19395831157319,10.319349154016043,5.365149381927505,8.012606181696135,13.74425576556618
3.019451557181103,3.302459303533301,-3.111016993655753,-6.266339053929009,-1.6830632506309748,1.4255484369813047,-1.4380496237955644,-0.1749574870734205,5.1369139291629295,0.6505249813251268,8.450204616374812,5.090924997103546,8.84072812448155,12.63268604745354
0.2491307938038574,4.794507022834503,-3.853495043280887,-8.185479248433452,-2.9534243951664303,1.1555795354263194,0.8140258192412192,2.2977593847204183,2.0303548036731947,-5.724482117786625,4.750617628791368,4.915060952737843,7.358384725195656,11.165328352768054
-1.52398603127061,4.651219392451559,-5.535210950584197,-8.528492251866329,-3.636375448815462,1.4273144237416602,4.83425080504841,4.091465438804525,-2.5055429417555963,-9.531862850276244,-0.1994169125919214,2.8044286965193947,2.737874637253192,7.534154438184043
-3.6890939831715066,-0.6111909982906663,-7.074882487894107,-8.654871878914882,-3.8248358233992015,0.349963708942228,2.563657041460388,1.1202640789426326,-7.429758561874969,-11.1677944249277,-5.656885581611181,-2.7760489827031734,-3.82179257044562,0.2632660203554948
-6.730798918098142,-12.48731172666177,-7.986197148114355,-9.372054834782505,-4.019313378611045,-2.150127767558886,-5.410772480560974,-5.815798583846334,-11.266523961243076,-11.6814615908232,-10.602181830694406,-10.40989161898661,-9.728377555743066,-9.502165601189994
-9.43887593428768,-16.008645929283134,-9.001944932597235,-10.01235943579198,-4.5896945741122535,-4.042380191605367,-11.947551440448434,-10.970995610260294,-12.472860994030867,-11.60794922274789,-13.575213991715678,-15.730485694202894,-12.648050602961874,-17.764126888011756
-9.94044293866166,-11.437671307662765,-6.565420321596012,-8.98460818982673,-4.808034790403605,-4.280587017461695,-11.527198457125458,-11.345705679284492,-10.269812689500046,-10.837801220598331,-13.3020101968404,-14.646771203831896,-12.005532800547776,-20.261171287530296
-7.501977483122669,-2.6214799283416466,-2.050102264388775,-5.327017347257861,-4.591326526856144,-2.978996642556177,-2.366012638412319,-4.513707299732882,-5.610161165257903,-9.348312437697588,-9.987585230665282,-7.222849448832228,-9.268822659507672,-15.874057948167666
-3.337823948635169,14.027678012254125,1.940158388761738,0.1282920440831283,-4.48676072500564,-0.61107772964472,10.414992919820772,4.679234548613344,-1.2596732805887214,-7.76950439112303,-5.89679460604199,1.589108234703735,-6.82503638665945,-7.793039516419572
0.2988287474941486,18.012294740969033,4.8845000159009,5.031188261873382,-3.618299073577301,1.5131246768055675,16.25990708897254,8.012531611903919,-0.2801041536523563,-7.069558918999812,-4.053337753392194,5.618604513318104,-6.306505210638564,-1.234120512412499
1.82086976202603,8.176654261882028,3.992740239331466,7.049792905456204,-2.20358316868336,2.0515943688272267,10.471066336189692,4.109720646459703,-3.667543377864373,-7.673409092628795,-5.7557857431032495,2.5971786937145502,-7.672703870481188,0.4421016195346752
1.2596742733178845,-1.889545360907568,0.8739378159708059,5.4637225683312245,-1.0064946866216218,1.0718770727055305,-1.1000227333139327,-4.938051458633835,-9.14519560605584,-8.968525279472221,-9.224166572800874,-3.949100793840687,-9.728659682413976,-2.06240963749012
-0.2214144574290841,-17.035979302339797,-2.2735254385441337,1.6005219025004305,1.1186307619645088,0.9804757818282186,-10.472601426084042,-11.674573425256144,-12.548620243325916,-9.771970894829362,-11.022051837665517,-7.955838528388951,-11.488033135429871,-5.183583324374406
-1.575428863197561,-20.85587811999609,-3.7048059665174615,-2.1793284471388024,1.8412446605054693,1.5603797592493005,-10.649808257744851,-10.046235161923189,-11.01202188715411,-9.357371766475357,-9.249929978960395,-6.319441647831077,-13.003255754022144,-5.826042952701566
-2.6563640942349784,-10.664451501390689,-3.2959032733427427,-4.150449514983213,-0.4154200710147793,1.68254606589251,-2.341026854980738,-3.4279191136080027,-5.323478139264347,-8.068268934696805,-5.500990310483022,-1.5284875216250144,-14.83296243539567,-3.8324815758415847
-3.933507893586045,-3.276636763311167,-2.693899961633925,-4.277454616062798,-2.503493492200568,2.197450838564177,4.865376842206306,2.6190033795596386,0.6744180916806242,-6.935996194458289,-3.475380350569151,0.9960596977718637,-16.754835540362343,-1.6130820864896291
-5.579113685177226,5.490880187242468,-1.3457538628923773,-3.880006382209857,-6.035549919883126,-0.16228122863994,5.316028769954146,3.1429515169945343,3.1904276795741606,-6.670850047900039,-5.337649616672131,-1.7582153223763033,-17.204264970615164,-1.5902589609127942
-6.89217121202854,8.184560554784206,-1.803707658744128,-4.235637547751635,-8.828802894179587,-3.558943923340461,0.1149205294521273,-2.1756606086399155,1.4130114423032405,-6.984687011766313,-9.266849945835345,-7.468813707735399,-14.246357376785989,-3.92695954143191
-6.676177387857603,1.8260342643612717,-2.75779592531927,-5.3353147124934575,-6.97414410747041,-3.972221139151034,-5.143704027646978,-6.673208281713583,-2.200533559634189,-6.8782826255152685,-10.728453368775046,-10.64613638558625,-7.311051887555241,-6.511206214118581
-4.358717115985705,-0.636833645707128,-2.4726858359720323,-5.917019819887832,-5.603928107434033,-2.577371133895964,-3.485927518382624,-5.517441476632897,-4.32249280490664,-5.6317913132963575,-6.537337849788254,-7.722798570525008,1.912417926123168,-7.032906205073825
-0.9568999507437894,-1.470002503686353,-3.974808001453808,-4.800061262976158,-3.9667088394121968,1.8943888918546492,4.77431144797794,0.4966702494566233,-3.597905871869692,-3.607259655696378,1.9180931846159464,-0.3151419446479657,10.242388513343112,-5.199556360270517
1.0614661584146994,-3.45962174210016,-5.206462674085914,-2.324698411546372,-1.859814242866456,5.642555561579086,10.679834274612316,6.384790837200816,-1.5393511079974245,-2.144812893786934,9.254437007071695,6.135373647155628,14.71952751326601,-3.1565844305255943
-0.7301697036280572,-4.686905899832636,-7.242607519079375,-0.4963842476401758,-4.363252045912637,4.129025231032776,7.669515208722997,6.012318682183553,-0.965218303596238,-2.6002923601885044,10.063531112738984,6.82971000058566,13.886595546281995,-3.790457449457129
-6.7317981437485805,-11.145683114638055,-11.598486817556903,-1.5333371334830588,-7.192950016276919,0.3213741193889499,-2.9988177887330867,-0.6142860325894546,-3.5169902539283235,-5.254490015953827,2.9546742131791106,1.1814052328606586,7.994344706164671,-8.323120702339331
-14.39783307081878,-23.24496563901028,-15.025470620780908,-5.980999322828591,-8.886248369160613,-4.423548687424255,-16.76748799838608,-8.767693742233906,-8.29401080424396,-8.907724945018707,-8.507973315864039,-7.213339947595141,-1.3761826375018344,-15.08906316995206
-19.45911138193288,-25.46173145037308,-15.70167926717584,-12.016964436018236,-10.238327496678854,-6.219759348247606,-20.898106050426158,-12.13862349975394,-12.48736688632194,-11.469913085857344,-18.363477715175573,-13.54595804334108,-11.583904762156372,-20.397993254276173
-18.745032543667666,-18.025861670703165,-12.103482678820924,-16.563070419598198,-6.801981700820129,-2.456969133931115,-10.396959358695218,-6.6362839708510615,-13.30210684843135,-11.17551560380164,-21.980827680038296,-14.903794125189645,-19.17997950952988,-20.830558211345007
-12.529767120929328,-6.091372448288622,-5.71406970784331,-17.26905692247157,-1.250232162794072,1.3600534940230702,3.042806049996312,1.5371951992656785,-9.68910867511396,-7.636535037275344,-18.242762815331275,-11.338876491893338,-20.817259449979336,-15.354267083009924
-4.381286445939647,14.019164722547128,2.4230890761958257,-13.768057349297424,3.980212919501631,3.654701337094252,15.840304497542284,7.931469381440938,-2.8000322453698843,-2.03509845478375,-9.244320874394475,-4.87394959062204,-14.94929665883988,-5.868531646848854
1.5713271501870525,21.55279059028001,7.933117317614131,-7.390607865808406,8.268803663337282,3.3982839226818653,18.7038520909622,10.734536122197689,4.904079302018957,3.690392816419077,1.5012544887953254,2.1321133961348906,-3.2628115177957118,4.07421672998629
3.752020147392926,15.01324141716562,8.450157136458555,0.0652913705085183,9.175619588243512,0.2942856681237316,8.332034511214456,6.875292776748448,11.110209974930342,8.098274942813447,10.834940246052524,8.031992120801377,9.627436284623483,11.39865908225078
3.953330222306036,10.279406124282827,8.806115340600586,7.23191848635971,8.967101515577662,-0.4170121514718095,1.691996131488178,4.859722446684131,14.691840141581087,11.001229939170152,16.925534906471057,12.12333248724252,18.576083607937285,15.017772508711616
5.1595817975128,2.475424691440608,8.013593194581539,13.09557512332362,8.77799480519003,0.8042181916304316,-1.9194572724480143,7.117867466965395,15.80651358652085,13.150356491603986,19.482359514558908,14.428352944386935,20.94475382538875,15.80259728348647
8.436311232953635,0.2468489561575313,7.160698028106938,16.50701182174342,8.380986574392917,1.8603390084472768,-2.498621946789437,8.927833201516057,15.27417705925567,15.182126432533266,19.44653694444933,15.304833325695723,18.03436059400637,15.28421353131874
11.84836824536506,6.091653265908882,7.41402651372753,16.313493462268035,7.768989824006366,2.305121815576455,1.861936559008974,12.757944243539288,13.92857113855966,16.867785293585968,18.302762888002505,15.01597289052981,13.780214497941609,14.30397544754524
12.44480346347909,4.968214756557378,5.971582821500574,12.35913427213871,6.195339017682668,0.2369186477463452,-0.1861287788802305,13.999868302983598,12.45701363509233,17.445535656713545,17.25799305560058,13.506243966004732,11.747629299222169,12.748954657894522
9.363447360486688,-1.0442232453774682,3.699111186821265,6.36369031378716,3.6960643285833057,-2.1442219754291507,-5.042327946821612,11.196970532754351,11.585333878914938,16.702050737665594,16.727195409588575,10.665648642839583,12.799309984250172,10.436856785974662
4.968352780813305,-4.058107225368255,1.8757201972293287,1.4096701829205929,1.6391098172765868,-2.670536414414098,-6.803209347189751,9.191217690433533,11.993979210209057,15.573527360748775,16.41106009356902,6.940374338033109,15.12870251729752,8.0886830329016
2.820908745052946,-6.183508112248938,1.9559939016567416,-0.0387197742239351,1.2949232193034734,-2.0155225611834915,-6.496991818068133,6.385630301540245,13.65933642193356,15.400722639795056,15.754750635260391,3.596573668820511,16.297818461048678,7.227129405734544
4.409266490659974,-2.6606407162616943,2.749999949946307,1.9467845424147043,1.2992218736092176,-1.014353751349449,-2.174752764091941,4.9300335294278606,15.19771899727582,16.406441280535077,14.3161350398219,2.0692089267441105,15.337256395783427,8.932022093982809
7.8249524919406355,8.10694490140177,3.1729080364789946,4.754613092216232,1.4015371706973097,-1.904516655098398,2.0839701007918534,4.611780006501165,14.266116102508889,17.02170776434035,11.87204821834787,2.770965956511532,13.208469117489727,12.641991322423875
9.686962125103278,12.416401865397216,5.081879037098893,5.4340487995985285,2.0324342789981054,-3.542625305686796,2.493997124206961,3.5662121109897185,9.332996450857152,15.090941275771767,8.53238602860165,4.551772725942769,11.594802985058692,16.30071586115261
8.413988035251123,11.006960758218613,6.333398084844999,3.295410302251227,2.442722079214184,-3.194426627731596,1.236807934881903,4.050129266390336,1.5944925861037549,10.105242099722986,5.036827949857226,5.602214072739912,11.411775312748162,17.88686065037355
5.62726763603284,8.240796576421586,7.0025195223698296,0.5532478664577667,3.253458989387087,-1.2995912264378755,-0.6933046311320411,1.389533218125786,-4.94586572056518,4.310743077077163,2.8567126236642792,5.145394377430776,12.356353130548989,16.952870723335792
4.352135311960524,1.2150841432871609,10.20409708095331,0.3425350561978604,5.049942506970197,3.419009401875197,0.5359630344991271,-1.4611776035662176,-6.011098841649243,1.3226554333586478,3.52550335700937,4.248951317517452,13.56273492749198,14.712991740764627
5.867280878913917,-0.4579147687826629,10.497430397926292,3.843699464609017,5.331106076405086,7.216313446201003,3.989909147475695,-0.4973450843041279,-0.5318618720677506,3.192163659441462,7.314146269800787,4.767901054304517,14.389495542619017,12.624416578928232
8.330969740996714,3.814249104784434,7.351829214705762,9.070065128690366,3.6890692357205386,5.930917507828702,4.583984618922045,-0.9622788495472032,7.952100394629269,8.500037373980845,12.33184795558902,7.293039103377168,14.50388460513942,10.892160912516914
8.471236448934093,5.815479686731812,5.328625649022123,12.33738186713709,1.802608867285836,3.027148445756937,3.014444253955556,2.107447661361104,13.584884620321873,13.27925914473056,15.175941645966745,10.120301407156788,13.3933639500882,8.356596806251751
4.6115105499387,7.602947660220605,-0.0178092179329628,11.055539193104622,-1.4863452159608057,-1.393909375961065,-2.860680963406608,5.5780132724543945,12.569043054933886,14.036281378779393,13.023376553287,10.377954550557988,10.106338236414835,3.7860012616652057
-1.8559695799618083,5.882687205865607,-3.830770000804991,5.497016279772375,-3.137690158139779,-4.689420925147632,-8.589049339805017,3.096457766455016,5.963516707373486,10.252680385613331,5.641193265048116,6.372867689671708,3.763676738057441,-2.782101713062673
-7.731853634517101,-0.7903788265329061,-2.675000678871345,-1.6577338105652617,-2.4311924641189977,-3.5784563486384493,-7.79900154487816,2.086945552171099,-1.4755227355620804,4.318880063418973,-4.338442611673486,-0.9491138368405104,-5.438389355092028,-9.919804018009556
-10.548070053708004,-5.018744371884585,-3.346355768490156,-7.244349619829578,-2.188311320229798,-1.6552729494439125,-3.189634157322048,0.0227152610394409,-5.262241249473576,-0.7376464328562022,-13.12351494583934,-8.636978148623875,-15.580671624693608,-15.834830747058028
-10.015067782035048,-7.695251186963403,-2.4177214414125965,-9.33396806055314,-0.4542527344499064,-0.4842646596699915,4.236381260061672,-2.4965748085110344,-4.391712522002109,-3.485097678745042,-18.047503290799604,-13.728212232449025,-23.435313587183597,-19.40338470868226
-7.462250429673489,-8.359447501863878,-0.7981204017393564,-7.752984110566246,0.0674101837241773,0.3518115119669386,9.120291458471906,-1.099964376965293,-1.2223667312275808,-4.41741808573687,-18.69745324565389,-14.863576028004545,-25.9596247033862,-20.339946938850854
-4.364956548511614,-5.462886989583836,-1.588623981858131,-3.6449489220590863,-0.5713807906437784,0.4574484583437977,7.015466706638042,-2.025682230158563,1.2669003558971283,-4.586440188163493,-16.333022091741746,-12.506950163350496,-22.101477866674024,-18.74085022628821
-1.5314296896704531,-3.980874831545831,-0.5173566854060374,1.1673873401430654,0.2890080552312125,0.7343703148542289,2.486084837596528,-3.557844913390991,1.910907661643897,-4.312845965753752,-12.519872812282683,-8.153415203638403,-13.737484686499322,-14.82110720037575
0.6673358462148187,-3.454202257455523,0.9411990073292636,4.687240714317973,-0.329667113666899,3.3220933126420915,-1.7748913566724345,-4.642431215456159,1.4083866277219883,-3.3286309690738065,-8.278150692071648,-3.4829351772147703,-4.886551953940099,-9.159463781685425
1.8637025607971367,-3.136724305291852,0.6770108306364867,5.31853013396972,-0.986798600190527,4.9663046978361525,-3.886110840731807,-6.93038571414557,0.6160789850879453,-1.9203932795778516,-4.189514110806133,0.0861092102983107,0.5727798287169925,-2.957063134590605
1.797318921812156,-4.015253073821251,-0.5781270924188787,2.603969753383,-2.531606500376606,3.460372514832745,-2.098059134811841,-7.0135897669331175,-0.6905131033462766,-1.4902730524418182,-0.8724648190391129,1.6235016440353078,1.22956293572949,2.2425229489061
0.6897539736980924,-3.2067993582913785,-3.055363629158244,-2.332294877463194,-6.562088936599578,1.076774792683633,-0.0688915444954215,-6.228494452317756,-3.326168573651474,-3.6257528989164207,0.9316474289355874,0.8754775340501695,-1.2377443534263843,5.22878260920897
-0.8432845032093788,-0.746831294283095,-6.417227184666612,-7.241930935574466,-9.820495816194423,-3.8976234229472766,-0.223377858570082,-5.419887936124741,-7.321281538324094,-8.47777465211708,0.7622486819714904,-1.7269222248464349,-3.699545265692789,5.569166021266884
-2.395626557063083,1.1649718295325175,-7.1254788896944685,-10.04217489827085,-10.592061063860992,-6.923024414553787,-0.0808455237252635,-3.932117832109004,-11.361258493282635,-14.115247365891442,-1.1620957286774098,-5.336710349458366,-4.136652290118416,3.545016487883701
-4.080215353205258,3.0459289017980327,-4.561039608478529,-9.99390190583974,-7.760361560545527,-4.665894786329791,0.222268301496967,-2.890146068318181,-13.62256795015994,-17.63558879947846,-3.9516528156084574,-8.959363440036174,-2.9275390046453387,-0.0528530764489887
-5.942926139472121,2.507378674673589,-1.111326814346383,-7.76563402984759,-2.2887171844843257,-2.53350278008262,-0.6622304042249412,-3.61903786931733,-13.03726681432072,-17.12227433313658,-6.363304123455682,-11.427323494535605,-1.817079996645763,-3.8916617513819
-7.068331139805693,-1.0206627548148106,4.268497898223728,-4.393325317398688,4.5564957505341015,0.93818501956305,-0.0348607239002484,-4.934593941347545,-9.787384433177165,-12.80430683934402,-7.143558838712195,-11.352723413899843,-1.7371501850870388,-6.122494389743636
-5.681414447808589,-2.5100488991409096,6.753770873427171,-0.2580749765022396,8.27808163433329,3.5751468411971308,0.1739958704512835,-5.873432755117128,-4.914389759417482,-6.654867138899164,-5.403955385866535,-7.691121129678734,-1.755533833985332,-5.111985056165771
-0.6955944442415358,-2.415090934802767,5.927804480180836,4.811567220457221,7.77420706846342,1.7957077464266835,-1.196064158135255,-7.214140614574054,0.1727272047898225,-1.1064863828025864,-1.2120383859416677,-0.9244088028919036,-0.2414592853485615,-0.8117461847687579
6.566940473810625,2.0316661679031296,6.063296403102584,10.456016629349476,7.260603724168825,1.4492991909845183,0.9397169898319576,-4.383867064294156,3.827777293714,1.950318954417071,3.82968765887388,6.247623910996033,2.986483971044791,4.435886654146202
12.427914592504608,12.241331628651,3.5950939084713225,15.045843792939586,4.80643361287781,1.1820379524131468,2.841847307475549,-0.1823741334812607,4.370375552214448,1.4820867097955954,6.805786845466649,9.967512917309222,5.848018781205347,6.933032476309165
13.21714403720884,15.556668776013405,2.0126914627554995,16.38330907192789,3.216126622413231,-0.5895247969479693,2.250205603185196,0.3947953113609612,0.906806166757093,-2.57396661732696,5.040523325092153,7.82272001520613,5.531991293874057,4.267642764548455
8.175083637612403,12.235675903700164,1.4042217307057103,13.416010893687456,3.638460498305112,-0.6415561672834421,1.2822408408073365,-0.0158110295989325,-5.64025292465206,-9.007636071387507,-1.759757098900053,0.9657072636703106,1.0022550348874688,-2.4730036341932475
0.2609734662738532,4.748480381841164,-2.626952909654575,7.32409568120444,1.527740719936589,-0.8708962518631274,-2.9020286217832063,-5.078648448867009,-12.494617807009462,-15.282589054379995,-10.598043630210752,-6.369423136227468,-5.910077346022845,-9.076247982128804
-6.072242239359596,-9.991942732496272,-5.497047046767511,0.8156520597572694,-0.2628400389213194,-1.099940812201332,-6.734843386112014,-11.230586081378195,-16.579539204106965,-18.47161781434409,-16.778973474722093,-9.9446370090931,-11.869461184539404,-11.265620071975276
-8.292637561169727,-15.351623093525433,-7.358604592838873,-3.800741650116095,-0.9597738314092236,0.2665392132388788,-5.797045398582593,-11.022721187445782,-16.64556756820967,-17.027410073346203,-17.148390767850657,-8.713380652711265,-14.572105451426154,-8.052636443831062
-7.373085946193754,-10.67371329786342,-8.924987413682006,-6.007127716109679,-2.1735093444573343,1.2305196973216577,-1.902660730286932,-7.855661798234471,-14.070663478577018,-12.04309403894638,-12.383249037202006,-5.343215903807192,-14.170637563725665,-2.47101318564458
-6.20387719567708,-7.618394330155973,-7.950814922060078,-6.769888872128888,-1.839516071603043,0.3694206690133108,2.416886545614491,-3.1875153850453746,-11.452130307000942,-6.657035492401633,-6.292325203570442,-3.601920043373596,-12.483879997830684,1.0464872619282204
-6.473864331132191,-2.483502655949203,-7.124896487645858,-7.092922064437062,-0.9832735378302192,-0.7781708206065551,5.355201506341191,0.8518294898645881,-10.197281806036244,-3.777820169129584,-2.6876358744958964,-4.97055101200678,-10.977942977173242,0.4104359092914649
-7.064372419136873,-1.625086555184196,-7.263747437606545,-7.012115774172543,-1.8415639037829168,-1.3943714733350951,4.3640365345129295,0.7667226610492512,-9.376413136894968,-3.946751307113402,-2.576653407096387,-7.495287479646322,-9.4926022819416,-2.532954026576391
-5.458868968574905,-6.829128581807335,-6.494823375976279,-5.963107248932602,-2.1812942924258616,-1.1568969803960274,0.582265213671546,-0.6416710605938654,-6.946573259543271,-5.193708115464972,-4.031096440691982,-7.779767657840864,-6.794167341362339,-3.899720904905223
-0.7130495607140119,-5.274058971569538,-5.897296504088435,-3.9395726254189753,-2.346520450595488,0.9300007496798384,-0.6782166949923247,0.3509503902259126,-2.15155813617514,-4.999921577000464,-4.501809437612565,-4.1905805991592615,-2.280405130764734,-1.3735241824813895
4.970904117939256,1.727192621970728,-5.127408872327674,-2.084513224337257,-3.686339461596265,2.871918199809631,0.3077533049484889,3.9616907805787513,3.273932527579234,-2.58328790897059,-3.181699176091854,1.603648418070634,2.8252730777220734,3.7135950864173424
7.660877983299514,4.045423837037872,-4.039689656944051,-2.025475937506144,-2.760204918847112,2.9178767288162786,2.1904564334380296,7.237391365979549,6.335099529814471,0.5140312296013576,-1.3332644339665194,5.986355540850724,5.918701557593323,7.547341931122077
4.868874937796562,3.40652741912654,-5.2026026925662965,-4.55516692125093,-1.8084934627551568,1.6464295722781628,3.362548025259678,7.722466894740134,5.336053070822487,1.9420494360700504,-0.717550934752694,6.292906540956125,4.794845231680938,7.008253143899822
-2.330217344981378,-3.359750937329657,-6.906256084301198,-8.866416539152482,-1.8298123618475044,-0.6605590230895328,0.4359781462585239,6.542016574050886,1.3968313434299375,0.6803013418183923,-1.9644276376272671,2.743594847614787,-0.6216017776136198,1.9934137369912437
-10.017556821015262,-18.4994176564692,-8.348399756107728,-12.99178502531791,0.7617777054657118,-2.9861282557064097,-4.780355715997889,3.7013632236709535,-2.441575456178924,-2.114126609129528,-4.332281381638524,-2.0238633005276654,-7.922769827052434,-4.915019519537992
-14.263029841482108,-22.45661642949966,-9.000558418176798,-15.031641337474497,0.952900106560787,-3.697259554967329,-7.871819391274304,0.9635835241251258,-3.658150929429752,-4.1566707863806585,-6.619392010042247,-5.140204168608364,-13.533438170319611,-10.714804122774126
-13.702025132831976,-15.31001694467174,-5.893964177041498,-14.186437219325796,0.0057518051430982,-2.6720155567212154,-6.191832942587807,1.304024238965756,-2.049484143245479,-3.88873794191656,-7.9991579453163695,-5.482825142271366,-14.80519834486546,-13.954713643163387
-9.982670554605846,-5.994118739095944,-1.5950678325026408,-10.928107468424455,1.3185251622565803,-0.668124023705832,-0.0621591605547191,0.2121065133902712,0.5625851256894236,-1.4865652949079902,-8.10237441341701,-4.013904834762371,-11.500445142511095,-14.913628687151204
-6.105408091783858,9.913274389178818,2.9378331488019374,-6.425911594468516,-0.5477353106807652,2.0622694638153525,7.389435876033754,-2.4439556494650696,2.201999634868713,1.672422399130994,-6.757737877430344,-2.562092268263114,-5.746902130178256,-14.406332772002711
-4.210910849660564,14.870536696316464,6.7177836754027656,-1.8526359700183548,-1.1284561985409407,3.787533661876076,10.226269197756755,-2.861878328741551,2.3869869836063344,4.3517969707421,-4.026290759128443,-2.265236319059227,-0.5844333801765913,-12.743036884794805
-4.442159033965623,7.0823574198621815,6.731571097828339,1.9294806345974396,0.1952357761921365,2.9125792462483115,6.131348826178829,-3.612295670617203,2.1999898441787025,6.297633849771302,-0.4558944384375536,-2.8591262172226948,1.8975961668196817,-9.788801795917152
-5.387280532378298,0.5932239840897819,6.046959569207442,4.326611339074816,-1.7728452172873868,0.6204651696455419,-1.2240811341627085,-4.306834566828128,2.983910385513667,7.958785553031873,3.035808962472828,-3.1100653275429693,1.6732089819733744,-5.7134151347331965
-5.405476620708754,-8.896303167521795,5.421598265708418,4.989493621747414,-1.504332421805357,-2.370274425761142,-7.927631032908424,-3.392458231381006,5.019863875332391,9.626460405279346,5.801274170795438,-1.8232725156915703,0.5508708009859618,-1.3816301267412712
-3.71504180182248,-11.045443504954203,4.442440205703666,4.0278731666591625,-1.0344866027807025,-4.248894506268047,-8.484942113415052,-2.874284173653168,7.339405327757589,11.005492161635315,7.974759149072582,1.3727806232326714,0.8650100985041149,2.1004686933797245
-0.5826960271035944,-3.38171637950636,4.996174052943098,2.2269559567788804,-3.416609938267844,-2.862629235049089,-2.642972788872204,-2.2292867123365463,8.665699175146898,11.624224052579336,10.170547763409928,5.886433439101054,3.9520655747320887,4.190616170812604
3.218847246916013,3.598608983458892,5.362579166962139,0.8222110049855615,-3.360893588294509,0.4580860120189067,2.788633474522799,0.8173379752026574,8.5158084430538,11.512946832103566,12.592813463993297,10.544603702951676,9.321729134697051,5.234531893691795
7.008102528232342,12.93052218897014,4.623101255100995,0.7515492218906701,-4.1477424703763495,3.956720500758274,5.491419782935057,4.433574937249703,7.503808704088087,11.287355566870955,14.556673177870906,14.098342095403892,14.965071173320323,6.001277315165979
10.317066535301947,15.987465777007989,4.142958760996157,1.9182599938861813,-6.195035104126827,5.495163624102021,3.788151581952636,5.757692447769129,6.688426820303576,11.45777251392073,15.049405434511954,15.56855609949946,18.542631836056515,6.88446855697876
12.621133548674024,10.779509604097484,3.4837014956937784,3.193685715646879,-4.494406287385065,3.813954527572342,-0.8525924878247,5.698746860753251,6.612599884992221,11.696960407699876,13.781842388590292,14.441660317320697,18.67400217751407,7.502103307772657
13.205549111624528,5.110909349762414,2.362344479427863,3.329073109556425,-3.2994497946359598,-0.0031470654928922,-1.6992760458210712,4.787212849303487,6.852308427295355,10.933630679359029,11.540268274583973,10.868228490245848,15.534067214823663,7.050585605361221
11.5193511639689,-3.632124730433966,1.592345583307495,2.0682032210310943,-2.8134327364557743,-3.773038974648816,-0.1873601396417414,3.3903293940225727,6.406893380876646,8.320543582210881,9.366743862182515,5.838426679076267,10.480811666761738,5.113341890799724
7.735496300366469,-7.928771310773199,0.7952765568076486,0.429001013303564,-0.322247452381638,-5.023596086917807,1.116265674244092,3.447271792354294,4.584206270631599,4.194266426024452,7.428518636589462,1.0304914507859522,5.1288139030562,2.2264528226335045
2.864414893071041,-6.396237380964752,-0.1177667645473723,-0.2174320826837101,-0.83933531746446,-3.5583528714967585,1.6032286502478512,4.7022417762910615,1.681269040335191,0.0709238250848529,4.891983422069354,-1.9212545447357656,0.6063657738105708,-0.334727464113562
-1.8400488066630096,-7.643386692771358,-0.7396893994137461,0.4974494937574931,-2.4156963193726284,-0.9112942255950252,-1.3080574849006072,5.190926604784709,-1.062686935073387,-2.400232281626049,1.0924715480577376,-2.462762246180084,-2.562038433082149,-1.4613790509517717
-5.653553302396453,-9.776563421000526,-1.4235763830378014,1.4546923772792653,-1.6430347930464222,1.4003920036737705,-3.696317064340604,5.35039872087122,-2.223244612884933,-2.6407784491633777,-3.1848377381896995,-1.6326775786075487,-4.135462495647289,-1.0961320714113612
-8.521307439248957,-9.707306084899006,-1.0388416849498114,1.0575420278543677,-1.6377326493259408,2.4313411605169706,-2.3152307073726046,5.859014567030717,-1.127889473080785,-1.4768653419726832,-5.8091813390593074,-1.352692946659829,-3.940615754092008,-0.2873800735400635
-10.40888138168151,-8.390904942296734,0.7295370501663356,-1.0440117499427686,0.6339773592739263,1.844218449581687,0.5653779837029537,5.650844945757281,1.6880860214966873,-0.3523961613078938,-4.974755810714811,-2.7757023345060645,-2.0566261549157474,-0.227637781822608
-10.652829369304271,-2.038250461124295,2.9524898857033057,-3.135443975898056,5.683329403854766,0.8131859162079856,3.500596957147786,5.293480964190065,4.83032639694278,-0.1235474835769139,-0.948982997437838,-5.012430344775538,0.8670702822901433,-1.0125808947123571
-8.23609740131377,10.149991444761314,6.483655044460447,-2.5285899581172373,9.16152101502998,0.4077464174972524,3.867809818336252,4.717075810267521,6.949523227728321,-0.4511913228007529,3.857576790880444,-5.551409140159052,3.678643485485225,-1.2755517763468731
-2.940442429529014,15.486658027790993,8.408118857207036,2.116898055317705,10.538293832493162,-0.5922166097609207,0.1589387627217744,3.408885677379031,7.543396090895811,-0.2795711108253726,6.719852896899226,-2.355741146868837,5.323677059626277,0.7443494398112023
3.775901819597237,14.141521254530456,7.83270502012427,9.188384927110718,9.067016949697928,-1.3946736114719045,-3.748612603927244,3.0545934768272867,7.067272814721832,1.0203910246081025,6.683258328995464,3.993826640027976,5.498400560350063,5.402034881274574
9.294409066813104,11.0815789981508,7.611843562812809,14.79445459782005,4.832781913632523,-0.4085954672796197,-4.171199000984021,4.196689707090696,6.295864725445142,2.8416735059165603,4.989079529661524,10.100164525062668,4.711478338523648,10.69363211795246
11.571417550963645,3.389951497061025,5.870362763783527,15.433299960683996,-0.5289543880228529,-0.06050322286794,-2.5642045288016173,6.1539150032844,5.500555732819976,3.650512317149662,3.57161380530448,12.038201997042565,3.66383910839329,13.305716117121731
10.635074593017748,1.950089423281837,4.062596797611361,10.623761951177984,-2.571751828053414,0.3259412907625191,0.6550098167646876,7.732622751569692,4.211180217721903,2.2966692518012906,3.257351746968311,8.509059810408758,2.6037557373417144,11.207881703438034
8.472852577486947,7.620871675752246,3.1165051731853843,3.377383865387287,-1.7150837450060532,1.1305585671246317,3.195883270753127,7.063672149858276,1.8700172465569267,-0.7300104934518004,3.4598521463660745,2.2455191103033485,1.398864115784363,5.7707134836858245
7.383603444777123,12.199184927999958,0.3714567084809654,-1.9171968124509815,-1.1688079235100135,-0.6619075978428498,0.9314705567633932,3.90052851056592,-1.1678746015813886,-3.302233359662296,3.4381096292459574,-1.7503985457359477,0.2725037702625741,1.3623908572974417
8.24399051576927,18.251711067379148,-2.521276974014325,-2.5765487300532754,1.7065267653121283,-0.8908651546821172,-1.0342625279947422,-0.1157163661683752,-3.33391493087413,-3.1783784711241765,3.466276684049376,-0.011475901726726,0.2695815815229139,2.2486919794097275
10.112489021871395,19.320308902945044,-4.107597027759507,0.6502608777200862,2.4775655747647147,0.6940230457921134,-1.3135711443645424,-2.63682379720354,-2.841285703819836,0.0751472803325441,4.467628508159351,6.498960213277655,2.614301914863745,9.034756649584324
11.282719509884942,13.940699560805124,-4.6938818721121365,4.40042224841045,0.8227433667631253,0.9503374938757874,-0.993632621462342,-2.178912399716189,0.641238610589312,4.461887981970108,6.554549103059571,12.84557896936508,7.302638047824189,17.68665564226376
10.671343203968831,9.611918289995732,-4.082918722109358,5.314562401474177,1.9154612781985665,1.8953895863370247,3.3571675590995467,0.2332413505528024,5.164202986154692,6.988749304520525,8.326845649666438,13.803459086435396,12.358682965381265,22.31043786537566
8.42323979196783,4.575763903735108,-2.712296428315311,2.4871611882234674,1.11599420111696,-0.1770315763906644,5.689474054995284,2.02344345053134,7.602920219609814,6.09603897800821,8.018035890558167,7.988437507667527,14.863134969779594,19.68574129466492
5.582591234987149,1.6647851506514293,-1.0583941130868726,-1.9358390409734056,0.9351885920904404,-3.94591364301954,3.950169340926492,1.4729886710528464,6.079588297878104,2.97421303604915,5.4290673581724604,-0.8610710047099701,13.189671378915364,11.83651682595314
3.455396271470136,2.2056683643269115,1.8061473194156397,-4.320680572771835,4.299031011419691,-4.065012769754426,1.8531994139110517,-1.328084468325256,1.6437597561916846,0.4949431359781329,2.4915633549719587,-6.591142333639823,8.490176901208429,4.420443789576325
3.159906164684571,1.3393299602159026,5.549458571896575,-2.1321529627227847,5.724741230026324,-2.684894955312282,-2.9437432669427075,-4.855483452499652,-2.4780247597310563,0.6058145951137703,1.6114216559478791,-5.2898529603446605,3.9143401527163633,2.257358090186358
5.28700000436686,0.0365896069151599,10.186081629168012,4.213732521144948,8.346232268164217,1.325019317750456,-6.157786604441678,-6.581445170284468,-3.617143815287818,2.51856468921676,3.3171133522533864,1.7553521143563555,2.097054601273385,5.741912259298601
9.458683397688674,-0.0134371662802393,12.41782406949436,11.479149194602542,10.54982125968866,5.300808622351592,-4.7961508904517896,-5.915623928947438,-1.9749147015832025,3.3877466063318025,5.590209142003346,9.114511331608467,3.1154372115059914,10.98889984307266
14.041856584430889,0.6137140096675431,9.002334419009838,15.653975598821717,7.040114288749159,4.367029194278419,-2.562717503481476,-4.847212571866346,-0.3406741845017222,0.9083281726434508,5.614798263205557,11.37510043096654,4.709278092006571,13.238313147121744
16.5936731911288,1.478631509657492,4.083894610186607,14.544595198469096,3.220349463118457,1.870089489313953,0.367912773188519,-4.170923669558796,-1.4448300604431097,-4.540198905681564,2.2762452154365747,7.055174070191015,4.45041329139417,10.415177361293216
15.140675987235907,2.726691485106984,-2.8098908547771058,9.093038871458589,-1.327504556506694,-0.8758719837038751,2.4773958167994383,-4.773535995372159,-5.442268933717628,-10.165946488274756,-2.941032531874555,-0.724867634660086,1.8127989961187725,4.054162329753808
9.496613525706096,2.8804574900921205,-8.310464460548852,2.488302635220066,-6.231099314238726,-2.642931354811108,1.8432011068502443,-6.302808422604528,-9.866823404577415,-13.14354881968859,-7.356561224725681,-7.051547824157751,-1.6355177354831767,-2.577166058476564
1.540191665087832,1.7209344978137977,-8.312646425767749,-2.213874459855788,-7.076922556848581,-1.368806976216828,0.1329870012780961,-6.215859166346315,-11.950775128656232,-12.837876493126032,-9.319601716570332,-8.98858195627372,-3.845024372335388,-7.04703945945721
-5.836253501261126,0.3391800460796602,-8.454509569198375,-4.084720061967573,-7.640615741930496,-0.3609445849855278,-1.1516882517822642,-5.76309453813489,-10.94581257796699,-10.861818563316774,-9.228218433529491,-7.299014551688515,-4.061940198363345,-8.896980170579127
-10.270664345528871,-1.685483232139727,-8.413868532048678,-4.40251661362629,-8.998035116269456,-1.3510297454108178,-1.824163290521965,-5.5429744336714775,-8.283947209962776,-9.131277169306829,-8.684079325142875,-5.08499896282774,-3.218413388344516,-8.98675329822322
-10.825680428343048,-3.56668311979399,-7.195016199742486,-4.940453900574198,-8.203573093721648,-1.8142815246879165,-1.0793634342137457,-5.124120450909661,-5.752801385561497,-7.978352142553717,-8.846542411675614,-4.874330379770299,-2.7965824187455155,-8.234167736342101
-7.866842325995549,-5.167178604290385,-5.888847666210554,-6.112357813358813,-5.518974499812216,-0.9127869360609828,1.0828688942183111,-5.766791324328805,-3.81245616430283,-6.146099482225964,-9.507806496081116,-6.674137439025799,-3.339465931803033,-6.977647265129917
-2.515629901100283,-3.4992788256965577,-3.3326484106809096,-6.658254062492915,-1.87686751535158,1.0214630008904428,3.189657572615922,-4.96666853552279,-1.7711868512880071,-2.475350546478466,-9.499710712139404,-8.36608308922689,-3.944620392861111,-5.169955652023987
3.616342134478941,2.0242281019753,0.8449079588829213,-5.065929665530803,4.185705490593996,5.166936087501768,5.368515160597757,-2.151096395298915,0.6314785914032655,2.5461795815765527,-7.881369664290787,-7.790954583087341,-3.161077585675798,-2.838068211895916
8.426229038417773,4.404155145778795,3.3847791381715764,-1.3207094547478846,7.673738073875085,6.738808100989719,5.43057308765727,-0.0064168760814035,2.204183822280129,6.870922867016247,-4.916080015246052,-4.691785719622885,-0.5500695926020853,-0.3392509898314984
9.656008918246812,4.100035698425901,0.9182295395320044,2.6731224472642907,5.173703733062352,3.0056605333341544,2.10612048394036,0.5651843844745406,1.1290311912549669,8.368268003793446,-2.168127128893616,-1.0565839045685834,2.406119688797276,1.596904370540983
5.881586970979242,-0.461698809723833,-2.300711566786136,4.396426133348712,2.340662564001277,-0.0888425980570969,-1.0151848571641782,-0.3716738918450484,-3.11606229394647,6.23994931668085,-1.6267907998171722,0.2851055725967626,2.979911997422562,1.95228835931448
-2.3921871756959945,-11.11883913689165,-6.202326114592063,2.613610898853665,-2.3534686793096418,-4.383114771375993,-5.629500495891089,-2.7459624804386262,-8.681239070710717,1.351361428925088,-4.284100956397651,-2.2293253250123826,-0.7736611585782498,-0.2125649775349529
-12.52476122568197,-17.001892510159234,-9.468030708728277,-1.6964894842512308,-5.483010369662993,-7.092814742072431,-8.569526703969963,-4.426563792929311,-12.270967535087207,-4.327523887882023,-9.020165612714663,-7.529860607985256,-8.08197209296668,-4.989159822434658
-20.884300701206257,-18.46081644633532,-6.603009159538917,-6.038484728036281,-3.054530583862032,-4.212551846396051,-5.9587429619844645,-2.517697801629499,-11.387361182151608,-8.476904872584896,-12.765883355675784,-12.299664545074904,-15.328442865331908,-10.909208731321428
-24.741997953148086,-19.26487896116432,-2.912547727122168,-8.088432911368272,-1.4713867474578357,-2.8552306713777487,-2.7995738401590105,-0.0126435169647644,-6.115365823572745,-9.183309357913004,-12.30766052680093,-13.069097006047286,-18.272808553991126,-15.20794855087479
-23.667153995619174,-17.034735430053498,0.0748466150528623,-7.11770436513541,0.8767909808589712,-0.2730771717206041,3.882654164473703,2.453689580731707,0.8409946164038615,-5.879177309806494,-6.78917189139878,-8.755294719213964,-15.20272929637406,-15.452246400830802
-19.48780114934277,-14.137143069804209,3.561849676932528,-4.255674924046843,2.727991659375697,3.3270825307598715,10.143974795977806,5.006733388573898,5.799709086708447,-0.1088342090286005,1.0697266785044235,-1.7608890324659114,-8.499759868527804,-11.552997180916748
-14.885086755767476,-10.53296221510654,3.010026984778961,-1.5571203838816814,1.11315291790347,3.083600326075003,8.629074066732704,3.660720576145816,6.308856291393113,4.901723568364446,6.5134843059454965,3.526294864121212,-3.0746299141564464,-6.315480019940651
-11.63340215587786,-4.566212667413559,1.3983966551075713,-0.5756431241194946,0.7085057512184157,2.662908045166748,3.832472926253115,1.196865944626906,2.630622259651801,6.301008868127212,6.34912575873949,4.031437881366514,-2.6549157154596514,-3.5750067074108074
-9.728305479723929,3.4008981701497545,1.3836891870452337,-1.399981216774307,-0.1066971085961182,0.60643979211488,-5.029384423434674,-0.8896449261421729,-2.3344699916796685,3.967854795187918,1.7515359220138578,0.5263608248829996,-6.881932932924599,-5.160991005277651
-7.996540083576519,5.567367958926004,-0.1754170126467217,-2.8061966257373,-1.3363656481588946,-2.5818033938220357,-12.204054206830111,-2.883776633912881,-4.759590815604156,0.8740531779165224,-2.4429262797270326,-2.94602422703494,-11.69650499320096,-9.353662118812425
-5.645992714117995,1.3903418708435271,-1.6019070256149102,-3.421989076211588,-0.4525669207281159,-2.437360492790223,-9.32813424587132,-1.3874575873499055,-2.398535439722707,0.5965317631055029,-1.8141583954506189,-2.5940272186378763,-12.753620278201936,-12.434813228229814
-3.404842097624254,-3.4975409268683477,-2.117781891093584,-3.001387195800632,-0.3568308248328217,-0.2891882852923287,-1.715442740947254,1.8660465858721944,3.697646704411653,3.9729903601742222,3.5959077736418976,1.6125392941080463,-8.95517512890251,-12.084323355893432
-3.1426981443618587,-11.032791932940578,-5.033429856790877,-2.712802442009988,-0.502728924093838,2.295913953418062,6.852817394283085,4.053983951649483,9.69519618057673,8.166995357347531,9.079599276889397,5.738250199537049,-3.082029951847716,-9.46832638222233
-6.163415887946286,-15.825077118327432,-6.966998561535967,-4.099489634301648,-0.7811168037347447,3.3988943818033843,10.571471174042667,4.204811785143843,11.7108549496051,9.339971131619642,9.405081383220178,5.421635284629659,0.8628440378755613,-7.981781174279014
-11.68481719072796,-16.867707692535316,-6.208694012606761,-7.585439617066683,-3.364311190602893,1.2541350883941291,5.142323802654024,1.2254176751567585,8.816496112358994,6.482384475019362,3.630754829235059,0.0042179187874005,1.0263524303903893,-9.84212311564169
-17.078299856108913,-19.121302141733544,-6.894505356697343,-11.935016405925424,-6.777229431789842,-1.9975840340443327,-2.332566633094755,-1.8776513761863507,3.7465791034920137,2.514148060491897,-3.9880856001744673,-6.69067453071944,-1.2802566284995596,-13.890057717482907
-19.92141827870441,-21.098138399600646,-6.32273736147091,-15.265674751223774,-10.44097231757674,-3.521791039273092,-6.220411411234101,-2.4203553282153027,0.4658185864173294,1.317521927297438,-8.00486157070044,-9.80921030285095,-3.5770993239785955,-16.7914541750273
-20.09563681193009,-20.588776531524992,-5.111230180888342,-16.70799058405223,-11.709514754083852,-1.7563601077496216,-4.320622237832243,-0.8933909285901771,0.6222046751112913,3.5410547318890337,-6.926453399401893,-7.934688726588341,-4.943636330199126,-16.444731533082702
-19.867450634032863,-17.863612284950058,-7.346183663071417,-17.09110730443882,-9.786223853871274,1.6734329176836755,1.4800514308806092,1.230094433726372,2.169274082173615,5.506280342721965,-4.495265234409196,-4.289974199398017,-6.659158399344825,-14.189945979961252
-21.655034788082247,-15.74127625250952,-8.852049683870296,-17.925711330820235,-6.828636931052099,3.0556700777995696,4.272669980454149,-0.2053828481529077,1.561048316463456,2.61970968965349,-5.824842035361101,-3.53783693594292,-10.254354647941852,-13.600723085904036
-25.45839028742645,-13.977406426460186,-9.581428571815689,-19.64564398387948,-1.474912026953466,2.2585067804162096,2.1684188435096163,-5.143204357841647,-2.5386924266604467,-5.857214698486999,-12.173338402082608,-7.327320238226207,-15.21015174518196,-17.00617984951309
-28.43760743986553,-11.25991341950589,-10.672000511637272,-20.852520733407303,1.020161663221753,-0.078864921834188,-1.9611914773313668,-8.545356051367882,-7.689426225954605,-15.386474051987603,-19.486662360394178,-12.878015656795256,-18.87086930755082,-23.067972140467106
-27.18241226636863,-8.118101943521994,-7.8948604240936575,-19.35966598973731,1.0113966066692657,-2.061748280341358,-4.057517228122538,-8.016044294467244,-9.853973260255302,-19.676437261395836,-22.101568192719213,-15.783995515618171,-18.77411507295197,-27.661050312589325
-20.62047198202437,-1.2007984087187689,-3.347314938550817,-14.091039548518085,3.1705634505177445,-0.6292726512467275,-1.515028814288704,-3.501733641113014,-7.1821020751547735,-15.9902838122607,-17.93117504940392,-14.067305182440151,-15.043254768492716,-27.16223975903152
-10.850779183775757,9.914649199122596,0.6511921543953701,-6.104967253269479,2.5582745474189434,0.4849548173174262,2.280865225276369,2.4685853716708936,-1.654709011312633,-7.366482855293071,-10.13204740025887,-9.51236220006794,-10.371512639693862,-21.129410878518456
-1.1892004256928033,14.97135597904584,5.0632389598341,2.0962853905017766,3.1359640085657787,-0.1784211306565317,3.4082749576490574,5.3377238679123895,2.926856297069179,0.1562772151830813,-3.863134871650516,-5.298759553042004,-7.521790857475224,-12.14530497756286
6.587433937208203,14.071063036837314,8.382022246790338,8.227858760074696,5.7761329249066895,-1.0040958437522505,1.2373837968746284,3.919622482188226,4.413353261717674,2.575018994890541,-1.5322418614507285,-2.679867097077647,-6.713469892476837,-3.321437974961753
13.13465688894425,11.43518284375722,10.794422949794622,11.414363156974758,4.723842155044359,-2.9087034848454767,-2.3833840571159888,2.581024169729223,3.751118473998616,0.660491806817646,-1.123968433440126,-0.1330924084276716,-5.381300814998923,4.052637041803024
19.89799349985094,4.696228892889639,14.245471643514112,12.181729061452389,5.439579731355305,-1.7717504894629563,-3.033377652171693,3.970279805463816,3.254866998190039,-1.651996222732663,1.1196539807330057,4.403405500033642,-0.5684916863516207,10.69688539745448
26.848949710708467,4.405087545965015,16.520070634882625,11.698232721453564,6.99597274435108,1.8623143155978552,-0.2329468479728718,6.387985487096622,3.897200468103108,-1.171882258669939,6.662435923294112,10.77417755571784,8.17915388330755,17.58983307967324
32.0485942388415,11.48730178044783,15.239498898035793,11.129968207071984,5.581734001560903,3.100987522419282,2.0823165189283395,9.129375196513209,4.547960186233439,2.0859087380078734,13.272793829867624,16.23387484814336,17.97879492520383,24.29427361164474
33.49591586457308,19.051602368956257,13.082788417238044,11.427988182945086,6.231622949843175,2.6977636849545523,2.8301881800603934,9.938469445325806,3.699211680845849,5.698738270145896,17.332764060187912,17.796400848690098,24.6189286549768,29.10030497053711
31.336963960051577,29.76963153819081,9.437905306360143,13.224139353774802,6.684136553460141,-0.2463250183478469,0.7389653946349061,7.295650606401999,1.495990922965149,7.476991297140842,17.300257038365146,14.968355328327933,25.80551805772041,30.785050293157862
28.163253805835662,36.48291157072458,6.311640074281336,16.558146764396213,5.57434840123803,-3.39736469982513,-2.6410117333375336,4.091679145068905,-0.2272789751127391,7.207530418270778,14.957142404234643,10.309334393535837,22.985897187900093,30.113446659192164
27.058735352818644,38.0862869419203,7.492497069892492,20.684838014964924,8.586524287693189,-2.362017557063784,-2.701313184775534,1.7152302340551002,0.1345919751998963,6.174899560449518,13.501404230987248,7.390834573517196,20.15887611031951,29.4103763436616
29.200505316711656,38.24568618808885,8.767911524260882,24.387771707787635,12.02680960978346,0.6792903239511103,-0.09189809587991,0.3339678324486838,2.1926102301486026,5.420390272121495,14.522077372902489,7.99165908765741,20.46801550583899,30.42542324367301
33.0960820957327,34.8213995438775,9.784719482540428,26.718397088470027,14.188607430737257,3.799789908636741,3.138649040614787,-0.2279087418953806,3.7398506346494287,4.602843517709715,16.644853900260216,10.826129127569118,23.283381435083413,32.476109948222245
35.89916720373964,28.9907325184353,10.36168330575405,27.4999571958964,15.94721564663236,4.803513414525915,5.169738530567353,0.0775358510000996,2.5958131720890663,2.3977036724746768,16.845587787791743,12.695422255444129,24.34358052224005,32.76824928523865
35.46962765886752,20.63283868173865,7.978032544973867,27.07286505730586,11.63865391403358,2.387437081434511,4.457461010540339,0.2004793790479408,-1.632950070269544,-2.100641853603776,13.089341785019483,11.068472654386056,19.221444717806943,28.84307607016683
31.525373551380625,12.572964363430131,5.32107600922223,25.564812020731324,4.417978583178885,-0.3802133676140779,0.9822071848258844,-2.1128725953042213,-7.234273558908171,-8.194970221771769,6.08993707518178,6.126060289689121,7.53804509445834,21.06222414729325
25.30591841731756,5.265078186311581,2.749206846554608,22.5264696289334,-2.5851631859692112,-1.9613418030079812,-2.3583395635301057,-5.08574459241416,-11.452004701447263,-13.528751526222749,-1.0550232322427178,0.7416999648007447,-5.651687490420159,12.822908182624474
18.367385940892405,0.9704636079960078,-0.5858629475489029,17.386521550231024,-9.587923421179516,-2.3453964391768207,-3.903630887295704,-6.849246995976788,-11.99675007638838,-15.295658098328571,-4.953118480484989,-1.660197585309504,-12.901096722184136,8.085221515379558
11.507593063216206,0.9683789971703992,-3.8134025318325984,10.24824961475268,-12.757822390417273,-2.233453243203401,-4.690073965964378,-5.991262260555844,-8.227338546654252,-12.083723490944324,-4.229857331890457,0.1508366762853086,-9.827757206849157,8.163818362498304
4.467151204699718,-1.5281418382749563,-7.660098018079206,2.150678951183352,-14.81458033284722,-3.3173901754842183,-4.215022621572205,-0.9717772112681992,-1.637250800314206,-5.1801601564070126,-0.5056959216697692,4.002029605282672,1.2905110647319449,10.505355993888044
-3.471724887602548,-5.832383170755509,-12.388383649542194,-5.4790859147991,-18.359118303288756,-5.376989542042929,-4.821758691046455,5.68806347394749,4.637536785489502,1.802673317612431,2.681815337085652,5.810877953266896,12.850297774798335,10.634344986948063
-12.332563719275242,-6.019794798848318,-13.886085105228164,-11.561860066920984,-18.97756346685213,-4.980243644015445,-4.703839205026323,9.327238024070365,7.428456826715731,5.14400485166351,2.410305392247693,2.8561142752061386,17.361265169825884,5.852886713365862
-20.518680919888997,-2.935393280828917,-11.310720406496625,-15.552172950136026,-16.86360894335592,-1.2393178262253364,-1.7451026059528512,8.117368192611647,5.635697897423029,3.698829185028956,-1.35809231341689,-3.7226896216162544,12.789151707107637,-2.252819824015276
-25.046191731357297,1.469373305839185,-7.65018738496849,-17.109001748126687,-14.073115008033962,2.01488855196446,0.3468876860910661,3.609250457036344,1.2971850425997644,-0.1232324089057641,-5.549499505904876,-9.388469943737704,3.651058341808195,-8.638651223767937
-23.249352909489147,8.206518906387986,-0.7613075913695894,-15.961729911422324,-7.21650003289115,5.490237905857268,4.873128605822099,-0.7728137134905158,-1.654393298343081,-2.1914111442793995,-6.201675975457405,-9.50806797637469,-2.820284388606595,-8.52561057698989
-14.986605056246717,7.615546224213024,3.6729588074039015,-12.37303784610738,-2.4733194363351623,6.143934984805425,7.701152305749337,-1.0692494576224425,-0.4206216376681055,-0.0211814625238986,-1.5724335585542235,-2.9488358547367213,-2.193742950440864,-1.2327765043619578
-3.5098741137172382,-1.307440636529349,3.179874984891333,-7.659691200459662,-2.896522674596504,2.7094828419750194,5.092967454103615,2.9356196121366054,4.279489747214363,5.172747097695385,6.341662407025488,6.948574608896394,4.303673789715703,8.911069593850229
6.1365425051197775,-8.081501303356065,4.499060621507313,-3.873437521702975,-1.3835693920302403,2.5470159231387712,4.887698210657057,9.2134114503392,8.772017489125183,9.60916660582565,13.17453014151934,14.822185728359436,11.435572722718298,15.439874506781216
10.284837640829512,-14.865863174068696,4.015720101431352,-2.551128776483392,-1.552794626637391,2.1204016441849376,2.3063188042356777,14.050603130362834,9.699452794654448,10.278150107929282,15.354719498158868,17.14127204585568,14.23583158558258,14.313264879124992
8.905901810050388,-18.83070093185544,3.46708064381876,-3.5758977432707866,-1.959758769866443,0.4520966758459137,-1.820174423889552,13.687009573117288,7.070086697521383,7.457106780105882,12.4976094726736,14.363504920706776,11.319499545096727,6.698552256067568
5.0672227333580135,-18.02002293078301,5.887044049578959,-5.298052941606048,1.1042060730115122,-0.1970071948766212,-2.635310114936913,9.96059421738516,4.14291117717417,4.198321842377924,7.256428842049768,9.878016022433751,5.052231707250019,-2.12363392683608
2.106760264060932,-18.58715523135213,6.057869771645552,-5.8948326065927965,2.4162894083366964,-2.923766312792756,-4.853499185495671,5.505488047412664,4.195703767341895,3.485733782350099,3.112530282441922,6.968260011504234,-0.7497858906549517,-6.775677253892905
1.0593283813500778,-19.354794702900943,6.040420048195934,-4.727016151644285,3.330384595177746,-4.010358057186152,-5.291196353014943,1.6161748844375865,7.344792660649876,5.840089240629838,2.1221118239184027,6.496731941243404,-3.3184143211565043,-5.550054812443371
0.50002258759943,-17.839963942764623,5.76922831305234,-2.514733357708245,4.168404338266916,-2.201176081914712,-2.1657674694734537,-0.5840093026609628,10.562320093979396,9.397006295844074,4.176705390952663,7.017443848791061,-2.035357611833293,-1.1648902604645244
-1.4189995536856088,-14.753112499115645,2.754325673520661,-0.4124222080219812,2.872931917942516,-0.461320355763208,0.8753214945287892,-2.565619582689329,10.762987013912594,11.86605887731087,7.673608443704101,6.6714900746159,1.8006984393968128,1.7104831186103642
-4.982082077490286,-12.48654684245317,-0.6326518683307257,0.8928789876753456,1.161859921811324,0.5158176998593255,3.29057689026339,-5.849366090075843,7.683931839681776,12.137148558012642,10.475180772566638,4.785765209563348,5.700301126883502,-0.0606867494091538
-8.885959986456527,-10.940487622935024,-5.059496240305082,1.2097759326244493,-1.3877629172111767,-0.448244696165114,5.453166956302012,-9.90774472729808,3.624529428692213,10.208247523691568,10.482813108969932,1.810876818147953,6.852554795674763,-6.210183558418216
-11.890803950848014,-9.568602576937272,-8.413196366099564,0.3124905960039612,-2.697855032350962,-2.00948617432335,4.8519001684186245,-11.513847619429896,0.5821218719587335,6.25115544939047,6.14786612646833,-1.837594019067453,3.341961456564242,-13.784096344337136
-14.150519422748609,-8.962035419543872,-9.610941211646672,-2.1855200864317013,-2.886636998764984,-1.202421938106469,2.658749503109193,-11.106436926751163,-1.8743719608648064,0.43409825470561,-2.625109080295857,-6.396525013420472,-4.492862786542624,-19.41836209095324
-16.740904578660363,-5.50376106917163,-11.045119622743073,-6.196185414113145,-3.781047055153101,0.3494312972599949,0.6624507778592481,-12.520489491409329,-5.59276000626231,-6.230925100748131,-13.627819417993775,-12.024868506809362,-13.619002314842549,-21.34845275289897
-19.970108100515624,0.9993421745861096,-11.128327992557644,-10.49995646329129,-3.054434618619647,2.139981315955594,-3.5144498393902386,-14.35880540208452,-10.906662439540275,-11.434515773973374,-22.69706846709469,-17.64168832647473,-19.729168197946606,-20.0083062240223
-22.418693975390028,2.396420795046474,-10.9378471029627,-13.071921047208209,-3.239418104115936,3.116540855197456,-5.619316581393679,-15.2209394631759,-15.248761710557623,-12.739976282809216,-25.76133085966261,-20.916258106859104,-19.96548708523604,-17.255803180719468
-21.90360121802492,-1.0531265337376885,-9.573059063577077,-12.442692316825443,-3.63774820874338,1.345507640819669,-4.269700639969593,-13.18729311540524,-15.1246404050085,-9.63391030248009,-21.47018794497684,-19.830369882829103,-14.899410011884465,-14.98179759267839
-17.540418357983903,-4.7576437178462365,-5.770775361739563,-8.984772678721136,-1.6825954361001385,0.0737522465271129,-3.779626125625692,-5.534493787829214,-9.553708020878195,-4.312132429279977,-12.34444444715534,-14.47502350955122,-8.004720509233962,-13.928740764782576
-10.899871286962105,-10.375910995137934,-1.844463206082236,-4.894824668173548,-1.0272414463956154,-0.4056000854454699,-1.6554203765200513,4.588118676882646,-1.396347392654505,-0.0661694578873834,-3.276063966214153,-7.301622808241504,-2.97155703220983,-13.295482208204156
-5.0741265815844585,-11.249771648254637,1.4637335548499577,-2.7351535824412,-0.5002599822352228,-0.6259312766537164,0.4341009514171963,9.431839942044268,4.869702342321098,1.3764559126057208,1.6704397199071934,-1.434508914593522,-1.1820344260306612,-11.36113556865017
-2.4064681167063497,-6.338975820255259,2.2812926928611104,-3.6436690391150464,0.593656039599701,-0.1083038882677421,-0.3331138996820022,6.886230963060115,6.760980616503758,0.9864926602832044,1.7516735216236867,1.5224448918992692,-1.469938639003857,-6.861102849273081
-2.815125642458497,-4.7117675368838485,1.6657619190119062,-6.578395076279591,0.004237237801385,-0.2529839521800934,1.9030454990347767,1.7441727552477753,5.366980396556983,0.9748285808207128,-0.5079743116778559,2.302747692913272,-2.044017885192204,-0.2709290199072427
-4.059993285198004,-4.915389322417274,1.606079265459659,-9.087364588129034,0.1471689912863213,-0.6460572566792631,5.502001392896215,-3.172118942751613,3.673130045551545,2.330428362440003,-1.6819133673437676,2.827262695558474,-2.415661579738398,6.029080815492591
-3.6320900460675176,-3.748811335472943,1.3856499725778844,-8.947680930179644,1.7595918587164376,-0.6707704969822038,5.801487834177975,-4.239282236354134,3.554108154150612,3.8932965860768576,-0.1314362587528137,4.22586817238799,-3.409761405765664,9.085583158344091
-0.6927528936409715,-2.5519172151777973,1.9992788436918267,-5.520286725484745,3.2803692219623017,-0.2315844815802574,4.439894659247628,-1.4114163878699724,4.300743089057477,3.7605627601449214,2.98506286521625,5.766258109595341,-5.54409482841632,7.380848549981081
3.4253590738780417,0.6357746279658307,3.0812469255999924,-0.0264896081632599,5.582842091443937,0.5962351262586136,0.8758570132114336,1.090522976262959,3.711158388191919,1.3556776560614736,4.878786996679125,5.531665993363887,-7.8454637007590975,1.977163125650705
6.446286152050803,6.217349162699069,2.8572740368137843,5.285097637838511,8.712305851899693,1.2272782286256034,-4.650202994224731,0.4694556590235822,0.359689154023485,-2.032745113295036,3.348870356184179,2.2219239641620305,-8.603445539660967,-4.172421855860279
7.073372848591674,8.764451285979549,2.857037344375674,8.49640000984732,9.875795834580236,1.2529987012932795,-6.109549380463115,-2.385406702965363,-5.060212072341358,-4.594924801674878,-1.6028118804757412,-3.3981321681108625,-7.280792973356398,-8.204387830614166
6.052262087039651,8.436966877382957,3.5029244782163174,9.08671220317666,9.456859693454792,0.7626648252451328,-2.282281542855789,-3.842114918572357,-10.226495058648132,-5.5569195163258485,-7.754127995031595,-8.602910965793129,-5.352704592793181,-8.996164905099207
5.459831073770559,10.367605356932046,3.392701459527473,8.062386161166117,9.006240376041182,0.1806668099914909,1.4064455666798947,-5.870587818642965,-12.832616005537652,-5.3131637931762725,-12.111239681745325,-10.441608136482891,-4.919901056890154,-7.280941894460923
6.706214051800998,13.6704826048923,3.770103108706493,7.027111875667153,6.9136755348349945,-0.121658996959627,6.089286223570855,-5.984229931432001,-12.082952171621834,-4.364611948613977,-12.827214255217308,-7.955973133420954,-6.442983306529861,-4.517014425636177
8.900808286967965,11.819159597986925,2.74339880561412,6.786372610918811,4.887620489101165,-0.155535578343362,7.529008542059715,-3.34681275924024,-9.162033756894523,-2.6932033930139525,-10.353473329690845,-3.208103790908112,-8.107645871395967,-1.8531242640179928
9.145598613578173,5.084899552624778,-1.2218285927383468,6.54922618771527,3.283739630643074,-0.4133528203838883,1.5851658031859852,-4.688310842156247,-6.550337981977549,-0.4792093128489512,-7.046730936895607,-0.1327819508452634,-7.731147401764431,-0.080999827582751
4.807966400425599,-5.509819992714459,-5.674245986763869,4.504993208843146,0.285846841077353,-1.3065575895912405,-4.842219671224649,-5.3146930972535005,-6.61054830830701,0.8696267165967271,-5.469782287287835,-1.8340999806699545,-5.3487044975208775,-0.1129560862466902
-3.988947555687602,-21.577997041339582,-11.67979399769219,-0.5009470471074877,-2.8651806480160897,-3.122480660786986,-13.82944967208087,-6.332224754787446,-10.164621717229217,-0.8594832071833594,-6.618303083057498,-8.296097481679645,-3.670532907027273,-2.872184667151508
-13.890504903961286,-26.524381563041697,-14.546081849690273,-7.518546254142144,-3.891641148706711,-4.026331339729706,-18.05828084662195,-9.7394560691297,-15.843477379370457,-6.595069306673658,-9.430446293031691,-16.330681109621935,-5.63921156307179,-8.315975043160101
-20.51932830441981,-19.26122194903809,-11.885042501176123,-13.619559856455552,-1.554896215980256,-2.614514775182692,-10.203735126050187,-6.685307895340206,-20.68395125977611,-14.207534706968303,-11.891954982894127,-21.83795883958375,-11.323305202007605,-14.642994282183984
-21.651352145376244,-13.103024429824227,-8.789348501866051,-15.71013005420972,2.336213300614548,0.0145350163080282,-0.1013705401365916,-5.055420554046375,-21.7489055307436,-19.273578701499478,-12.644875544402671,-22.532677581360893,-17.234352301791375,-18.914821169966075
-18.616763224513672,-4.215213531198499,-2.631473242145034,-12.645561755179166,7.872935735986385,4.064838322728956,14.748082359963414,-4.52891144847245,-17.82963448605964,-18.28031183633569,-11.625481831336138,-18.958317088812016,-18.90916307073761,-18.951623247727213
-14.651996005211426,2.6642390480363263,1.7176002997805089,-5.919477881328916,11.322836454986394,6.0006571508351465,22.914306150177087,-0.3902451340484552,-10.137420682447477,-11.55747708413046,-9.360384987785949,-13.232926894373747,-14.490443991731578,-14.886506804060431
-11.695378889076103,5.54681458407529,1.8817322377689112,1.5747715357286791,9.755310644733289,3.577756998801549,14.4082419298784,-2.29741608496175,-1.5254926536653102,-3.148636794728972,-6.013014238905825,-7.015824771031937,-6.136649266105756,-8.881273964057463
-8.620912303273503,14.08405306061406,4.413046659259165,7.538783044482677,7.951745019661033,0.8057247120770091,5.599308633480161,0.1020689457396547,5.207431091645475,2.406634405327232,-1.456516669277519,-0.6884118978903686,1.8289108674945744,-3.240956060069521
-2.630709843002922,26.98155829685512,5.545337406266928,11.321865086532933,5.15768139957345,-2.3185458298512374,-5.998949515427443,6.843738738355535,8.76193983298326,3.4988643803561565,3.714297643123405,5.721748892251725,6.206901935639866,1.2638756130871514
7.43507348632377,30.65969896043199,5.873508817563312,13.409219454782164,2.6261931317876632,-3.4659080330726826,-13.2189542420198,7.882993446501969,9.628715715468685,2.0786924039782413,7.679476308513596,11.231587387909812,6.829141300179416,5.325255701829839
19.00725928058341,25.600523874825587,6.698764781946402,14.24687586256335,2.5053066514080258,-0.9283040392315188,-6.252395539174268,10.61443328684586,9.24706698679419,1.2486744089418806,8.5147425747858,13.935595322456296,5.844481385542913,9.564327282600434
27.03334061424304,19.714940713525163,4.652501411934491,13.7180473101701,1.347773239740358,0.0377441415828008,-2.3818139330193686,9.846706392733084,8.86296278717135,2.3877474055423527,6.180054663124789,12.594388856387512,5.5067597517652125,13.292921603650251
27.63845614617754,10.22033315662124,2.301005336141752,11.60100918540024,-0.1808060292002026,-0.3228417368999602,0.5046519919126888,5.078505959790477,8.954304729535833,4.471370959282341,3.24667610226526,8.18300314915544,6.531016420154597,14.912600151596228
21.052932923944603,4.630249184708488,0.8179608242950055,8.179746994457934,-1.83431376245874,-0.8936345015231951,3.626380953192892,4.853299134705529,9.418495530431256,5.771007924072412,3.097821833389741,3.621812797328193,8.102727237409475,13.50413891117858
11.327950857502874,4.37409805574024,-0.1692527497309508,4.158061282874927,-3.912480763850801,-1.7904735533202416,-0.0052973351996883,6.052599274399559,10.042685659270065,5.797174293766084,6.854097562234885,1.6455141717115709,9.01863653298871,9.917906252778586
3.266111626380832,-1.492719530458858,-0.3995162571632447,0.0594271095797651,-5.268217236278289,0.0950978849098854,-1.200000577702233,7.334485186139437,10.723438978008035,5.501024500056722,11.921142739946054,2.712878039523419,8.733934208368261,6.243084704733144
-0.6575781845857107,-11.300189620558507,-1.111788699116509,-3.9736356438855394,-7.098904789183976,3.594553477983611,-1.4973943666976914,8.590126460312234,11.385550095280475,5.8905372674672485,13.913022557978657,4.972025215604706,7.587442758874802,4.214334163222436
-0.9628127162089828,-14.23227635230934,-0.6722859548880035,-7.588344470522163,-7.695709275126862,5.001013279803085,-3.687556396172471,7.898989079438909,11.920014739815304,6.847210324980267,10.582903694660988,6.329884790140214,6.345520014035657,4.106766126101284
0.5003802157162482,-11.229989002319703,1.7708924245468762,-9.606907171376443,-6.3020715378180086,3.480552077375072,-3.0317807554863885,5.732426731554766,12.312156337452056,7.412392775327361,4.23764179098181,6.548930519382896,5.610309217695376,5.022312178127856
2.4363739922114984,-6.129417631605076,4.560634901456911,-8.457290377799083,-5.311001812010355,-0.2395028137632079,-1.3648640404612629,4.3912565854259205,12.743449744261817,7.007915411987532,0.1838717316796101,7.236929502765549,5.495053052454516,6.013732197772026
4.462878717095214,3.251160090862568,9.242164629337124,-3.6027953718045724,-2.568859118310709,-4.325247157662446,1.9701400813016796,4.610126225770503,13.403285697104844,6.097914490885121,2.2971744033119545,9.790879646787424,5.68020843200182,6.815879099075071
6.241644851119951,9.755766781732351,12.313807363676927,3.418189671215927,1.24207965294162,-5.240782174739655,6.00906655657635,5.092814602417163,14.150284162196773,5.644093891373046,9.583344868763906,13.556811577418571,5.800218175010816,7.646867641446809
6.996454585489422,12.771922293084693,11.637063266354536,9.664921165069192,3.309520339691223,-2.52708184213164,6.575405012127142,5.729419660417645,14.438915220500537,6.125731693219182,16.88364078953222,16.289449472588174,5.936126054055183,8.646705409683317
6.232731022315605,20.53457277595165,11.529370870190204,12.868571707771796,6.8386191325003685,0.3701100724156265,4.426513632580125,5.539490310233702,13.681420794268371,7.2293223455702975,19.18000853100348,16.50534635469111,6.80178471185474,9.754066282997442
4.691687938168425,31.6334588202789,9.98299583534791,13.062420149249508,11.703458608518323,2.223795092811092,0.8449145500352642,4.612029563091109,11.694211747291265,8.336567638600567,15.666761082649264,15.147763225741077,9.262455968492578,11.034010440692157
4.053813662510919,33.56325315693292,7.891995784255675,12.207199690647528,12.533123159133131,2.111644215536103,-2.26484494724003,4.176953237845052,8.745416619892147,8.995208762971869,9.989089628199128,14.583979271080633,13.338956267826376,12.753637253874489
5.343465262655883,26.5161135162566,7.427414424634251,12.182761472140715,11.538228196411476,0.2969100159111056,-2.371128046267048,3.485919262254671,5.185883322611776,8.793186091325286,6.618630534948434,15.841187019195608,17.50745139302078,14.82163511811739
7.697106076474945,15.814304988101943,5.277127400679197,13.11254865886958,10.806101885040484,-0.1127289481335175,-0.3297336145789725,3.2196560524266418,1.1506301807965649,7.053162089157674,6.851444471424017,17.06295163589761,19.171445099124934,16.18749999361765
8.98418769939251,-1.4603105195406427,2.3586963675760715,13.559715127554128,5.815835610543138,0.7768668457125978,0.1709852904118565,2.394514301964743,-3.293988773044536,3.142469421743119,8.053725636733809,15.033144352853986,16.31136128131122,15.145717944704613
7.847507813936623,-9.26094820741145,0.4350985984036598,12.206004514316176,2.8015529224353584,1.1404933886133564,-1.1042979585205075,0.2411376407334701,-7.767334448057756,-2.614642624161977,6.550794909478164,8.40281431754886,9.158768923372826,10.654995409189016
5.038160397689161,-6.097211344283768,-1.4395083163655968,9.178006908520874,3.4143414842517323,0.5983404021347993,-2.895382065214621,-0.5069380570780684,-11.533234538553586,-8.463173578279182,1.164697116735983,-0.6859395884264181,0.4143658131853271,3.5272264909233364
2.553022049652938,-4.985839176964023,-3.128531388423428,5.742349347422497,0.4360329651680474,-1.071425245508393,-5.31172605338901,-1.1154044114767794,-13.981742363345484,-12.081643896569927,-5.890764147942868,-8.31889397702993,-6.418842099347458,-3.791864869097825
1.4365424280825323,-2.0459750415470133,-4.307027041336052,2.911483181873866,-0.8836221335204087,-3.412126174227617,-4.76634412589173,-1.4085957425570863,-15.11360810977228,-12.331280555660737,-11.241790614083904,-12.14251505582758,-9.344392441327464,-8.831435075028153
0.6468206487682409,-1.3992379518057034,-5.331075232378884,0.5827243935575268,-1.7263497963213903,-3.79454250386029,-1.4182800996351568,-0.4576705722265263,-15.379900194513391,-10.27374786790703,-13.220605768685374,-12.92679842755328,-8.926052106512685,-10.665061879080874
-1.6717030069422307,-4.842193384997596,-5.942393845417255,-1.9316548724763545,-7.330483483327985,-1.761874503898706,1.2312937487573232,-1.164148458082961,-14.929618609229244,-8.277390179766272,-12.622053373975213,-12.913620642298394,-7.223929248496319,-10.028040178656004
-5.7967879571379655,-5.461286554173796,-6.047773886308987,-4.778080773059251,-11.485538294230196,0.2578095529228012,2.773860846657381,-2.9313574111323177,-13.11819761842527,-7.831819509522109,-11.035756577148751,-12.95442592139452,-5.654911933020831,-8.06309287885249
-9.590855501338536,-4.548100276171693,-5.545154845609299,-7.2808113334463265,-15.488843167683768,2.898813260132054,3.0131180822196484,-3.940360591489928,-9.0480876188547,-8.093599303061993,-8.877279098601836,-11.66389836887673,-3.823195282090612,-5.160205737202862
-10.408197662301625,-4.837363105655436,-5.260359704526865,-8.87374085419976,-20.83155141419792,4.24035909335005,1.983149171914016,-4.039175516275464,-2.8421850349315747,-6.671501923042424,-5.266577172306679,-7.491690817244059,-0.4414592175110456,-1.1246130166325408
-7.976749401712411,-5.488959322061162,-6.044555427697847,-10.05662315889573,-21.710651196566747,2.753191780991303,1.375543541044105,-3.0267097874729494,3.662196692185397,-2.05856514901183,0.2951932291740533,-1.2815311585000266,4.621083902898338,3.688422422536892
-5.179518409931468,-10.126893181808072,-6.307088439415338,-12.026406684423376,-21.58062366474544,1.5446030817867047,2.3059816758823337,-1.033158952654708,7.850294595278484,4.567654025165055,6.477866067545136,3.7516566373507994,9.341213890797672,7.78892979067351
-5.55416479746707,-19.472191290434488,-6.535238155624384,-15.139416732910796,-22.59034767684857,-0.7808270601533307,2.361415867227807,0.0244944891395177,8.396930400910712,10.012626960001066,10.668231535121748,4.87112931703323,10.86517525324796,9.443068176610488
-9.705778799238573,-24.40150046823636,-7.621436498187552,-17.91871469322593,-21.56830329791973,-3.0368195847750483,0.992882185917361,-1.14021269671972,6.563617594926607,11.73427430516251,11.111503103722084,2.507604601951371,8.1041897136925,8.237816851447132
-14.21615466057148,-25.365706694881208,-7.349766023080146,-18.03761393569256,-21.614030123001385,-2.201095181976094,-0.4831108621017783,-2.853469441274965,5.198390263990662,10.052000081255386,8.497104360574506,-0.2078724533984086,3.0832658275165947,5.5999872103762645
-14.42297010650466,-19.780443359345885,-7.065266347918737,-14.645902316554606,-22.6406112237496,-1.3602889694117395,-2.3647500730010385,-2.681900583577372,6.043357617814628,7.748120231226752,5.323702436227604,-0.7074939420145228,-0.5073641528719186,3.5386472744466
-8.675573856501607,-5.108771624388762,-7.974818621797133,-9.701406946036917,-20.837763516714485,0.0089322283773597,-3.3358564665710166,-1.6126408895304796,7.869118336258714,7.366670828344549,3.612064164312578,0.4076403038587504,-0.4535762882068397,2.7663973962934385
-0.1081550838415488,0.5216037659096102,-6.283207035011586,-6.642209713267514,-18.05818974376559,1.8577508992021183,-2.117789668190899,-1.1700532416841702,7.507514734788465,8.77170034364427,3.207380999679522,0.2427794991939347,2.034622437950679,2.095874037472841
5.7683696939181175,-2.603546393936023,-4.089095270629282,-7.353822965516397,-14.720600611110273,1.3917965805587222,-0.2660911251441478,-0.7253765937625817,3.108608058337106,9.329628504447316,2.297552141642413,-2.976056488258044,3.485107996031134,-0.2457515145380782
5.481425724377777,-8.264571771389656,-2.9507204796681927,-10.294461532370736,-8.604296526007781,0.4835478020748034,0.8053339399007722,-4.073701729350936,-3.48529478869858,6.544173199788666,-0.4884541581828241,-7.6817786545953215,1.414102646310342,-4.689870296613222
0.1272245699169598,-20.63067976193108,1.2232801040782573,-11.720544319943528,-1.8057093484002955,0.2453807639833681,2.4626773402462465,-7.96095723329918,-7.824568927168958,0.5806549530768716,-4.594252606539998,-10.396705293985312,-3.407568653637359,-9.704432058199169
-5.93251646210968,-22.29671999451676,2.7715229593423545,-8.980104139223727,2.6113157478895777,-0.1115262230767039,3.197049406461476,-7.388479117281598,-6.687518353922811,-5.739862254303634,-8.11252474048511,-9.309809510482012,-7.808664219326214,-13.06089197213408
-8.678070994303782,-12.089769178463197,0.7174837253353196,-2.815922212087006,6.853407894115527,-0.3691407666810161,1.9504409617191996,-7.080576270120282,-1.1173730267663284,-9.38462198139532,-9.687268086748496,-6.202523036137613,-9.27013811789929,-13.717460259693327
-7.15123067976216,-4.676743584591861,0.624315821865693,3.3781312729582016,11.35348251039966,0.314152639710024,1.5039158432999458,-4.9736262729069605,4.295996353311537,-9.57874328220645,-9.711177172513516,-4.743654178292487,-8.140580035539138,-12.544609104665268
-3.385653346374044,3.7960847542971754,-2.538114630773169,6.464740959884527,13.801179869170488,0.1722219407114886,-0.4300505688802252,-2.938680629097007,5.277316295335729,-8.044255708375358,-9.678446369251404,-6.996532633169155,-6.929689909459081,-11.34572570993934
-0.2780319384631546,4.076086337783766,-5.368472877080328,5.835912618831761,16.141540393618953,-0.7745818293253685,-3.087323270471729,-4.8619875698384245,1.2778560593326658,-7.085096604598285,-10.558907631649314,-11.661664087754808,-7.621792803012213,-11.253642358682646
0.5361459263495623,-6.65478621862428,-4.063901267448431,3.2266341527602598,16.698988712678325,-0.6038037652455095,-3.2741329305350773,-5.035991018978743,-4.563058850821641,-7.580162346985984,-11.944844212274644,-15.526141510892312,-9.832167681165142,-11.986359052369316
-0.6702522930556762,-13.112155457117751,-4.933285948963264,0.7497054754318826,13.906204343456269,-0.7692315367649053,-3.432410172968134,-4.541514100286145,-8.501948572927354,-8.702525286469642,-12.700638809531672,-16.328694726986143,-11.565249473769784,-12.44405566366886
-2.533999228412236,-17.750272210078826,-5.221292018837785,-0.7275565479784805,10.73961533404562,-0.4401846846090345,-2.9863125958351544,-4.171153132672201,-9.186739832366609,-9.210884325458768,-12.199880788651395,-14.240801214438982,-11.472975973286518,-11.863097264575982
-3.9332439069165614,-19.095522545374656,-4.093588658687152,-1.6251946628077507,8.685414437115542,0.5991277303928004,-1.278315659829195,-2.6183373124545937,-7.988081939595154,-8.724796971919613,-10.815052637946458,-11.038375698132487,-10.094059383227272,-10.429501595103542
-4.828658733830005,-14.2347293795024,-4.678897776787885,-2.66529772962793,7.793065413505778,0.8699467528309522,-0.4860538544505932,-2.6393409032026804,-6.978698492407545,-7.801380072236036,-9.352372241987007,-8.318670511785397,-8.908793824174388,-8.936635374482726
-6.054959434001336,-13.790476350357862,-4.056125815111586,-4.127812494970698,7.211331267628088,0.7057983038824996,0.5547495800005215,-2.862056149576324,-6.938885780064201,-7.106169046663914,-8.258793332276156,-6.501439907182055,-8.543895029956047,-7.983549223298692
-8.249141693094852,-16.893880938903415,-2.51570321621763,-5.843988097026416,6.658050194914698,0.3009354633022534,3.386374089018533,-2.025524814181067,-7.1798336777470695,-6.768547103976935,-7.422108303626543,-5.027763138280292,-8.253991054473456,-7.463699384219641
-10.815041009579051,-16.275548864153755,-1.2714086328218774,-7.478619498648403,5.552550871342159,-0.0761249193457775,5.04553631329188,-1.1417570931550765,-6.815871261251021,-6.488491791697301,-6.528238375229243,-3.049605294114184,-7.148093053692192,-6.723696557312591
-11.958955145563746,-13.539807492457651,1.277941544044869,-8.594056277847033,4.132443433157078,-0.3851983908075999,4.239037053737586,-0.6102522762746622,-5.825016182957407,-5.999754179548843,-5.381389600429092,0.0262755468039195,-5.559000416077335,-5.1484277689930265
-10.010968889375183,-6.9773479803919525,4.245439679603972,-8.637392092704083,3.4506202693504133,-0.6836200590714706,2.554189902179864,-0.4867537489010888,-4.893138782915351,-5.25500134627652,-3.899453215093992,4.195409256492863,-4.870972964084496,-2.6768155243748044
-4.996184225708458,4.75351585939263,7.507945332939318,-7.234422674271085,2.870350292735417,-1.1257507496628385,-1.6232119338718414,-0.7981813246724805,-4.5330513290136,-4.284802692750498,-2.0390582331039138,8.687209254101273,-5.97520493593957,0.1230534961770164
1.094069095627998,11.228635632678476,10.258801594657422,-4.624023137998579,2.6392058220333574,-1.273541682103405,-4.685998432536738,-0.9440913047368322,-4.575950302980191,-3.0796761105756847,0.1008391844825791,12.232548871168966,-8.13001729760898,2.456868892117612
5.769289449495829,12.546310490216124,10.644756890549806,-1.662728424192096,3.4681647077493447,-0.6962532314417096,-2.83850024407241,0.0983166393013063,-4.472366065527437,-1.6854882979343715,2.16716247125948,13.847045748078395,-9.492604157653926,3.8630328328638255
7.967938966957317,14.574937598069331,10.502072770655513,0.8087851193521569,4.731296753648305,0.1047816691960908,-1.031847410378716,1.1144171091551665,-3.893791914281479,-0.2891304879968865,3.736191779150476,13.581775135896644,-8.709214946645469,4.505407570551443
8.637637695036396,15.109912841305643,9.95284726948866,2.658111419129485,6.547450655025292,1.0724505096412495,0.913507471305574,1.5042725140415554,-2.949778810681484,0.9235371974749088,4.699300984042496,12.47821011275725,-5.895608980061994,4.981322734563434
9.500204439682353,17.363821913316315,9.136365965505544,4.45395331228179,7.927232020639112,1.326759707164362,2.340550566153598,1.699932102573556,-1.9192863048114936,1.9808843340395583,5.393505060946514,11.675437562945302,-2.18487554442126,5.812132399374833
11.35327468083034,22.06197144406102,9.592415502343224,6.73924512999945,8.128312042464112,0.7468516676680551,0.3483295851884743,1.41043185350859,-0.9297066424411292,3.08800996010372,6.258017024348432,11.522592657443871,1.401913261383804,7.0475412400303625
13.587793180291662,24.975226912387733,9.869406251846096,9.370397220779845,8.310386853296912,0.7413794138991705,-0.8644572113868418,1.2876560677491296,0.0539844712582233,4.335623960261376,7.370233532208234,11.545448944013453,4.517495092160422,8.306104439309504
15.148073809267412,26.88241816514305,9.368751222010472,11.618808374607944,8.186591422765053,0.9079104729608816,-0.7665518590952859,1.5383784123935351,1.0231613082467277,5.513276191479103,8.382364679121583,11.170833758368351,7.162513717674141,9.16542260128028
15.653232792575537,27.279467144842048,8.899454553488471,12.860326388196892,7.986447104264705,0.8048571320396446,-0.7536498836710864,1.7666598885586529,1.836095583502125,6.280798925646207,8.904969227791621,10.337771892346453,9.183413792546489,9.50139012843692
15.494810200646,25.40477692288312,8.359032105708415,13.07340156605808,7.74095397809515,0.3802744078890141,-0.1921702805499353,1.9964339331690104,2.366939671472039,6.502654697081274,8.874307445717086,9.395254218261163,10.278622032201396,9.47270481338938
15.110133639060978,22.883802422006525,7.707239519619913,12.691303899883582,6.718282246744449,-0.7384401047000593,0.0728380814908817,2.204086363030109,2.677854092087003,6.3538072424838905,8.52274822173242,8.580820201560527,10.392712539604371,9.253899616098312
