AF3,F7,F3,FC5,T7,P7,O1,O2,P8,T8,FC6,F4,F8,AF4
-9.743884279242742,-15.094798375721496,-4.81546995205696,-2.3904189363046164,-2.770766887303367,-2.6118583678094365,-5.828611486523112,0.6834336245305686,-4.824350110490949,-8.522573958535569,-6.081838585372743,-1.581798277406435,3.19550949622596,-21.42341166665176
-3.085250906386186,-15.804035701007102,-3.1478521216956827,-2.7978191473456264,-2.458371713661983,0.535240044456192,-3.5082810519469056,4.5409799693729695,-3.097332211373809,-7.039810670694558,-5.5288609469169385,-1.548999134265762,4.225978338287501,-24.757915598371508
7.654742334283797,-15.553933519790776,-0.961590757503244,-2.5825119054711534,-1.529185609958637,3.8239427567894095,-0.9047183699067992,3.93073575918562,-0.5822087314353998,-4.73695259234231,-4.884680697311762,-6.672489788290708,1.8213565256628392,-23.63737043952885
14.691709965544876,-14.994552376747574,-1.6104514230275284,-3.260836019264284,-1.3062516494983492,5.380011940249979,1.9572494831774527,-1.389654508700911,-0.3757039704160047,-4.358516079327532,-5.562985330647889,-8.01764495335305,-2.103218238986134,-17.34403757297681
5.951416100135111,-13.852716869722515,-6.260591930368978,-4.755667635494083,-1.8301151882381963,3.119688568900413,4.937944044629457,-8.064459913674781,-3.0757833158293573,-6.64003117070665,-8.155374102598836,-8.602636075055369,-5.4674223316314325,-9.83326618805511
3.495572392264563,-14.158446982581015,-10.243555794156055,-7.142961116805439,-3.540817106286361,-0.0714082617846539,6.9891274114484006,-11.709377364733182,-5.7527859449829455,-9.07586961287167,-10.677361033208175,-12.733219415845312,-7.728602229620105,-6.762350320351118
-1.6054767840700168,-16.13758267220682,-14.602056940188048,-10.8040551737667,-6.864205717054338,-3.468968864365116,6.847288355984777,-10.5348392041389,-9.277347304964737,-12.542400188016057,-13.6184722952101,-12.750128331177487,-9.67958700962713,-11.011583244750422
-7.362897605070154,-17.22258479120761,-15.714460661220588,-12.090765849600954,-8.129163097548094,-5.2834081631345216,4.518425301554416,-6.716723702321088,-10.381909346709472,-13.548124723020182,-14.360732893726343,-11.91331597222891,-11.783131843023604,-20.410901546710164
-2.2985855910978765,-17.835309155366232,-12.545723034421096,-10.86284556748491,-7.326091122078999,-3.840255646454521,1.699966621611889,-4.176734451372624,-8.431736413542437,-11.563895939198783,-12.383961768025616,-11.02883473392098,-13.009791691523212,-29.220920611111456
-3.806803533328727,-15.993700813466411,-8.975671643469155,-8.385184538892698,-5.161866049652891,-1.7286545230560768,0.3507507501717555,-4.834416644971849,-6.79460862978859,-8.42685742044907,-9.671543923286409,-5.696574874718184,-11.584351648604176,-31.89127732979477
-4.35421039897747,-11.02393161230439,-3.844586950560565,-3.701359060499368,-0.6927497309182103,0.5192390770213885,0.7532244118372375,-6.913872439241072,-4.577895896662868,-3.0844447129479726,-5.418515599325429,-0.406856741943245,-6.975927437096448,-26.32732297812099
-1.3101657046623174,-7.61746041594855,-1.924100796279394,-1.0366051135903538,1.2572758956127985,2.0753450178957054,1.1768204419796824,-6.930673643253417,-3.3386268847068203,-0.3397784382457394,-3.285979678773681,1.0868369849031148,-1.03666085680252,-14.809729241039438
-3.533729801838241,-5.335851977665221,-4.085531027302842,-0.6290006478561504,0.5319124850924776,1.4114268081683266,-0.3177854412293293,-3.3892222684590863,-3.6442298243620574,-0.5783492091777628,-3.724559629021852,-0.6958745694828933,3.0811659913844025,-2.4507052490760017
0.1150641356840691,-4.409464268613985,-6.527305772994156,-0.6984360510090534,-0.4598016469173618,0.0658348961925666,-3.6893228963696094,1.463804614785829,-4.192740614994961,-1.889796842811824,-5.2379118093518695,-4.078982182448499,3.40063052139482,5.719489392653017
2.7642857101675755,-5.898016910752101,-10.641283850601242,-2.3396436047034395,-2.869893357833145,-1.0764120891992637,-6.626713115699676,3.5803748260490806,-5.569821247865442,-5.597331254399325,-8.919793689996158,-9.556958845340898,0.7064307680892092,7.496412724662122
1.4032797668136112,-4.797023277625613,-10.377134621134678,-2.105257605153777,-2.9461815129639413,-1.4152843201371033,-6.567164130060059,0.9107928845546772,-5.490554571724866,-6.507738125766853,-9.212608154921512,-11.098961164553842,-2.253569792274188,4.605913640487191
3.8380402277944254,-1.2402587534024987,-4.87875629347704,0.2239907498556125,-0.290374744138805,0.3038205671852328,-3.0668369037582472,-4.519965762907013,-3.714367303331139,-4.322569236936984,-5.768761459736767,-5.863941357213993,-3.177882493400265,1.380021303631942
4.109535578502412,2.84575437569794,1.2061195225756305,3.352159531535232,2.2504027307976533,3.549612436623564,1.798547537094393,-8.146437448553478,0.277872802761747,-1.1849668985643602,-0.1493023520768604,-0.8459248513506024,-1.9651175857699243,1.6505291371406372
9.064926825234174,8.542609349965476,9.521874588531546,8.188351680086585,5.61062776543631,6.95311139063528,5.316361659763565,-6.555984876095078,7.291324392196481,4.251738455816063,9.193233803268187,6.608907469453887,-0.2779682164403745,5.978195871553908
14.237644952783906,11.289127573492918,13.151731483307726,10.189747047086028,6.910910572858272,7.457521282085218,6.345617955452216,-0.1083105003533226,10.69591529793811,7.000349179307673,13.124653624983296,12.503862845626792,0.4487212596572973,11.409814066444511
9.26872288034621,10.685691683520195,11.05617895584299,9.053507347470116,5.6068670176103685,3.7880288214277247,5.727500808658963,7.542616645481049,10.425216081484988,6.727648314892843,11.16507876453337,11.4352813685659,0.4954000402738892,14.07121057128631
1.9423419301848532,10.959387964795932,10.190280850024005,7.6270548265124,4.611107741696489,-1.2789318986301537,4.800509404377328,12.291859621634142,8.618372584506131,6.928052436743208,8.187305504318438,11.289894319141046,1.4290531279763066,12.44864319958226
-14.32859492213062,11.086670638932857,8.81092183684217,4.797248431991435,3.147591126363998,-7.191369936761723,3.897647068804503,12.340119464040898,3.633424509574368,6.433066216136779,1.926099275353594,10.489365513324149,4.306914102926399,8.523057116182835
-25.97419937054973,11.962001893953971,9.216551374958772,4.224293802863566,2.6954752738801315,-9.547760244466875,2.504924115653358,8.928370254960914,2.3301091982659847,6.767703887213903,-0.2276759598185615,8.592680018478214,8.357859581421035,5.855186210677438
-17.89131239585314,14.261998636914504,12.554311426188823,6.4355220442317,3.757041309568332,-6.265320966113877,0.6950959127704408,4.969197904190517,5.075523795261724,8.38818457840019,2.5406865976419644,9.632212442403546,11.434349762185942,6.52085606685622
-6.796073492584558,14.746584574163606,13.512510478772878,7.724857714343468,3.970986747109848,-3.334574213292069,-0.1182830771686518,2.942162523832625,6.552669581501699,7.589556903290548,3.633622547256567,9.646429347477358,11.790275906098223,9.73352356589652
12.317160188306737,13.67217480445484,12.763733870183342,8.987928127704148,3.760280814463533,0.0101591013807524,1.6714032481044878,3.5367376539871715,8.273868640470333,4.625036168985015,4.8073653795318005,8.174349717751266,9.52487565388592,13.17702933402037
25.555762101345127,14.059313592423855,12.01282886012304,9.340470838702457,3.537037399203268,2.285424363789685,5.848584760702956,5.653551742194701,7.455979934768813,2.3489854477634857,4.645607941755904,7.333247044212184,6.413718047311982,15.400258954579709
15.457021103257784,15.48667222979115,10.380464089795032,8.186103750068725,2.945112980307412,0.9341375736505656,9.786666084917764,7.418182325907392,3.1992743007009388,0.1805005741963793,2.1895119477444576,6.52422434948133,4.350582409520629,16.79911339100508
4.965927620152386,17.468927564815154,8.977814025107968,7.551575095317592,3.08472422447874,0.914431747914194,10.331722193689163,7.410049419564813,1.1135882068418337,0.2393070007876427,1.2935388508208807,5.369316544862482,3.8224401235889953,18.418614376355958
-8.496171389504896,20.57559585401771,7.927291872253546,7.098319840935266,4.001149273262172,1.6143018708702002,6.643758081700778,5.413609066844802,0.5514458807494707,3.225251221123559,1.4907563001330373,4.403029859025587,3.709392200954441,20.11611698031728
-19.14700373404803,20.74227949951809,7.126936598652314,6.313315238564007,4.526431572168864,1.6943354960260164,1.2735021704126206,2.3965227188710907,0.6371074145818215,4.022953286135244,1.4337778224271105,4.094995761862882,2.4576753358383296,20.138970708249
-11.922065575396266,17.71980934849779,6.907566217761504,5.492206716102284,4.858662409474925,2.86891009227919,-1.7592876875587595,-0.1542153545837314,2.4446471004085355,3.0733854822700186,1.7555852904968536,3.279410560228351,-0.5074920337717552,16.541500312728303
-4.7602983415342415,14.42599467436749,6.681713953090128,4.304102496727875,4.5029589187887415,3.784396980007953,-0.3209450309455199,-1.1233867582087351,1.9791979952003236,0.0234979845968456,1.1704498956929932,2.383771364990167,-4.355398111867707,8.993113015522312
2.300815572572122,9.904237887505296,6.554594342521147,2.723962043008106,3.1955560658120623,4.126798108189045,4.003009346673688,-0.3963236342813391,-0.8334926813750451,-6.315423552813212,-0.4926979726381328,2.5636438202391365,-7.638892675256031,-0.66768679006588
9.574578815369732,7.421844064905099,5.525481085376597,1.3073203144591028,1.7997129002242789,3.456874024761212,7.205796963575106,1.1190702713562708,-1.6798297933207806,-8.40723870914935,-1.449282163862374,1.5083267152354496,-9.44042597208982,-9.380495210814953
7.5549492460484835,7.577213290627655,3.4016701732896677,0.0177845751554105,0.1240331204266341,1.1386759854348816,6.110475089077968,2.096785572169749,-1.230250604556175,-6.233033174338948,-1.9450126598872208,-0.1351802425990342,-9.838856390307145,-14.291157216392453
2.269264947527432,6.904751592290123,2.183677356680605,-1.4567766353794442,-1.1244320789071054,-1.663500831568794,0.7679216378240548,1.6594068031658713,0.3881540911546405,-2.9877299637667485,-2.112737685345451,-0.9339786739522152,-9.474202376131151,-13.748329645290765
-2.853817082831372,6.262272283566855,1.691413783174905,-3.014440964820944,-1.7518502972035257,-5.07358412544229,-5.877272251069245,-0.0727339714731134,3.987493567411778,3.071580933557353,-1.6131434566186311,-3.102095978014922,-8.88245677969705,-7.852745211133341
-6.098884035576763,6.089180188154358,0.2901399391187938,-3.548921110378433,-2.474229089897949,-5.913504896172917,-10.465630591281547,-2.1591612715895048,4.248359866609516,5.154607143441006,-1.586510500974536,-3.801733795866107,-8.326886063649908,1.201543830473474
-3.60377284386356,5.974554527224415,-1.7383696853215893,-2.97751603029738,-3.0650290881625994,-3.4274571872196,-11.55906330462616,-3.618520266116103,1.0198720535200925,2.660394774433991,-2.00528563529097,-2.2903542639666203,-8.092776819336498,9.416114641749878
3.2996535978426254,6.649314927577505,-5.981927924710387,-2.9108514300987407,-4.422083269298939,-2.2412209901717874,-10.026188182123,-4.168615753867944,-1.9205771708841988,0.9540424142614756,-2.37643537799537,-1.5464343698019838,-8.57984820939053,12.631578094234566
9.020917187731282,8.11715036442582,-12.91047885281232,-3.152281783547326,-6.700696430880381,-0.4914877808878953,-7.630110117975432,-4.278589821482383,-5.7262167696701205,-1.581057883787352,-2.938005261054665,0.989896769230464,-9.806548121165005,9.145825710463743
9.085115618372717,8.464218011042659,-14.22928923879668,-3.155041317173092,-6.334530736875274,0.6331023583168265,-5.461753083329825,-4.484842882555774,-6.975128814487347,-2.8507491636013294,-2.9125396809362094,2.419458272724612,-10.83936255451458,1.3249507535628249
3.259312562088972,7.681919773891504,-9.785388151273049,-3.1990526511277158,-3.2867058861246687,-0.5353078380603428,-3.604539735044524,-4.642610318292748,-4.91930724696376,-2.082952178635319,-2.216099772888641,0.7246908100854255,-10.0702637186146,-5.717856086702612
-3.5385553170978628,7.482399183123544,-3.687754976357694,-0.3307450021558891,0.970968782752467,1.0235214157685366,-1.9355972585322232,-3.922128298665564,-3.1745114716470115,-1.8847583126530836,-1.0303439202861495,0.0589898593981271,-6.531353089566287,-7.892356027298165
-7.554319156729784,7.499872123177831,6.0349194177628265,5.756790201816312,7.302085189068714,2.6401325112590164,-0.8715089977748356,-1.6978299819476046,-0.7786994606152079,-1.5706371469587042,0.8812118362437746,-1.887857888157173,-1.1947848221725437,-5.243421383584024
-6.983167453428866,7.293674893862946,9.160047166016954,8.478856734874467,9.820710190507976,2.403163696001646,-1.1637998313327822,1.4347097021808946,-0.0057332742139998,-1.2472133737108673,1.60982064244133,-3.563367349273071,3.1679188852382705,-1.4591680047703628
-2.699438442039639,7.09009443845542,4.613205251809688,8.149017638753701,8.002038346299955,2.4798619656758016,-3.023740903551511,3.5817978092145286,-1.5216440797944688,-1.2308686561442597,1.046750198413022,-2.6477442731858503,3.862326263317467,-0.1425412773372469
-0.2808071368410263,6.365695334545568,2.39184381151941,4.819532271393517,6.398184274529179,1.210826206518676,-5.574611295601688,2.785718317224035,-3.619576341967989,-2.203331534075929,0.3285343838854399,-2.590600153630616,0.4785708374679744,-1.495619557552157
0.4498861630856522,5.055122479107657,0.1330740643968053,-3.1598246659693263,3.565725323226244,0.4148731799021304,-7.223476866804579,-1.2477785140333155,-7.09780006381628,-4.413615098738886,-1.0148299012357844,-2.147143745286009,-4.54896841497766,-2.7363973565437387
1.1929757630323876,3.748804241100805,-0.5769684101390433,-6.166065572488786,2.3487293523265027,0.713262297458573,-6.608402457474471,-6.395949769650945,-7.939198514917803,-4.397316021041391,-0.3895519505746041,-1.5817467118747226,-7.710182666171391,-1.6917580340423672
1.4752284141959513,2.3337024666180017,1.834561299555853,-4.12076495777487,3.47050775936185,-0.0587039716385551,-3.3565406736510006,-9.235674833780156,-5.737026264871035,-2.1457974457176,2.517356344002087,-1.8010562749904326,-7.115108800229399,0.4182600247228967
2.205611254642087,0.8926369379086817,0.8973569578693539,-0.9030843253129353,3.8354000579206815,-0.6763284146093044,1.7362911703032164,-7.44708138760328,-2.249297251279781,2.0131247714792644,5.012977869076022,-1.5712840156929535,-3.8183754206740215,0.2026044137318905
1.974495511621976,-0.4675891410382002,-2.820942992484192,5.758020255015574,4.269326719263106,-2.2146973340145406,6.966799793709542,-1.7105076869400335,3.666040410261826,9.011760110913489,7.705182893756286,-1.5725343671324747,-0.679518940336056,-3.822768360227903
-0.522902694914931,-1.3907720669065025,-4.786630249798369,7.249547849507184,4.4518827579704485,-3.0303793647972856,10.236758658798676,4.521592233240989,5.712253561247907,10.855008862479636,7.937635563007473,-1.4033018296634925,0.1315670654225087,-8.762640954078728
-2.8119064984199027,-1.7612831920369163,-5.953393815868852,2.894790182633347,3.985348875770722,-1.1709173532708768,9.856690490850642,7.394228041204709,3.4177334630034317,7.160018141511614,5.042003949912072,-2.514695313189313,-1.2471144721174356,-9.526846237718868
-2.01588148529522,-3.113319967730169,-7.23780664476065,-1.086054673635017,3.179234579136301,-0.2650884697405149,5.554762651463395,5.4007317199959575,0.7175876295003679,2.7527934171756137,2.647516664275229,-4.366971178726312,-2.8922153801896497,-3.874906323464661
0.2147847719570141,-5.433940824970567,-7.979249216050423,-6.752187908630114,1.7866090974368638,1.1643257947750054,-0.9351060888519376,0.3540537468403832,-3.967293154086252,-4.289892538588559,0.0287983361006663,-5.470366440688913,-3.0009480240219557,4.717876814460496
2.444699672867774,-7.753323408187239,-9.304313932818989,-8.53748575906146,0.3590970445592475,1.83192869073367,-6.510661168782053,-4.154704519466582,-5.40120629518834,-6.470730977958423,-2.160045773072944,-8.060415717048459,-1.3252373229365912,9.549396112642334
3.06027151749298,-10.389646126850447,-11.253373827126484,-5.328347775594719,-1.1187596381983005,0.0613162281900688,-8.549748919929739,-5.482942746398645,-2.862821108908525,-2.777673176441623,-3.277283369475335,-9.241205156425243,0.9878250557909558,6.493566245575384
-0.505071399221882,-11.987744614368914,-11.206523984232842,-3.8041012363761793,-2.5091849871881418,0.2163438992151835,-6.700254333559939,-3.6261310905675233,-0.8448838910757068,-0.6467269601796763,-5.1230279275879695,-9.324975482646677,2.6535570698937674,-2.264507627258758
-3.175394399117987,-12.316738607985933,-9.203005623097631,-2.5492514093046887,-3.663312018551869,-0.1548052973355158,-3.035375614430215,-0.6791962914511513,1.9987670820155072,1.7502047361351447,-7.366303521470197,-11.81597717632089,3.2753109215042664,-10.05817504959405
-2.309409422056452,-13.809963539895422,-8.667422086853525,-3.0754136425280105,-4.727099602082653,-0.8051387199726855,-0.2939291907088273,1.1746458130893287,3.340626673210968,2.7278086954055434,-6.8008766653315895,-11.139561819289275,3.3715217810400464,-11.413647761746963
0.0357384049891478,-16.220401185908464,-9.241010448888256,-6.554775587100595,-5.592700227465941,0.3365884776333238,0.2737921423607972,1.3057480207598622,2.48078991133767,1.1142405668919872,-3.383794400047705,-9.329100299438522,3.732673660687516,-6.402159649167789
3.854874686207762,-18.292544456007448,-11.0478603456596,-8.636746797005207,-6.522385458841582,-0.1095900843099828,-0.4943455477809191,0.6923708178604597,2.060931789462948,1.906064997954634,-0.1913875978882881,-9.282822020436132,4.869811930988615,0.017868934130258
4.869347602376107,-20.42878248222625,-14.859342809960314,-9.901302911169006,-7.515770238451177,0.8881437598215877,-1.0339667900779743,0.7146246768002564,1.362295343407356,4.560209829060777,3.3995182189692006,-4.948589505219869,6.886143344897752,2.657609244955014
1.9892431779211808,-21.129624599183288,-15.40663649782818,-9.893596213721477,-7.647231284482896,2.663636020255641,-0.8002739155829843,1.9718350167812009,1.9203731562627584,6.602146459316791,5.14490772172434,-2.522408945611125,9.56808533281468,0.3996200412468078
-0.9551703471410128,-20.106393596966623,-12.605685365862724,-7.7301436038090525,-6.889941133363092,1.8054528040654807,-0.5213351707085483,4.048697089022939,4.192701060250428,8.81624384811825,4.307558768999153,-2.3908414546937697,12.474340511273876,-3.374683243677248
-2.2147579324599413,-21.17893598269596,-9.72257245313856,-5.801918120483566,-6.26205365940926,1.2373768109214294,-0.8442192375746371,6.098344828573698,6.661861391868258,9.915202789235376,5.14892941065589,1.3971617300588424,15.081228564896108,-4.0597340659180645
-1.318563989717714,-24.173341866641525,-5.60187886505696,-3.7501336866530295,-5.593195393631017,-1.5198399044585091,-1.1472746776695408,7.467445817821151,9.830616166571858,9.494201895395651,7.085887211180619,2.393721929115148,17.049511382570664,0.2836674807518846
0.2921887789593426,-30.36554472256976,-4.395984482918242,-5.253340264767941,-7.483263070312512,-4.626841161795391,-0.1323650192770915,7.848439077654701,10.8131542625329,8.62705557300957,7.773707240791762,3.454731556298112,18.379097215727604,7.406945725500035
0.4586349730214091,-40.84677884792658,-6.786365117165759,-11.116139499222848,-12.387296126723456,-3.714474831959077,2.3188130940979828,7.102431783016485,9.194230385394931,6.868100685782361,7.800893836185826,6.610846222254917,19.16351664469156,12.43602618640636
-1.528175789192766,-50.60754085254243,-8.13125586490215,-17.17238635490685,-16.47631715122127,-2.349175801553721,4.257186662483976,5.193297730279333,7.307669769048075,4.906813713999616,7.251308120233424,6.847433173739487,19.1261029819874,11.120290445119632
-4.389132731598493,-60.10476188826449,-9.454111910788589,-24.468339335195516,-20.337773766287967,0.491578631813913,3.1889064517553587,2.3869000736858914,4.36984607150179,2.8428230512292485,5.784153936756201,8.315060135904568,17.590688503024666,2.734460385126112
-5.193565067242679,-63.91644851001259,-9.760862566818606,-27.2871849251434,-21.84995079869243,3.056167289053572,-1.2116881018400592,-0.5737769848991281,3.0273922711532117,2.160018930256887,6.131933666855529,9.442076190873662,14.255212945404626,-8.930843892620338
-2.503554471444756,-60.38896152008695,-8.261136937658291,-24.504625931334136,-20.07549989990191,1.8035495682346907,-6.0663177515069,-2.671036336543203,3.741888421643624,3.2410216719739227,8.432154600634655,8.187137962802407,10.171990051374753,-17.204991030250877
0.5707530443954987,-55.94420449761512,-6.810362030704486,-22.956475188339045,-19.404606578525414,0.3107139228286318,-7.423545293035919,-3.171668278777161,4.411649251182286,5.052575808711882,10.55309860155138,7.943892916880365,7.7365695230834355,-16.339147311586125
4.161745128535595,-48.79894171126308,-4.916753284652362,-21.148345133190865,-19.18594048163318,-1.2609953834690746,-3.823452751392345,-2.116358480988272,5.790556286259164,8.127711300960524,13.105203301215646,5.929852306552183,9.156962908074746,-5.5014344641368496
6.404442346375923,-39.82764441997967,-1.9501471734528952,-17.79545059224555,-16.82320673037203,-1.8340127526382917,2.164010307969068,-0.3125101134120962,5.4539606045698505,9.042336664880844,12.92571786626272,4.210465655086937,14.405433893147205,9.881525781897349
4.161280033883107,-29.830073477984943,1.9502739420867368,-13.78058536328839,-12.86705220653094,0.3958980562208501,6.1363068211752285,1.1770357126603892,3.0134681701182475,7.475538782610371,9.445124882710775,4.240743017178027,20.525538519167178,21.107703738207917
1.4894814636365614,-18.83713178068252,5.058128883256124,-7.064262610832231,-7.858474038302875,2.4016928587387008,5.855989485540821,1.6321241641092763,-0.6643560348788341,3.884585872426345,4.614726968333106,2.61783567501162,23.280718472155115,22.032241839462703
-1.9985465917105625,-7.471596254839791,7.315869753154736,2.4893853668901498,-1.4083766914157323,4.245641532510614,3.235486121762957,0.9228225113227716,-6.357835376762616,-2.803226504983218,-2.549256020461828,2.016679826506232,20.09825059114363,13.548227388075045
-5.187301394094567,2.5026031707948984,9.59035231490071,8.36865999904065,2.163095950864149,4.39970150207142,2.3627148744387263,-0.6458443775627192,-9.387736319323643,-6.8930052984664965,-7.02925017072118,2.0931445991414,11.957435037764943,2.997597267706519
-5.18089310203974,10.50324773477742,11.446923073189383,10.51273994293835,2.4559721962371146,1.4219004586715465,5.447594730281905,-2.5893244932034496,-9.490912544884171,-8.296756059557028,-8.348269456747566,1.7993884609425568,2.630529975023467,-1.3531228812702754
-2.8342844553209243,23.763831512883836,14.486823145351366,14.276820122127576,4.482086311880863,-0.7753761798736041,10.579221964315051,-4.344496753951368,-8.52486645456622,-7.89356692364067,-9.635576886771917,3.232693871097297,-4.102592348564926,3.4582822322449305
-0.1985516676509557,42.17300479356503,18.867683363367185,18.35561564697973,7.334277734049226,-3.6155810843990377,13.409201545553806,-5.307304473377551,-5.252888767940332,-4.174323799067029,-9.577874449030888,4.801942262502168,-6.9786493621777534,13.050710401657422
1.161532121667593,53.792155148601786,20.671682781393077,21.93695739691803,10.216356113332646,-5.275109098394928,11.10446816940376,-5.05779603452196,-4.13011354597076,-3.310654619639628,-9.41289272960689,5.629277779170642,-7.597917721327143,19.318606928816266
1.9757453837204184,59.33283307959806,20.01498735804294,25.693395802924936,13.91758557666662,-3.120876141254892,4.837096828056902,-3.7364751392484594,-5.419140272355122,-5.319860129732747,-9.375569640522077,6.4709676390281805,-8.63506364591928,16.659778607379803
2.556906382026564,62.81047580968718,20.071704166815547,27.49620384644012,17.176688807394438,-2.034050840111088,-1.381908110074499,-2.144741020789896,-6.644827341237919,-8.246347442435288,-8.092149785127635,7.024648819490123,-11.638854917639026,5.963087109329776
6.291878860936045,61.68750525084882,20.142181884343444,27.221798293410156,20.048735692743588,0.1417637021163115,-4.212921298021271,-1.2269921584002796,-8.89599917296654,-13.56186695632353,-5.842286323700625,7.598457936792771,-16.14252698426366,-6.369413551441183
9.526804686101876,62.95669049092973,20.85589878406548,27.391687432462717,22.16553628951605,2.531681894184531,-3.504969398645427,-1.22993168426483,-8.954149110298792,-15.25109315616452,-4.954078434818073,7.787725329790196,-20.409616797812816,-13.160489293157465
7.013322222814796,67.0505501112912,22.77504177304876,27.62825853137239,23.202821415201296,1.8093456428763344,-1.735894709656205,-1.3611416705220898,-6.426203584307852,-12.986039038059335,-5.45180158487539,6.952778783528625,-22.83171519896799,-11.22720189523976
1.2325942494942017,65.81128509879574,21.125947970417773,26.581701070262323,21.88368442346567,1.674855303409305,-1.346736986972738,-0.4733373726652581,-3.6559444286155856,-10.88619256093985,-6.024194560203888,5.567979379687876,-22.8456048181014,-2.947937364377309
-10.535929885063425,60.492269965004944,15.882423726673071,24.5999039540685,17.79091926211484,0.8100833301906887,-2.7233604836363936,1.6931233269292734,0.1930250853387004,-7.56750253706886,-7.21657641694593,3.43815315289498,-21.00370937913625,5.967439255524435
-17.93800498502113,56.25498246111864,11.780480092670071,22.210864731534524,15.32166791528531,-0.7551461222098941,-4.52351530999776,3.8867258189538014,1.1336595944923575,-6.160563017005175,-8.019001069571754,1.266755760120044,-18.512367545451767,10.475575134029157
-12.109295894841054,52.07525456938976,7.978386918854805,19.271033615392763,14.31719900705069,-0.4922278650706954,-5.5001150704810255,4.107824971000301,-1.4073099734958905,-7.339639499950264,-8.271525885755137,-0.8408036090039906,-16.623504353715965,9.079067896367723
-2.8771572312107185,46.08916180517029,5.560956446660041,15.079298679432776,13.58819864390786,-0.3054458928572,-5.637979071481055,1.2626075360896405,-3.2954058292368007,-6.036306970056202,-8.361240853426478,-3.5852628290127866,-16.052776935679766,3.894502446462049
11.229802910786583,39.02739594035005,5.488144791384514,9.645852802095217,14.136961316915803,-0.1024227011016435,-5.5239505175069805,-3.70937112754049,-5.512844894484146,-2.928622970828953,-7.978326232510906,-6.4954472715318,-16.597158965516126,-1.6194679953757545
19.57789278861056,32.61132235788919,3.674759577564443,5.816767542288357,13.165323034341908,0.3763319659269714,-5.026979309019734,-8.30222154631524,-5.698610728256725,-1.4356079229873753,-7.312068802347404,-9.122256169697051,-17.256208839840085,-5.265744986770918
12.241159201818856,26.864479876618766,0.5136260865931188,3.6873763390765344,10.615721999743664,-0.0273908577848662,-3.147194931562744,-10.212660912277531,-3.035547087684149,-0.9040350015346916,-6.306564219851054,-10.68230376854208,-16.96793641116777,-7.148707832573965
2.758860050188984,22.35632485489827,-3.375817751701077,1.8827964112221904,8.082214469666699,-0.221248271740068,0.5491544899641658,-8.97993269703067,-2.2186262129332297,-2.4778555124609403,-6.217366108458587,-11.561428785036004,-15.499268992804978,-8.745268096445944
-8.858869404681565,19.67575740882628,-8.808471267701758,1.1153428629090971,4.956611474064349,0.0178781966378876,4.542132218770883,-6.164070999085725,-2.647418502696336,-6.893292182827435,-7.180714147152516,-12.370817132831029,-13.693578943961464,-11.163407066200966
-15.724043969953748,16.34923877115397,-11.282714917618003,0.3008095870739286,3.518682923646939,0.1833178241938972,5.950547426424352,-3.962692345436569,-3.009557220611136,-8.949609955500447,-7.840661953043893,-12.521963473430825,-12.73140922393392,-14.146594170201215
-9.676736581652811,12.618982446969628,-10.60798609191426,-0.647738545086046,4.101078935377113,0.5510741995604321,3.0481498914878755,-3.449940608613021,-4.107969543063136,-8.822480719597646,-8.485248726800503,-12.402374792661242,-13.018543447644548,-16.471242936619575
-3.26920145794875,10.176698114936494,-9.465859311407582,-0.2327522545556617,4.664591250107514,0.5946397153466729,-2.6317467240202004,-3.884430442749612,-3.253507350469357,-8.284455497423956,-7.296354363973933,-12.140071640362272,-13.78349439157823,-17.117213344815426
2.6227184841631788,8.667337780874382,-6.7973901860481725,1.3787229446642757,5.80107792262783,0.3978556023689719,-6.980276765144195,-3.596985190258426,-0.2312608028138933,-6.192012737753943,-3.876720147979938,-10.696177556360045,-13.841043551514698,-16.07658028389139
6.8332209523360845,6.1484498172769175,-5.614776137676003,1.3068944267170322,5.316140754358201,0.2573811628685051,-6.617671390371879,-1.6454632013813648,0.4445527220800117,-5.03749229869205,-2.6579024026002163,-9.526190474049892,-12.807781074411947,-14.201979607777291
4.468830893185144,2.7036639203028114,-6.368163324312311,-0.4235145744560529,2.7642871516980345,0.0950432049040986,-1.9347726666940108,1.1913988427069817,-0.8501472539650533,-4.9309451925125325,-3.372317140540497,-9.49317871992027,-11.537666728760136,-12.434398086449654
1.7939841454802758,-1.5303888859164638,-5.389735151694272,-2.0019550824965977,0.5889767906256967,0.2318806547729831,3.072620992273288,2.924304229486698,-4.040623165883812,-5.919597593769522,-6.477628184084762,-8.881688284286795,-11.2790984256299,-11.208027956283743
0.7415440224129265,-7.053595450095759,-3.3556100328735785,-4.044108088261078,-1.8011803286200787,0.3415476898759002,4.226735399830501,1.9419400495867276,-10.162197798371484,-8.718162310971206,-13.09415255811061,-8.476396663199914,-12.334129295081006,-10.469982542160269
-0.5259329125234544,-10.056694208675047,-1.8684307467531915,-5.144490431604745,-2.7136891959882266,0.0453928477955725,0.7828759059008839,-1.6322432555821118,-11.331227700870516,-8.916966401054797,-14.000720890622889,-7.534122063875784,-13.5351639014507,-10.0410923373368
-0.5554333186280198,-10.39049001814363,-0.4697929802727011,-5.000154277802944,-1.6461549766931878,-0.6452920671714348,-4.079637065410358,-5.898598629554434,-7.288442646403638,-6.488060377241112,-9.003311825552736,-4.603860327850909,-13.086089206084935,-9.741969343588629
0.7361094285374965,-9.443249382814004,0.6088265803476488,-5.52660732251806,-0.557238591833412,-1.8035514087378208,-6.274946843899217,-8.440644060604217,-1.8088483395378951,-1.9542336999055807,-2.2946433066535503,-1.5176413427798547,-10.013695698035406,-9.134321603057847
0.0607654619201037,-6.226377845049847,1.1240246519476476,-6.3819869293753415,1.0859237566708977,-3.093768665467375,-4.460287666957667,-7.865325374276527,7.032451806036564,5.851717268847578,8.341553114365063,2.038330079403108,-4.922565991849384,-7.388918766586145
-0.9195817780458664,-6.713328087433516,0.7749922448678492,-6.645039157161884,0.934170572023883,-2.907852628544645,-0.9937074844975644,-4.4986496248641785,11.159341108100248,9.518180566063998,13.00915132896976,4.584840009937633,0.5482119297741055,-3.8407598407598496
-1.2949218321408622,-11.338001069271582,-0.6519513426838328,-6.549777701999387,-1.4771463596352803,-0.8218152245963962,0.4546019493149926,0.1260796984139176,9.790513439700195,8.80248283381531,10.785419832817688,4.493187305950975,4.962092751743785,1.0174363852166928
-1.456837989414458,-15.25300201410252,-3.763594418010177,-6.062447497983202,-3.8796721056077743,0.9843750598214788,-1.774654234948697,4.43378696923149,8.927345100835062,8.879713877129575,9.579552680175173,4.31659987396527,7.890166498875612,5.199926183299507
1.8234772425830104,-19.838333832842967,-8.839908072779457,-5.038685467809083,-6.939906823284525,2.7042607280747784,-6.051625080527044,7.713323826722424,6.563255273852287,8.11713808806779,7.00314599813504,3.140316099810573,9.746076296735314,6.392100713471395
4.260553311011448,-22.53749767476773,-11.027849577625815,-5.25557218032557,-8.798061242427286,2.9515548103691174,-9.038036768427943,10.186711653605691,6.2099922044796365,8.782061903703806,6.840947451958945,2.353606982955582,11.089998042674862,3.990938337835768
2.9133651126676368,-22.53353445762418,-10.167741095625216,-6.814978564850732,-9.02739774893221,1.0537777644003374,-8.393098901318647,12.333422938532925,8.733465012770733,11.61832770683086,10.298286595713156,4.095171033303926,12.196952650360796,0.1390022996047188
0.3775283144362577,-23.766741397053423,-7.59299038324539,-7.360309660148676,-8.84925217493618,0.944884046017904,-4.284438276430308,14.092402491859442,10.192576304054668,10.957871385224102,12.16216276558606,4.919847115860721,13.161941851041703,-1.6152294052862268
-5.71001279126247,-25.522540870975742,-2.000235152593232,-7.199346777308384,-7.654506209872361,1.4771622224445062,1.13983220986404,14.64463200002023,11.56908887316802,7.20291579393444,13.53607924416555,5.784686017493642,14.13055380286816,0.7761463599951544
-8.990505776064992,-25.66602474154571,0.4450562166807992,-6.806830399886964,-6.868297942808201,1.6072079074617005,5.4060204438251365,13.037006215618623,11.364455602311605,5.226270055314448,14.201365288705704,7.062698613664704,15.202651355107584,5.962479322152932
-3.982613163209824,-24.63849743970781,-0.5153762226578875,-5.750270449237542,-6.61316097773155,1.4780353111902054,7.0974539486181705,9.187297917093003,8.917786694988415,4.201890953974983,13.356848342076487,5.757890429196419,16.13841169237278,10.249447931460995
0.4331025810087382,-25.10236932513896,-2.9847263809838136,-7.249615336159796,-7.766153786746218,-0.608481070968299,6.282388308849269,4.349425285751615,6.59672876576578,5.61600388739889,12.244687233308492,4.592598819473232,16.406978864861838,10.852097794610598
6.209461221478136,-26.951161703845067,-8.585958046336438,-11.5370702304413,-10.859505525090636,-2.900699718980026,4.127064210091834,0.4390402573366829,3.892525852029128,10.53694106706383,10.52517671825033,4.01128356156339,15.761162992445994,8.402607756029319
9.359422054784156,-32.01190176387787,-10.720856681059017,-14.566569114465802,-12.775143719901948,-3.377571211679665,2.0921316346984677,-1.3733392927665258,2.0198631172100687,11.915811659539129,8.718984707208666,2.355138560091956,14.760789691864812,6.341860144296448
3.4338055881809044,-41.17965281112538,-9.115267314722898,-16.938137718378037,-13.747526331313868,-1.9873229795273613,1.0656110518047597,-1.5748774648501014,1.4478909294823283,10.015606021743356,6.997823210206541,2.9886033917454515,14.473225890510292,7.708768841329578
-0.4607306772116144,-46.19159963642751,-6.873587490935542,-17.142287736677325,-13.063326914917004,0.1070638459447133,0.857313102504631,-1.7838891824716354,-0.6856426541458329,7.18983202881582,4.64885995293213,4.460038645910969,15.379426565089975,12.269075047413953
-4.416485258269789,-47.21573576528706,-2.3813016649333743,-14.240667088083372,-9.931969968067644,1.1163921951179427,0.4969069933806795,-3.1424375313770545,-4.090179201924332,1.9010017247901871,1.8271985331465488,4.512802201131668,16.555640015863954,16.588770873744107
-7.03193007756503,-46.23914782371199,-0.7867109011871789,-13.197906868693204,-9.16554447355784,0.4294101846729856,-0.7023857154960225,-5.1000974962214745,-4.7519792876826745,0.720000253300567,1.0633485073051765,6.694195614610041,16.244091204617064,16.93596355067821
-3.1294555939936197,-41.28368976507073,-2.5578292805383587,-13.593685175435654,-10.619003696103531,-0.7133154715446955,-2.158690661751085,-5.798090350223275,-2.8741422925080524,4.119109157112485,2.514021166695202,8.82314904570294,13.63659961781584,12.39756626016616
-1.5577680965194542,-40.00552640510993,-2.496637912886424,-14.640989534470563,-12.47676878866034,-0.9006931198737369,-2.207114324815435,-3.771009230716647,1.3113535101252665,6.774008344540413,5.749179019912952,9.87259989421014,10.232170994795384,5.55451730207542
0.7686750363733341,-42.630089601079625,-1.7060635520717486,-17.369671754062814,-15.7837919596096,1.049509136113687,0.3680817768074824,0.5911142460462786,8.804960601453995,10.179971118769616,11.531473783056732,13.807223332313573,9.123764918520008,0.3302855907601012
3.883812532803796,-37.38150994354857,-0.7699636617753001,-15.832027678942238,-15.225622963771496,3.586357545742424,4.719202034717371,5.155068785286046,11.345773976804136,10.752855223264856,13.670639322269352,14.682144037164004,12.367776074413996,-0.9625893128013984
3.265202270947853,-25.23461281517047,1.0602683763027132,-9.762932587506684,-10.33483875159924,3.671377636554966,7.973574625188263,7.587133832596024,8.579610336574499,7.50354289084042,11.850949739434412,11.94133011215318,18.647283667622855,1.1048721286024703
4.038288627830459,-11.335149011677215,-0.445557778325063,-4.081453407642575,-6.186178752713989,1.078026277723996,7.363502525061689,6.946972716754931,4.6154876025366605,5.281335835980271,8.280492530776023,10.67477674743196,23.627527840677867,4.2638877339967225
2.6981350551284686,6.526780635022589,-5.510551082609563,2.479650430288608,-1.59152002756441,-3.93231551266768,2.8191323931609205,4.102571506472544,-2.5987572191133985,3.083840369660125,1.303735491883814,5.689598938210236,23.1783820123784,6.780893650958619
-1.9024305747924213,13.64536682259152,-6.92524877709061,5.088410766830213,0.4956090662153684,-7.604164199661858,-2.4143278725795128,0.9298450283552508,-6.227295203204296,1.0804822986008638,-2.5214716200134872,2.2091964059481146,16.87376495469121,8.61205884819212
-4.441945335603097,8.27786043713856,-5.227944917017871,2.6014543647709143,-0.954334547864406,-6.150470558743336,-4.069846529695706,-0.8144704986844076,-5.599666056860624,0.0328740391531778,-2.858959199501621,3.3213729824409173,8.56412433000752,10.617253539544055
-5.180169133961704,10.615961213809962,-1.1298470925176107,3.566515264216237,0.5179261971200858,-1.3331894617918418,-0.3525873771379775,-0.1836266970735884,-3.670337752050929,-0.1864981711370245,-2.260559130706421,1.608799060059623,3.233885299372212,12.917280095279295
-3.605175831023114,17.717297235381068,7.002520865572994,6.913109446302842,4.215565604829157,5.013752569744078,6.389889617397902,2.761232364934312,1.4636272982611742,0.8450667842247206,0.967659552062316,1.7356202899924784,2.768867125347091,14.242764782843224
1.134790240807576,23.759658902202904,11.583857713363276,9.946727543708272,7.101802490526647,8.56740769340158,11.436560405898064,6.964196808532192,3.825647296220957,1.6790630314527022,1.862854416095885,2.615709631886965,4.443973333067772,13.02192509154595
4.799526508386061,32.053984898978854,12.540599692886934,14.126543972981414,10.232622696155849,6.214733614710491,11.517745843981825,10.59447840039211,3.087269223873274,2.406710707240896,0.1793715897826231,0.19660278916213,3.5850187830511158,9.113111893166971
4.240980274756289,30.39896855561701,14.083598594006528,15.02942399802493,10.713896984173235,1.3838413240884675,7.437326454545467,11.715441258687475,0.030697411633247,0.4639503159800239,-1.390308455522646,-0.040144115596183,-1.9760346159270876,4.352661541404984
4.226444615933135,17.65719878734383,14.550004983443896,12.226616431547336,7.965405724951256,-3.152867135462778,3.2404497655997204,9.307255915553858,-7.041185286811759,-4.7483173868343655,-4.024473978171397,-0.0442307134719515,-9.744515117943813,1.1953680536171731
3.2383733633858736,13.247576205960872,13.69509168243773,11.152158325329504,7.136429404905334,-5.0770764731391225,2.677695723274706,3.9692478010758574,-9.428973067562966,-6.238576464435655,-5.017011054805479,-2.3191576692973745,-14.69011370947539,0.600579135670241
0.2030480000342072,15.247178347586148,11.724042087201044,10.94624373055176,7.662163530732855,-3.1478442487317437,6.024023924478811,-2.370502138588113,-7.000661431161378,-4.344492086473478,-4.016817416841416,-3.636067245086612,-13.66983752646411,1.129354928705574
0.6358778621476573,17.591458824752472,7.832437977446335,10.237955228799782,8.230713940184904,0.1105994649943998,9.913015722793723,-7.614244604670642,-3.612225977549039,-0.973377761960888,-4.149973991329277,-5.32506230279724,-8.085533033443927,0.1820894227398994
-3.394960685247338,23.958731382566448,1.909307419647096,9.90161075968309,9.803814159364258,1.5497839370913014,10.200575679508647,-10.589289335887472,2.778882485958098,5.421070001094523,-4.832507019753563,-8.630548968074448,-2.475953977788965,-3.6110798106497857
-7.914470195670887,24.64537787989632,-0.5737747408316853,9.048478925984751,9.627802817908677,1.1980027443630563,5.362271766218138,-11.24705563120204,4.8236778419187605,6.937863044825961,-4.765389937635148,-8.532876312385234,-0.5594731887291449,-8.889544096061954
-5.224923294192548,18.959466383765506,0.6667076238808148,7.661317373763428,7.573473555820409,0.1559721737125233,-2.3418495928285994,-10.072076103749923,1.8542143988231008,3.0946656613231807,-4.343303488231724,-5.424901669808246,-2.4253008204395403,-12.297167767185456
-3.659945330471144,15.921142114549651,1.8849253595497557,7.217857841472085,6.494187686832773,-1.261405779522908,-8.69580724352966,-7.546393224111889,2.2098507093464503,2.129170949101146,-2.4864586069145247,-2.557585880237889,-5.17496007852399,-10.980929359273478
3.6281822346232167,13.50928369472567,4.3879735602302254,7.651091878949392,5.881144779110572,-0.3596440524643622,-10.67794166454511,-4.2442444135762205,4.3988544885654655,2.4672476546184887,1.0827352013268965,3.448238895625656,-5.947072889107485,-4.954981742228117
11.04141761003832,11.825079105864182,4.364416385175608,7.095514569749583,5.307149048911731,1.3887748638369692,-8.41096430470115,-1.2057623581579815,5.042842349368282,1.9200370997878056,0.4555688840702597,5.259642379754289,-4.288595243960131,2.515053423479209
7.804674978727677,12.226677117553963,1.1288712848859397,5.734948113557828,5.233139076694319,1.5240995152427173,-4.615686323042752,0.2048037111158311,5.2537160910069725,1.6548827617592636,-4.532851040896876,-0.3152481028446634,-1.9646770265620328,6.892898219916464
4.001855359711955,10.642279414548264,-2.123541242412743,3.88083425065392,3.4254203931510268,1.334381096406517,-2.3505789230917475,-0.8474234051285858,0.3977904307871308,-3.846596758376545,-9.330724547218942,-5.37045571390381,-1.014865661891541,5.336617646833451
-3.9145042047769407,7.362802048895014,-6.464717586040104,1.1432742636499011,-0.2263698860053337,-0.6049582452486904,-2.9873430465221684,-3.8681170256154473,-10.38478426020282,-15.17354257488796,-15.209587137421863,-14.42272280609603,-2.2769337404776344,-1.4846105513971324
-11.244364869697185,3.802599630123347,-9.14062659785321,-0.9804982490819316,-2.614009509928431,-2.235785320183008,-5.826084457650651,-7.210671576175311,-15.972056375507952,-20.62776904443262,-18.417103440341613,-20.591814443588238,-5.522021817055574,-10.00578505059853
-8.559465745628573,-0.8074503230852906,-9.613673719099522,-2.462854331114957,-4.086382118782261,-1.3705882277589814,-9.194692524514489,-9.245321089830082,-16.95931959940804,-20.83667846468758,-18.021972156502574,-19.109660716060084,-10.340181436777703,-16.2730847436495
-5.650001664678624,-5.157641324583827,-10.058856258697608,-4.725893025725939,-5.840594756931676,-0.872420755762402,-11.755305927046322,-9.50608301390946,-17.080607750365402,-19.81829134420288,-20.45138012484113,-19.994707120647377,-16.327162087937833,-18.424283004809965
-1.4561792688346515,-9.14137762173194,-9.66959520576991,-7.49784423979887,-7.331335834927565,-0.0489265428137884,-12.93730788358133,-8.781783887427137,-13.977013273136484,-15.08702196629334,-24.84081262598366,-18.23293521394224,-22.4224791973463,-17.398158179683136
3.245432230197272,-8.848282662080805,-8.938489266959253,-8.00691422055773,-7.8471417368659235,0.5059124678921224,-12.533424516409244,-8.137745967452737,-11.874806379406222,-13.014534866714468,-24.35177840659701,-15.573463759058304,-26.65217220448819,-15.650453918267392
2.2704265785174,-3.4827591849241144,-8.042093178223352,-6.210761340031039,-7.355890329359101,-0.3239003962441406,-10.332126630163868,-7.854655978818036,-10.939299773548097,-13.995924770517409,-19.548819329989907,-15.832737242707124,-27.203477011467832,-15.172679513149223
0.9344680792097456,2.318693103765731,-6.312750387268539,-3.231605493106537,-4.620234243730027,0.2520427302476584,-6.408924639178416,-7.249952972211103,-7.321101266680143,-12.098457855330366,-12.413950426290716,-11.935097427677547,-24.028067266703403,-16.365853571948158
-0.272059182222007,9.635272454626696,-3.883620203462018,1.6298325779947302,0.7303262731562018,1.3911577321732502,-1.72368137409331,-5.420272804739252,-1.7962243430705347,-8.611219433301375,-1.513585669471644,-7.459395591725965,-19.169422869727462,-18.290445679009448
-1.5358702040597685,12.020950035828822,-1.7983831596367534,3.8059512571750793,3.7689992528375686,1.8356214764297667,1.9119964031484769,-2.116198359119835,1.3351391253915936,-5.940915104240805,3.1660169811952388,-4.670292340577787,-15.13071526220956,-19.63163759039545
1.0262309199658066,8.162696633496903,-0.0610986673040531,2.9123233654511163,4.548815784951191,1.8722441569630028,2.906192629276612,1.9929702703617416,2.260834333432,-3.423124263528505,0.8321876965530263,-0.2209634268959839,-12.746915223330864,-19.43809674643681
6.374676240675413,6.136255072480327,2.628002711947855,3.3773966014083325,5.421781135003281,0.3379880615581129,1.246735024163348,5.709430400858945,2.472474768800884,-1.4253887149889304,1.1179346143453297,3.2286054310852608,-10.745613259414297,-17.30044994367728
12.916322196397244,4.264024179120302,6.101269505564793,4.187625429164986,5.29415398733866,-1.716396915172909,-1.1747815120663816,7.864075498124176,0.9878157757244668,-0.3415447093580154,1.825160396547617,6.207991927911267,-7.496361448252415,-13.268774801093947
14.753236064448616,2.639753973456772,7.407485865574344,3.73078073393927,5.368265601731673,-2.529694188915128,-1.860122468355879,7.655524415171605,0.0457177380329694,-0.0721507929589823,2.040172538414999,8.627075708739493,-3.0901460911555354,-7.835370516055935
7.868544296636873,2.523050766589217,6.511966209663347,2.488393465788145,5.806807652430585,-2.0887792907137235,0.2792020071439118,4.816268939761514,-0.2561869685903112,-0.904207708217636,3.083139815290223,6.03052060442483,0.5197925926769535,-1.9269821919346055
-2.0516239201420725,1.3616951952663705,4.562059061531759,-0.8634979257155934,5.149814171405813,0.2326166843576078,3.903352322045919,-0.1933267573293449,-1.185777055211629,-3.508382591113246,1.0343262081139937,1.337701430624772,1.5011196692470818,3.3191090562062016
-13.946033403809247,-0.4394723193862045,0.8198575114383295,-6.685770834998118,3.627021908791237,3.2547748389404214,6.215205533392165,-6.028616820533635,-2.234530090336229,-8.107593959426431,-4.114415308413577,-4.42467819970135,0.1051831594362404,6.976996720942797
-18.361166093744902,0.5487154928988365,-0.6270087452188522,-8.215420325627202,2.543494704486004,4.099260344046104,5.1998189812397655,-10.679879608542944,-1.6572371382599485,-8.818023769850399,-4.465151128661861,-7.548065871219843,-1.5345079356187767,8.66160465895031
-10.463298647412453,4.251565340704091,0.5418592994242803,-5.311672988458676,1.762210805937373,2.2548889834178065,1.265049202706404,-12.243172766964058,0.6643184712285347,-5.362661766714798,-0.2492626569465066,-3.115800579182316,-1.5536605059261817,8.561005563590648
-4.065113956823533,6.56553128183772,1.276406390790552,-2.081091880303396,0.1073945124915746,-1.5525424639939642,-3.085953553480394,-9.907851123479476,2.636613851251284,-0.4962706474559676,3.690791219224347,2.802681854605904,-0.1170801021955583,7.281966606567757
1.8187727648249876,8.006940672774396,2.559018665116908,3.0159308574349244,-2.243180954157843,-6.242083182901464,-5.216857774267883,-4.485850297285715,4.6249165272623545,7.29712783371959,8.94145967658924,10.2566731931347,1.0987788378291654,5.725490218199383
4.605499081518168,9.251554530870616,3.471767407438182,6.009336085766452,-2.5345342034348297,-7.54515259685145,-4.2571858046962845,1.964320082578688,6.096116234556954,10.748134299292726,12.054569424984647,15.06451978078574,1.0591128488213286,4.959763271070813
0.7808989224247154,9.50796178101803,3.638935838352989,6.222186650224493,-0.7180859005816623,-3.754039264894869,-1.4156843604922145,7.225064110342327,6.621375163679113,9.21249403263296,12.209905746033396,13.045140486849556,0.7059486593041804,5.843130025945424
2.418673561208224,11.86820397838423,4.003951782418056,7.878833129725111,2.94232133235467,0.989751331690712,1.356560284813817,10.011118929651513,8.497354156626459,7.718328859402705,13.772520478043573,11.53233419840423,1.9246203704441456,8.38364242600962
7.010682794769073,16.412642896539623,4.23713473349177,9.98430043185803,9.228834679993865,6.153801243691191,3.046249206503937,10.386992654263109,11.583010978578884,4.444708226476887,15.828871757988535,8.568391352836024,5.221377235332213,11.35134846423098
7.552168023561099,16.640498503275495,4.162918259139824,9.816523849611864,11.008957574309065,7.959008984218096,4.174087634894631,9.345132979275611,11.23642556876194,2.6011234041683227,14.852748487180005,5.813488715258529,8.6751259125069,12.802689919831202
4.752045341202737,12.76010948365152,3.822773999467611,7.682635860617557,7.922780556624911,3.782706416749021,5.952827009123983,7.953914845388189,7.524384674170239,2.8613315749173216,11.147864264644912,6.491398274885392,9.444339608886736,11.49519157086757
-2.28249864847252,8.205252066054644,3.4889877421973585,4.216090054029659,3.963244939174932,-0.0179957261802332,8.875571408958654,6.712577505146317,2.695945790877952,1.812591724640843,7.1662850326963685,5.08206963043517,6.4175904599320965,8.141134001706478
-11.154236569266368,1.6268896619809463,3.1487858568138987,-1.1526924579165327,-2.630283851804969,-3.6412103238394926,11.97110685639996,5.51232660916043,-4.288940999125571,0.305146253949445,2.301668020563069,3.444133297780478,1.3454763297778474,5.186740183405032
-12.192414795653152,0.2876669109206179,3.178708738099689,-2.919437047686681,-4.641608251823731,-5.234144490809928,13.32834208470367,4.102012508595729,-6.596476357567953,-0.2362827551222462,-0.1669387347865605,3.234560449235379,-2.7011333690171373,4.898049678221423
-4.939814021464752,5.139304847989914,3.688576995832296,-0.6504691750734158,-1.227698009444199,-2.424043761320618,11.466933717927065,2.5685472988672853,-3.4819595847492515,-0.1072097209648249,0.4545174450463982,2.362940301502877,-4.01661455603336,7.206633168184201
2.2146607302474752,8.72249898758574,4.591106171887131,1.7294885567673155,1.1514415477189406,-0.5621549034262519,6.509111898560232,1.367085044513198,-2.569897428845917,-0.1757666320363246,-1.3315806460397102,2.309834254314413,-3.4675164278946244,9.365161834497028
8.780317347505854,12.7890758578593,6.045066908052807,5.582841790908317,4.256533469436908,1.158726902443176,0.2772532688888596,0.8747841392375717,-2.3497170579726188,-0.2607720064666128,-4.80261661553607,3.289738791598428,-3.173155706338414,8.083010471233557
8.9055460226099,12.971493139041586,4.862509694192534,6.056032274108258,4.321088279309254,2.518608250587768,-4.754798951711294,0.934840032645602,-3.275079791760149,-0.8469523304580379,-6.078411275805385,2.352943874591032,-4.1792786381542175,2.479019926115644
2.6028853782450376,7.769005773539572,0.7863942009816627,2.344641248829317,0.1868410648563646,1.6859092604256465,-6.89279136195397,0.923635387462988,-6.63736512523939,-2.138176556294228,-5.858889560453119,-0.4315863116339968,-5.558741091528863,-4.858427122214849
1.7370172205036858,2.947215171793185,-4.189284886420068,-1.741684407679739,-2.135868540555708,1.686984932432884,-6.033207660163065,0.3702919139430563,-6.431843623890625,-1.966116383482291,-4.265101766619669,-2.969046129121139,-5.75157096294051,-9.892987815564108
2.710043651113112,-2.901880870196045,-10.893548255073329,-7.569493650698783,-3.665377675684749,1.5443422378824367,-3.4046012616911856,-0.4668301684457407,-2.834828189272645,-0.3516012826805832,-0.5861538118937029,-6.859289671268236,-4.550426411060688,-10.552559375671404
3.5156350202244115,-6.403325076231362,-14.374612322439171,-10.365485331132522,-4.291878703732995,0.4019799180587719,-0.6478627931643413,-0.7418123034511339,-0.9547848300702554,0.6283512538825434,0.4409468747821954,-9.256696781092616,-3.4742491322079108,-8.370026708645568
5.51107911852772,-6.4631839301687295,-14.047639385264972,-9.385224846668608,-2.9508251632007907,0.1318474132178052,0.9752455466272744,0.1096223833810281,0.2082441791356773,1.3474196057732697,-1.3321203054516442,-7.762234326930419,-4.041427667825181,-6.756124847222862
-0.155309925459828,-6.022776868831806,-13.958794076991492,-8.527152002647123,-2.8429361793936767,-0.5397748268440986,0.8473965315415484,1.5689084125115382,0.9324470609473982,1.545355243641057,-1.6015165054798328,-6.516152956951844,-5.79416412097121,-7.563323631754848
-6.360917840612243,-3.878250033054415,-12.838995791663033,-6.490789979864063,-3.706537288029567,-1.355404536633268,-1.027170609778473,2.18162491826852,0.3745291393859931,0.8244409225958799,-1.3059779994320386,-4.083272098376485,-6.34160631805619,-9.350165077124558
-6.601044525954069,-2.7119080398539004,-11.38462589704142,-5.243245379452122,-3.488143626073522,-0.9547282607669334,-3.978596785657389,0.6930024562820307,0.9275389393380794,1.1891524542640517,-1.1908198922821098,-2.2606067901796423,-3.662330113500007,-9.132697707983638
-6.127646232402393,-2.8886584960263164,-10.052564664890712,-5.305476746167075,-2.6767314241133477,-0.8338357196224101,-6.678314609147311,-2.7743530896360227,2.4809331847535647,2.563110508436578,-0.6667334932252642,-4.590339509290978,1.5303356821005654,-5.891014119542723
-4.271646576722645,-4.243947029582382,-8.661575643794352,-4.618552723548771,-1.8280654960795488,-1.4782710188601271,-7.638523558261383,-6.585560706182737,1.390279694639624,3.1297403377540367,-1.3615381347323037,-6.554380719277162,5.866781934900066,-2.193181745005645
-6.847841157186575,-7.666595231067457,-7.590698880887923,-3.760078764310768,-0.6897077794053729,-2.004977869143425,-6.215843057565028,-8.688243099236669,-2.1495729299685102,3.2029299227596346,-3.3591038244044022,-8.733447480343193,6.088237901821997,-2.037936851967838
-11.4968123997787,-8.643373178059463,-6.6362290603880965,-2.407910220805673,-0.2019734792341353,-2.149192108307912,-3.350256454153188,-8.05588001358559,-5.145111702054493,2.2942467725750237,-4.249096069415547,-10.6283430553156,2.071034953646449,-6.812727000957677
-9.468578385177883,-7.187241212801,-5.96351457133869,-0.3042648438665463,-0.4961927195327988,-1.5475518097661454,-1.1559721405340264,-5.356045275458515,-8.205287576566178,0.018946101803792,-4.261127711312153,-9.080545669129153,-2.7574700709288287,-13.35390463934688
-2.5157319944711385,-2.6200056393392144,-2.209244143967997,3.207512447858017,0.5133909227097846,0.5764238411705216,-1.4142109943145735,-2.445661890271221,-7.747415443354248,-0.3595918315279224,-3.910905473146911,-7.609941796944349,-4.164994078276211,-16.27993609434236
11.346877867818122,6.3468870298146856,4.918220631914222,8.405901367717853,2.7141979263230174,3.251430609407988,-4.133244033044092,-1.189775078294355,-2.900680767959966,1.15242347975032,-2.7096593010586187,-6.096712479924793,-0.6626658844263691,-12.668933466001668
20.472854690975137,8.976434674808011,8.689133409584425,10.992265735182958,3.729605113144901,3.9753766934858312,-7.435178951615319,-2.3972038982999546,0.2917122661387886,2.4749847553862123,-1.1998741882039154,-2.4097827034189,5.281065438260418,-4.747263650807248
15.785298875439192,5.088163088706174,9.51371703139788,10.879171067187531,3.8302798656716233,2.6656721977354514,-8.916010899471189,-5.350069232550135,2.682156799560976,4.28890047544366,0.6860333910969755,1.3675383022456642,9.413134191553649,2.014666832703563
9.483123314175518,-1.050310870407768,8.741504071084918,9.73463842656244,3.512654831977715,0.7248006519543835,-7.386120882433688,-8.03664080221499,2.65485690513274,4.113349940323901,2.347438747536691,6.170895784781919,9.307477208661291,3.7004572375114577
1.3556342460223916,-12.057628889777371,4.869504622695642,6.486523500669587,2.309818070934196,-1.6498935372277963,-3.667427032130117,-8.060732780194776,-1.1268398146038698,1.4970487174451743,3.6312525088895264,13.456868941489796,6.278190680854729,1.192681461299447
-4.24676433996494,-16.092470012885407,4.09936104415712,4.4367660772087065,1.8628382163759023,-2.384089992592759,0.0410616769595808,-4.0336929838621245,-1.2995864150070788,1.0128492096541428,4.55199947335001,16.401308680853507,4.065074575949247,-1.0917593450556975
-2.2212391654363675,-12.239717716380545,6.609944804810189,3.778011102094498,2.2261545884831677,-0.882227733091301,1.6845775496973108,3.199086622240559,1.7177993908837597,2.208922478776921,4.858354994417998,15.048908261002584,5.605840552227503,0.3805300281542116
-3.173329884479565,-9.877040490419404,7.242839374192555,1.0788807190439715,1.148857977816299,0.0969943947852715,0.7497761636724096,10.498862892889283,5.622069174036724,4.199854905125191,6.09400048000546,14.28969526629859,10.723237754022051,4.989916554391956
-7.369882692761039,-6.24395386699192,7.240980692537073,-3.02629734777198,-1.1304643734904865,0.5485418681514734,-1.31099130644618,14.08216950421241,11.942946910571678,7.899819214624809,8.271526117127074,9.116032464835223,16.527904182051945,8.886905674919971
-8.250098136477582,-6.942142023310898,6.078549344863426,-5.870090315014174,-3.0793111328717475,0.2805281793161746,-1.9577362364246136,12.105518451114463,14.232166878465698,8.89317335019432,9.762355063768467,6.748100662268753,19.88665108035383,8.998055337256787
-5.857858972677793,-13.564347763411009,2.9703870765962592,-7.770605033830003,-5.03327126488914,-0.9660128991797212,0.6542178290741631,6.29923852365539,12.03258241473388,6.977440407336005,10.82784120733022,10.589286088249446,19.690230632039736,6.074535074130004
-2.136723552480474,-17.68031251990493,1.684821153385533,-8.153783108617597,-6.322428464785936,-0.952784335663386,6.111235093487812,1.1066559421763902,11.077889867063092,5.747053360835594,11.124714358696046,10.97791116627813,17.161334917560794,3.85652943808625
3.945066183864314,-20.77629972036534,2.071488484385751,-6.363940627120148,-6.6280222310321,0.1700110648806963,11.683223270667972,0.6379912680540922,9.957652033166635,4.258938095845526,10.310079859493069,13.840106704658403,14.35615582560158,5.335851352698581
6.188938941728458,-22.545656997438407,2.34340379665434,-5.791776631163545,-7.298077179707818,1.3251222676434375,14.136732778885056,5.633039337376417,9.485134081738174,3.819921853584122,9.07927786652181,15.817451139968512,12.463523488141256,9.852486938102905
3.194712116079594,-21.51107917790591,3.2526586726994733,-6.265817063295485,-8.116915737697108,2.026322633060147,12.2078369106269,12.817941773904716,10.528250739873066,5.026422806324646,7.223970840573525,9.894474810787823,11.315226720398876,13.74744382943956
2.2130174001905374,-21.33112754653676,2.646482343736137,-6.947862894262573,-8.287881227934788,0.9632587906551784,7.68373850773138,17.22328425880754,9.395391825797564,5.476865112435114,4.856744043229066,5.576123815858607,10.15934383513042,13.752340028262694
1.2859466824888353,-21.52210747084297,0.2236427308900425,-8.575567610320505,-7.969739833899965,-0.706945452745734,4.014854753931681,15.712176946895076,6.365006915165981,5.587699174393449,2.0497977119882487,0.1438127054751501,8.654977993546481,9.822964184690775
0.4444697886114315,-20.79512498288767,-0.5567205497927069,-8.958770125927906,-7.08753347704741,-1.632255949099057,3.525324537403856,9.07935722023853,4.284411137497017,5.954278164551187,0.5836297541094009,-5.559141295893154,7.139617970679392,4.967093797374423
0.095039153680956,-19.700776946606183,-0.0801184713286173,-8.049542016995506,-5.4905252480023385,-1.6764047871194896,5.625350608326968,1.2853746636895895,2.6090501941092312,6.228625907730785,0.70471076705466,-3.7169970993611465,6.143095848009848,2.585314106612069
-3.869194836543853,-20.51835522111894,0.9998678734638944,-7.403347665859791,-5.243700528545167,-0.4382632689586466,7.568676483869471,-3.4185349184913374,1.2750128962954868,5.708232766913603,1.2445689344294626,-1.6191124465077222,5.824882001573222,3.907293049006855
-8.982756594215104,-23.41240603553307,3.3533411718605124,-6.572034465538209,-6.459900972738821,0.061059946536914,6.985538510944576,-3.2951645162377403,0.7772944728140868,4.308619588138948,2.7266721085539967,0.2182003317646963,5.893431341935076,7.549114278747364
-9.768256848694074,-24.300830077409596,3.9495778644467454,-6.031939226279706,-6.593195267576764,-0.341850107077105,3.867958262346386,0.0348700434339246,0.1034816789959698,2.389739193244152,3.2722597953454837,2.566739174331182,5.954984949563956,11.054385965601888
-6.026706821881675,-23.52250245426406,2.657585813453613,-6.010965060877677,-6.018664905969432,-0.4600614050202551,0.3395968591525431,3.051680318791801,-0.6113142691404136,-0.2727654769066022,2.669805584413813,0.3559658380093474,5.854624847761816,12.770778188163868
0.5005029601053426,-17.53647473871096,2.630836956139532,-3.8019918679498623,-2.977243614901969,-0.6964694883168551,-1.3406769636372005,2.869952546814325,-2.0506926768124742,-1.8645526934992749,1.065896847100992,-2.2969061107308564,5.710696769305464,12.667168984093395
8.870448074614925,-5.033122688167801,3.2992069823685246,0.6305380252348248,3.207752989611845,0.8472815022543184,-0.5963853103980892,-0.9405804400445276,-4.469409504442056,-2.229662330912004,-2.1483735316509303,-3.82834461171384,5.704970650075129,11.926239958443997
12.312206733740952,1.0478047648632052,4.152809414793394,3.1282265390386064,5.7656921065792535,2.629698789506953,1.3390694319349097,-6.3649007760363165,-6.204375300150483,-2.8008445216859994,-4.518449183918349,-5.102027604514682,5.860727323564616,11.988757698559343
9.119993576771945,1.099803358800503,5.693265870203452,4.032824284013159,4.862176321184677,2.248086951148275,2.7804535795623373,-10.567077367237006,-7.41539694403355,-3.137595584295799,-6.1075367478302125,-4.487105436221941,5.954098298006466,13.704860062038584
5.429552982804312,-1.6445565525111228,5.658525895430461,2.485991652654309,2.624390742598006,1.360731628858423,2.977520587176837,-11.837022692954228,-7.440665188503893,-3.89236594041378,-6.713539286978339,-3.3128236593904083,5.58621137367073,16.890016160447708
0.1249172525195123,-10.200521384954836,3.932475647125655,-2.5714839458635828,-2.503890728050776,-1.220837226536678,2.348495111348803,-10.467562971551844,-5.848032806065356,-5.27612906515303,-5.690632315396795,-2.141057060145174,4.422569757495396,20.420041785300725
-4.4396167525354375,-11.92642651015102,2.1436165787767805,-5.03295940073945,-4.340187036728557,-3.4586869294636564,1.666310375173894,-8.083307775426007,-4.596099512758795,-4.417655666269366,-4.092647877681544,-1.3388443994585857,2.553899355588481,22.91069974970048
-4.59988300386002,-6.315143160244918,-0.218613877675756,-5.0992185193054445,-2.53089929999886,-2.4810371345812032,1.2304373120347796,-6.167635631754744,-3.46155689416932,-1.3046337212242098,-1.6058952098445534,-0.6905617457297074,0.7424316346300248,23.67457253617076
-3.5476642204496374,-1.724380466471809,-1.7446368245542967,-3.73162897625556,-0.8049937570713702,-0.9657395425516644,0.8136219095273205,-5.075377604161335,-1.0967519576174316,1.610183487992918,2.113642333903145,0.4795484783488636,0.1968029061242671,23.213255283527744
-2.021588612798868,4.685084078363152,-2.128716054728649,0.5219678637132067,2.3194256536173805,1.485054410952201,0.1958643768852832,-4.248169291494409,2.234421833736944,4.877703395450959,7.014143070306,1.3280886899694655,1.771191737787424,22.609469227931868
0.2593074632732005,5.542288567360781,-3.6617621105353058,1.125489888825121,2.17771418977286,3.3383539060801803,-0.5026342504374224,-3.19987212044657,3.776494034019525,5.127025184571205,9.30789801137492,1.284870765685412,5.065818303441855,22.094374767768866
0.5682365269796378,-0.6151460247795278,-6.032977551320562,-2.044743640835783,-1.895680170604479,2.025368701041736,-1.114012901837853,-2.187623946412926,3.4839389978768813,1.6373692819884385,8.686484498632655,-0.3281152982207361,8.262860767412535,20.06750412827849
-2.3199711360576902,-5.618480036036913,-10.3361601199107,-6.82561520254334,-7.347404341406086,0.1951317281985662,-1.9178288129628305,-1.920188753973521,1.050757417364265,-0.694643793780201,6.584292290946706,-3.2320371803265964,9.134735512015752,13.823043866166966
-3.650621979210302,-11.399621667887924,-17.135713900139358,-14.8331215561205,-15.535587897256011,-1.911623524803636,-3.5915799650292985,-2.6928135949386838,-4.366209783540419,-2.69707150828714,1.9073336890858827,-6.870363607461322,6.661740911458731,1.868934270471457
-2.504130401299138,-11.059738679961464,-17.55153596964246,-15.97602555572728,-17.180182846617452,-3.179981261663352,-6.471923579371749,-3.895086445088749,-6.157224962484673,-2.8150565395089773,0.1433740489062837,-7.581612311499627,1.9799424865521047,-13.919792545900084
0.2993981014927005,-2.764569818754268,-11.284253480384397,-9.535702983670822,-11.414364896193188,-1.7703078605610925,-9.862043832857088,-4.381323808038252,-4.210818462863262,-0.0193246012522208,1.6218365214508943,-4.256035779838288,-2.2568584297645,-28.377739290560736
3.6118190711844775,4.878140275762616,-2.6870686523431497,-2.696565259330529,-4.33750495376474,-0.1683988998899002,-12.242602491831558,-3.278219625210673,-0.8888869703673145,2.096811112410578,3.263530802344358,-0.0241925806160677,-3.7490915647493273,-35.82141724634798
2.734641210276128,13.876402084362631,10.429676116828125,6.970372466561063,6.4597224227194285,1.071324196067622,-12.375425047095312,-0.4611289986951572,5.445833013474586,4.148927434355635,6.42967883153282,6.613193605088474,-2.222886873819773,-33.699463889963795
-0.5334177238133095,18.58209544617768,14.50357847523506,10.203207964199306,10.433229485507082,1.6195900744672729,-10.312265925433977,3.535713889406284,7.320996760311315,4.991055404994481,6.548707167789557,8.851317103465481,0.422354049884027,-24.36610390755105
-2.1920640252477672,17.226962762342012,8.179147169177336,5.45006790873099,6.199379785473711,0.6973533445130407,-7.321151225036241,7.742428342097008,4.243309595555634,3.894898856505798,3.0771223731069037,4.659383996809141,1.5836299548740491,-13.573161613428429
-0.898999962717175,17.741830867617267,3.081190905353639,3.60168208055358,4.22885322350303,0.3502553654788031,-4.794039110427913,10.75482466582642,1.1790186839236187,2.4997320880329545,0.0513572762003998,0.8431882021615219,-0.1482191382677102,-6.817647770090595
4.237136979799111,18.441277106008226,-4.073535387556197,2.40555427767817,1.961009025896609,1.178628891757827,-3.2164157146362937,10.857490186822597,-3.664472707624806,0.2655192108662784,-3.643870669145931,-6.899360476938762,-4.115271431974755,-6.252209758841522
7.411853168035682,19.791785053878744,-6.645367719929051,2.9599086688542187,1.9971629729755889,1.9682075881826877,-2.1807412445885195,6.868701219074201,-5.956369622698336,-1.9720518396311375,-6.416250766970469,-11.180490434176178,-8.315363888577693,-10.20510594355346
3.6064100882881656,23.025242587494024,-2.622275474635743,7.079141741525051,6.020498018914242,2.0093023635186453,-1.298385334262143,-0.5194762792262129,-4.901763946085117,-4.0082620392653805,-7.629797525714914,-9.320240539157368,-11.06287878938302,-15.196675754362026
-1.267429023308652,24.972527083965065,-2.645713365433309,8.1842503507756,6.8657946119789495,0.5405318607456998,-0.9055783862721736,-8.227662750803564,-6.061023546440492,-6.250425550612546,-10.668138226715206,-10.328118017185894,-12.28587148353582,-18.57070375351737
-6.007749493185166,26.06345118823252,-4.950535321407799,6.837553478317839,5.367992609439852,-2.697998674110976,-1.6970271455241352,-12.265022175424182,-8.419775030955979,-8.413944297538595,-15.121116215376142,-7.968490427511073,-13.478520896043356,-19.800401714434543
-7.068197190274759,29.47216336111671,-5.997843434501279,7.668446593130266,6.362698804965666,-4.806390798804486,-3.619659164129658,-10.583594266276684,-9.744111239833742,-9.69818446659186,-17.48765590372864,-6.650094291185681,-16.334083945961186,-19.905929815218855
-1.0698200292162443,34.93750166959614,-7.311532551536144,9.710652372868392,8.889738632763576,-3.6783722028484496,-5.273184460976097,-4.946879026819401,-10.749988669366363,-9.963350388087466,-18.094109216767347,-9.119748560717287,-21.110075696096352,-19.91985983367357
2.52173769900947,41.32960691398295,-5.777751491798246,12.654684677148747,12.6750154517898,-0.6902777476938302,-4.696825885030534,0.1978068877382579,-9.662387821862913,-10.2826308593783,-17.82016270447694,-7.6567102306324015,-26.124502488813597,-19.842645812404086
3.924988364016102,49.294099137029946,-0.8704234540956253,17.243089923215148,18.53863039027665,3.671092208136759,-1.0658149187434454,1.266529318722366,-6.033138715988202,-10.448902891764046,-15.940749829926917,-7.980966582383548,-29.06070391285155,-18.901001103916972
3.4772832851611564,53.16959109172839,1.778246604817466,19.632118366213728,20.44903822861725,5.982384071492573,4.225019481456016,-1.5146276935327505,-5.623671107610648,-13.411035348534282,-17.408395074104305,-8.645797197152428,-29.278110614119857,-16.785600138067714
0.2927278304685755,52.412361182245824,2.692635481449982,19.71829326295409,18.13201700793403,3.628075369289091,8.266367518151682,-4.48782057328391,-8.306034589630139,-19.649282128705156,-22.58131119643998,-7.065903696662861,-29.177087621333143,-14.728082223603234
0.2541738374608936,50.10796259188471,3.820347746707259,20.40627439694753,16.747571753912947,0.3384140026071147,8.758630804489398,-3.9795371201222745,-11.1843311534199,-26.583006420904937,-27.83911334335986,-8.036005798815538,-33.02472894910015,-15.309960534491813
0.6694992731499054,44.70424007758053,4.103962653251686,20.891106944134908,15.014887849082289,-2.8795836881330743,5.806186852167421,0.3862696230480158,-15.484329038467852,-35.038808402497565,-34.370446484999505,-7.849087398873507,-43.622041931282894,-20.813646389610795
0.1388223730012482,42.578476499571,4.355748109555907,20.780436286118317,14.425626064810094,-4.436574507000533,1.7685181906965548,5.474382548006882,-16.78274364403675,-38.12713890655655,-36.58516226052283,-7.521110849003685,-59.302411412984085,-31.157511226934936
-1.130859346568359,44.34306262670001,4.627113148310262,20.385465503800603,15.838816497972058,-2.504611218033669,-0.7705617340981981,7.52406026224646,-14.50450882609805,-34.907899252394344,-33.585889299562176,-9.385848951169637,-73.98444542429075,-43.06138548461297
-5.888605132629552,47.06243538972798,2.6069955326005982,18.968906699470164,14.984079439973616,-0.7202432787614632,-1.0995909516261717,5.294864609547726,-13.753433731880415,-31.831644873346992,-29.91835753626929,-10.000474630245847,-80.74910932403742,-51.41176342446555
-10.457122137392926,52.50262959428252,-1.7337746084065313,16.485183266697714,12.271636001723165,-0.1717391784370958,-0.6051851017840271,0.6967364595187977,-13.541494539845038,-27.13005481086041,-24.02399024125957,-11.723921126894195,-76.38693069201754,-52.16146413392708
-10.477242331347988,50.6679104774152,-3.7530255927690015,14.14042844285723,10.448377789707749,-0.0079342988317122,-0.9584906035943028,-3.2137962907700635,-12.275971496504097,-22.3886668787994,-18.262769424914016,-11.922517211270968,-63.31229724354437,-44.77113678183776
-6.719519580229115,40.740683536407325,-3.6360005868523664,11.84013000141459,8.871677602447434,-0.4274722427972066,-2.122430441845209,-4.599925197431945,-10.635788037986382,-18.529805979156777,-13.223572165323931,-7.840472644986479,-47.3376503395988,-32.384541824567975
0.7800965450514942,28.55528970832374,-0.5825216343436799,9.179912788288505,7.696695640379064,-0.2483895783840923,-2.2683770761867663,-3.477670649387441,-6.044289669742372,-10.780368460089257,-6.228467345485829,-4.121709047170498,-33.30170065844898,-19.61777641309454
9.549173772830562,11.521046034237427,6.686004781928335,6.400758246615746,7.362911326718333,1.4099109268301249,0.2432050626260284,-0.6877888732397066,1.8691121341693695,0.4611423014719659,2.0714965373727137,1.734524240147687,-22.272820818664268,-9.68009017669239
12.678895984788989,-1.2834432683153048,9.149070671989612,3.4452897809894845,5.150643168859517,2.567114634107638,4.858995979409044,3.096559114921416,5.341889608744292,6.044487548874904,6.47194565252878,5.219146952914405,-12.38737691910382,-2.9716941703115225
10.57572352962546,-8.800959050326755,6.823522899090506,0.3271711880042087,1.0445979707530029,2.116150908823021,8.973928068166751,7.180748659041388,4.478520786120317,6.098092317977711,6.790573412198036,1.914604406171991,-1.9490198958409524,2.029478513379586
8.466136182961574,-19.854033746796983,2.054629676062115,-3.9232794679488032,-2.6330106407548577,1.4354051084904986,10.189990806018924,10.124515486167136,2.883830994794113,5.717127476608003,6.690556731153312,-0.7003922938329485,8.482084818575656,6.691522331252893
7.028571700963842,-32.31830249526109,-7.380159596517261,-9.40310254953824,-6.395170867785321,0.0116220578144197,8.3992481878938,9.937300471006385,-1.1737120184242622,2.912164058758892,4.9539759165955495,-5.632217640286746,16.89371989863421,10.903691418003362
5.890185497723692,-43.42114884200506,-12.52995299752453,-14.17420194723203,-9.723487487620586,-0.8945485699603577,5.530494762597776,5.541528044213738,-0.9802048138395756,4.719380560794171,6.343282457941102,-9.218668044511274,22.29151724680369,13.561827396536287
4.939443164974468,-54.093753272218734,-13.081840956353828,-18.364027417508485,-12.205951219534544,0.1646965712530969,3.2894147563820644,-1.8372811794331767,4.184682950310529,12.164686951939467,11.674060266217916,-5.270817914034728,25.988706108487705,14.19015889115159
-0.3628751362073905,-63.12668823145369,-14.148304484369572,-22.61945004349628,-16.59288134347286,0.0949954125624048,1.4180746192812514,-8.964381677887541,7.966380618194029,17.49440776300981,16.416217258206107,-2.401723883784216,30.32010621976466,13.989532637716284
-10.947600285919242,-70.05045578895442,-13.666521154072068,-26.54011362587362,-22.810455425839937,-0.7993248303367834,-1.5518095423105214,-12.636175697524358,11.926810929286308,22.37934669088568,21.84958321911468,1.3109969084385449,36.22511556968746,15.159274592796228
-16.612503303384866,-73.2434890183794,-12.350379209168596,-28.460601402864416,-25.29530049796824,-1.4210571373797198,-5.883952184743484,-11.790682870308444,14.174413548368868,25.31435494749745,25.89739257919614,6.8801117488836745,42.30975178679912,18.96352921663036
-14.790653809618115,-71.97441268940072,-10.517725314037037,-28.16861555000632,-24.185826574809493,-2.402811227028482,-9.4002701419135,-7.908503807972538,13.65448547400557,24.967880232288504,27.841569443080243,8.691660161618026,46.33387587902334,24.272795412725035
-11.198375899743576,-67.50016243250428,-6.515212474732222,-25.66285238391888,-20.97366618817732,-1.698327601108678,-9.145116870962203,-3.538298510780148,14.728535519875072,25.639655989609118,28.864677431964797,11.582922406860956,47.47450577511165,28.060192347443465
-3.2913451486573693,-59.05616083139167,-0.4594613615374358,-20.336139331344864,-14.326063283553058,0.339441921682142,-4.489336890400915,-0.4178605778206066,16.784788939759114,26.66714050873061,28.154747810323524,16.778163552839082,47.00487330979341,27.705423931686877
3.3249364912089967,-52.76873701137601,3.146088761978975,-16.858867642915616,-10.994502316600656,1.8494053291150945,1.6160315976035458,1.2514955616586896,17.903329521012974,27.355466096910348,27.59880645842689,18.55951771083018,46.84794582967183,23.302044291045515
2.724043520867025,-49.151642465714616,4.220911707209202,-15.355345378127506,-11.338929877805803,1.93787497635436,4.877739526803789,2.1610865656163822,18.71353578338804,28.40107563411586,27.22695116737352,18.664287211816056,47.70136415185586,17.948062549352404
4.2475430466143465,-42.4966673624365,5.337119475301881,-13.456677269181174,-10.249157119009576,0.7602304177318884,3.473143784489468,2.909534180488255,18.89416593792117,28.026339252427327,27.452629540979267,19.29883676587523,48.67432124635421,15.567545492007593
6.9239114159247706,-34.193973673664544,5.443897065505942,-12.273140742082198,-9.238548177671037,-0.7118616698839494,-0.2448473147359742,3.663246568741918,18.20397919175272,26.21993623743656,28.82796852022648,16.559360183785493,48.54404330186832,17.919819439461634
5.4880562946557125,-29.417391796875005,5.071573280477637,-10.90598374199671,-8.12735549221068,-2.058182251386472,-1.8928217017177893,4.453434315510339,16.906607352397973,23.3467809836058,27.320148170774065,13.918398016942565,47.01786287345925,23.26101232445675
4.844418100425349,-27.91346281096693,4.393799989735709,-9.236609538175744,-6.342145309472626,-1.847730626635585,0.9294110531660662,5.408606504788068,14.830366371914408,18.97097083017832,22.94641444280256,13.554495157100629,44.63794358762367,27.80198433593438
5.46008168943369,-25.79660524190744,4.05520169401451,-7.668886299148731,-5.715566074798876,0.2580870467575749,6.491578676542076,6.523652878386363,11.164035341755186,13.854068591463063,16.455960729505826,10.46337889544374,41.696091083100136,28.715615594271867
3.603906294123833,-24.038739578642534,4.321714436732696,-5.975506464118465,-6.1283602229983565,2.0312835701500487,10.49542931391881,7.327314561362554,5.789110706319391,7.927777047225904,6.82898096416538,7.0248612051884045,37.64425674908784,26.122583715867865
2.3498391091483697,-19.827176568475245,5.111000198818512,-4.625898749883236,-5.754392181422522,2.879473018935367,9.689965653228745,7.030741032581747,2.229583558170981,4.167724253304399,1.3594396271061715,5.603347580736666,31.7739188535662,22.4676412192765
1.877580064611112,-12.324240668626876,6.755212847077181,-3.64666580140818,-4.825789941398563,2.524619817488364,4.252573260648057,5.172970640127315,0.5449611085751076,3.0349899777114397,0.4276047439135794,3.10862690194446,24.365971019491457,20.092524196936523
-3.641586249864828,-8.232930597237875,6.063448557318708,-2.381315815495053,-3.889747521310639,-0.4900553168090394,-2.794405334657524,2.138205408111556,-1.569057788756281,1.3235273801244258,-1.019582434883599,0.9109516445927752,16.948584307848947,19.3538412740044
-9.119141659255831,-7.0205288656763685,2.885819044858023,-0.8987765890481464,-2.6168318276789675,-3.115310399973866,-8.043647612215324,-1.017559150530258,-3.331861331235161,-0.2014751322708435,-1.2845982025230924,0.4780451524833916,11.324777673580588,18.888284825972946
-8.783212995979753,-3.370530758776594,1.99564829486402,1.6254590627406331,-1.225920612114212,-3.1040902688780787,-9.711616647516967,-3.292829769931309,-4.223991780669169,-0.6698709782717883,-1.5035178856242255,0.1243310973270575,8.367443705307656,17.420006779712256
-5.3676388407962285,1.724889658869056,2.91825472377462,5.42002388559136,0.2840486055796451,-1.5556822804471075,-7.983434504943117,-4.328383923777638,-4.390933588811605,-0.4345237554570691,-2.226205968475228,1.9359384630136012,7.72438324689174,15.097879408792188
0.2847772551428548,8.09191603198832,4.936023242135652,7.993789462993604,1.96272008926718,1.5349269697540184,-4.261099088799317,-4.35853399250538,-2.9072134092016317,1.2136040465049716,-0.848720291092863,6.321953578549102,8.485180023417646,13.09813127219024
6.868834264163746,16.663823950018752,9.037508440805306,9.449034742731545,3.769516976446252,3.607677121744734,-0.3935735858550018,-3.7170735426364834,0.421192940427422,4.425724691595744,2.3425105818351484,11.098023179744295,9.893378490156632,12.197997089824486
8.035831607383539,20.532560478770545,10.165840551533424,9.84841560078058,4.700696657918034,2.716108340082325,1.848053112637685,-2.513364466924057,2.2563254315891035,4.923693295549654,3.9941516018108,13.33319842837192,11.39611742671335,12.050664308254785
3.4814291630514638,19.42491079543203,8.141018349627325,8.567883450068468,4.643785871280394,0.4878499077294866,1.4468078722446371,-0.8165443420630121,2.6183821373709564,2.536215587771494,4.303404385102057,11.95328554538049,12.306662117668534,11.911411385824085
0.5830908391031173,18.297913316543777,7.221347679649291,7.986555689906515,4.164448347240474,-1.1064940240404926,-1.0760371077396351,0.9428906329897462,3.934306085633737,2.5844721608272905,6.298799534077382,9.217004361486763,11.835472068231327,11.783726191707864
-2.639745227600829,15.609575429279811,6.368312697708543,8.015697487824676,2.9731088199241684,-0.895836441716712,-3.625017530532436,1.915707053870122,5.537267205894061,4.3244141563226295,9.449963052662063,4.708379759821623,9.663781766626892,12.442602559473288
-5.138267220694402,14.753521072770669,5.475595109829232,6.98852654022433,2.488916619284877,0.4315176973770082,-3.890412807862465,1.3083032286280556,5.5983886481816505,4.755300053588587,9.335160619130196,1.4077506562970945,6.3712064753755175,14.155643410563936
-2.859957494313888,16.57866022320537,5.127128879626295,5.322066343701765,2.846420647219265,1.0424708248519443,-1.365018015265839,-1.0106083442064024,4.231364256921239,4.629867896946455,6.056053938028695,-0.6925732343440683,3.0355343067419973,15.607743463759087
-1.4647557324005205,15.239860829105387,2.418192819196109,2.304335544381363,2.468481027013565,-0.4506226034080266,1.8168932077401705,-4.32268753732932,1.250943548348394,0.2078896700260163,-0.3076778366421535,-4.585421512547734,0.279028500462676,14.549333539530988
-0.1243124702391809,11.501414819930758,-2.6947826868038907,-2.3721155804946465,1.654583106111104,-4.005260295697759,2.392100684941981,-7.424603046286556,-3.841203033495581,-9.34295133921028,-10.955586978908665,-8.025797228834282,-2.1874185615557566,9.866071608863002
2.052284136201675,10.281121793074496,-4.701069626688189,-3.1949822884208383,1.442243066758501,-6.057699098802061,-1.1060072697464118,-9.177933836343776,-5.825856627183252,-12.823330690330772,-13.948967193431,-9.70952897221537,-4.896189416016116,3.0469767737025286
2.0715942114115014,10.919193275809011,-3.846886931302025,0.0470811446976377,1.6724905643552337,-4.16053776739553,-6.53521635316304,-8.837904868150193,-4.496785507502635,-10.570571484337918,-8.716048709964877,-7.976804731319308,-7.498763893257784,-2.6329174014312717
0.683356360473299,14.15346769263112,-1.2940270452590892,4.011570647259494,3.392687999439484,0.0229996747068308,-9.328617077297302,-6.140510366620195,-2.333759315059301,-5.756919014322974,-1.5512341830018272,-3.74505074918716,-8.571224501717097,-4.68779515600165
-0.0760815203386298,21.09935086751126,4.242550685509458,10.008331330432531,6.925019828427224,6.126856309944189,-6.048885458484104,-1.401002872065595,1.9678928310241488,4.204476946604952,10.520121780498734,1.7219327385143135,-6.912448216600209,-3.393005064638353
0.482465975367189,24.486695561411167,6.454162862253564,12.174846773292826,8.435648607348378,9.191769920260136,2.5057252972113107,4.316343556893127,3.3022492528454053,7.180948709292833,14.31269414430505,5.186037759245341,-3.233336933133756,-1.2899083241998897
1.1799631738725234,24.380114501564204,5.086865980609559,9.72608987947698,8.00042326566144,5.756037662855898,11.325829590889224,9.275606269035354,1.2011741274809598,2.4929501730480528,8.425075730673907,3.2913324962641672,-0.3862170487615719,-0.754161572725069
1.5491158065371269,23.358828424446752,3.184508177685542,7.483670809320955,6.550308964138333,0.5524264730784343,14.585411026332936,11.713010905526408,-1.7099602922577493,-1.694646443426551,1.7055796288316298,0.9403718848972183,-1.441229821713971,-2.0245990623673658
-0.382423342323393,19.73549190650288,-0.7963941110760753,3.910595089952453,3.1629169463254505,-6.230288513075055,9.91214617063406,10.849511623010716,-6.801312023477843,-8.216060713893803,-9.299046936337426,-1.8839411309510377,-7.033935077514792,-3.528395474429804
-3.788993747511471,18.01104778147828,-1.805612233224786,2.3331728131192837,2.227797783079944,-9.940979287849997,0.2757766006946118,7.555195599399394,-8.89842422195845,-10.536053193956526,-14.35836843803304,-4.598248902207405,-14.401261782321368,-3.944979038624956
-5.1985030316295004,18.41348690857025,0.6392163987209878,3.534672919196291,3.935549685374725,-6.3627145497209,-7.963174824136367,4.028056448302653,-7.534627911949709,-7.337481044948761,-11.969284667826155,-3.0598037588678717,-19.25142194668119,-3.714828181388292
-2.5687739556886755,19.42986694107981,3.646042638106304,5.235780906996771,5.6364678958749925,-1.2507607644068068,-9.407694226700748,2.539231512347903,-5.85269324213122,-6.5166233061589365,-9.920192849248648,-1.7933138957855752,-19.10088518074701,-4.391495971665934
3.1791259376012047,22.220445298639543,8.539068633384396,8.511718889617688,8.35639125483263,4.958797141409999,-3.2114134834102765,4.018094446602369,-2.520327485380955,-6.43074676459571,-5.442300799112267,-1.6057949982792492,-15.274294136795149,-6.599370608797874
7.030520814198559,22.369367704468857,10.305580262291349,9.80137067148832,8.655491510977026,8.729656997247863,6.605678350774703,7.4157187972004275,-1.3661127449808883,-6.811936807476805,-3.495801298793626,0.3470629654435075,-11.805604852052188,-8.900023409846138
5.953443591103764,19.66958784846255,8.39513559758164,8.747565984632606,6.0296732526636605,5.995227640227981,14.161193007192274,10.30593118713514,-2.8851003349753195,-8.851888343520875,-5.129457249322824,0.7106813231522693,-12.115877466240232,-8.960178365747737
0.6999733675129931,16.37846933337615,6.564057325557258,6.4707551456076375,3.908481686142118,2.029769550718067,15.72233863641669,10.413461932653718,-3.9185158783231295,-9.011545050947326,-6.313305562065709,0.8049900653310887,-16.23615812331681,-5.981489582061887
-5.519918678016518,11.423965766759888,3.538721056651814,1.932290584321496,1.438929743985502,-1.9800495967237135,11.84149839902942,7.1553790220272,-5.437099214659729,-7.455510493619536,-8.49581741370489,3.2012859103807068,-20.837994616512987,-1.9122891813248015
-7.533497422036637,9.094443766090617,2.4224254640651286,-0.0396269894662025,0.2442099266119338,-4.496522490873214,6.265987428299031,2.1776663274559063,-5.987282050188954,-6.675334756399649,-8.949135933517365,3.498360903507326,-21.94736317269316,-0.0418726060772005
-4.001069327154159,9.844085685849224,3.837420226630116,0.7577215842457171,0.9445196453062978,-2.6687100062977334,2.718852059747941,-1.600065207872226,-5.109083873042804,-6.082635176203218,-7.135479367843497,3.8116556248177913,-18.060584113452343,-2.1460434899726053
0.9451598132482588,9.177217643293162,4.31980916597298,1.9689301827487176,1.244504583955922,-0.0997265647598598,2.167409319094016,-1.9388947075079008,-4.420923987080369,-5.336353279324209,-4.505892372754499,5.397736209425955,-11.228093892062812,-6.860138299547571
3.858248164451792,8.044710675233436,4.680556888906065,4.774839942449799,1.678069722137896,1.2256003400985924,2.6492190881983584,1.0764468178942108,-3.463632632569155,-4.772847566865673,-0.2038421758203092,4.37337448139391,-5.470010946045967,-10.882107957082717
3.480048034377117,4.426064415703958,3.404713451630512,4.554365549387124,1.6329181517186206,1.7451157045956125,1.549658611062668,4.951787257975747,-2.998596357605312,-3.79689665428004,0.7523004088573675,3.734029174112216,-3.9751626368618274,-11.94790514983819
0.8028680916366746,-2.585583689612194,-0.1449522125219417,0.8534035899811055,0.7346706929953427,0.558764834712968,-1.8082144181765611,6.4279522741798445,-3.2754946641238645,-2.4162570043308067,-2.048125746475678,1.0248329136730954,-7.22092767947837,-10.82494193732961
-0.4457056268560776,-8.236843504973143,-3.815871700110448,-2.7702832201383,-1.1000863774997298,-1.4279538161234655,-5.573823450194004,3.713847167497546,-4.02918724957654,-2.339038676182712,-6.064904915652343,-4.75823408429042,-13.118410354820334,-10.45847395425819
1.8153490609182183,-13.079141041727135,-8.137907527625341,-7.452462846398793,-4.240793511619165,-1.89674032996096,-7.21484447909457,-2.291899027535832,-5.567409616892918,-3.5938565284948365,-12.640216455800738,-9.289394516779318,-18.6491149731913,-13.061582284597325
4.495227021250434,-16.66103412746143,-11.163001650486784,-9.51723351195354,-6.070433753208725,-1.1997173198644442,-5.966402688747781,-8.60718513624297,-6.829297848103794,-5.3210003419084,-16.162886488774937,-14.18882325608878,-21.612127616324766,-17.87842463603429
4.753574612742772,-17.957822276152026,-12.41784607646864,-8.256093825028929,-6.570976397967993,-0.0047316423523964,-3.5027940488332607,-12.089545550059976,-7.818218350650847,-7.928182692481496,-16.12659956672908,-16.080340447031467,-21.484269006927857,-21.76670833098884
1.5908941902703075,-20.587840136870103,-13.37432851555804,-7.487139510641239,-5.588297522717798,1.874188514108893,-2.199415271095031,-11.360091328208783,-7.712731669263936,-8.652303689024617,-15.282263310323556,-15.453235670542943,-19.3208340993307,-22.158798085141665
-4.986229330259185,-24.237737626246137,-13.391494193859051,-6.2195806577315285,-2.37855430510182,2.8499110091151434,-2.76059739921684,-7.584034196521671,-6.146539556606669,-7.201450439797841,-12.11074933956747,-16.981132986968547,-17.140376858389885,-19.731287022916984
-8.846421879807421,-27.269644819590013,-14.237636339782089,-7.018567549468397,-2.291857151354362,1.90789459410993,-3.664381110553816,-3.735199821462956,-5.646078447263613,-7.1802987722151554,-11.6924884915019,-16.452917082022477,-17.091971009576056,-18.264706175262617
-6.721473987378031,-30.30491789798988,-16.120649190813317,-10.62233841170138,-5.410565322677794,-0.2302543044535419,-3.0535971296991957,-2.7649171120933893,-6.03203391510193,-8.036450528380323,-14.432994755250736,-16.210762994753374,-20.4537056354267,-21.605251410626146
-2.40531195035043,-32.59066568322326,-19.336653863632257,-13.946442938421788,-9.050693697319344,-2.824235215424622,-1.1286235021687112,-5.642068322339206,-8.587081886212836,-11.78663819498761,-19.36153825136159,-17.95039462544707,-26.696158855120206,-30.214951002357846
2.921466680510209,-33.92954961766293,-24.501638081427195,-17.76898784494708,-14.450696663666765,-5.7020006696749,-0.4052310032659072,-10.446241914036383,-14.033391660945934,-19.321928394868227,-27.9658552498766,-15.598720381684249,-33.272786648149065,-40.27130835463883
5.228162206039999,-34.37520874872978,-26.259610169009196,-18.734873600464827,-15.223831562483076,-6.088620945575803,-3.2429809903984363,-13.338198766900334,-14.624074945811213,-20.25653878527871,-28.73714175424906,-14.324474612677472,-36.71656558533298,-46.222659359579794
2.338817605652947,-33.63783474412531,-24.503282903921644,-16.110579256874203,-10.669331646390964,-3.3067636735376262,-8.91192911888075,-11.1340505420688,-10.325454095253164,-14.570407952186258,-21.08541992547841,-14.74371430155972,-34.70394983746689,-44.84718336404403
-0.2550608335373429,-32.300285383645125,-20.630074173839496,-13.79300990948922,-6.8870048825040335,-0.0376484741965115,-13.257247692938854,-3.872094537046113,-3.496586050798996,-7.007631478936425,-10.691966900122946,-11.34245832199592,-27.70921800557273,-37.59296366881984
-1.3453346539854,-30.263248624772405,-13.247351647410282,-10.858826242598012,-2.3690271885935297,4.736257600049576,-11.772518464840635,4.67174023502405,7.780521666927468,4.8295835483393095,5.357411994207246,-10.145182736855174,-18.855602957414376,-29.35104028837453
-1.0305445247695504,-27.706918268453688,-9.905077540686326,-9.08364856937244,-0.4810543964666826,7.397735714071057,-3.6241921119537857,9.311754983705836,11.611617847925675,8.186779948178716,10.675790632531651,-10.187809811472397,-11.897076029664492,-24.701231496126475
1.1137403145066933,-24.74349862203045,-10.97348604481756,-9.183890602828733,-2.389753606932978,5.485469800132639,6.983875600386583,7.151615350837961,7.2055821851537605,1.7877499215317592,3.670702876207267,-7.473393304568564,-8.844711276755994,-24.688246873769728
2.161580470821996,-19.14587373253872,-10.643409440616216,-6.670168671106928,-1.6170239627880822,3.755708478978421,13.541001355274076,-0.2028488357986049,3.072434043378636,-2.5104260929379847,-1.026488438384833,-7.391317672146421,-9.077829223835304,-26.65503343177176
1.8203825257234332,-10.794815484931528,-10.583538981349042,-1.9449840609355409,0.9630475428447558,0.941944244483753,11.928500789930933,-7.82370449537764,-3.6139896576613095,-7.685474035132954,-7.284329041684664,-7.666683522278807,-10.460033533688424,-27.02001126734859
1.0330365899048986,-4.772550678520326,-8.96156837682946,0.8672180849856689,2.2273534588737363,-1.7587720727799896,3.26091372783408,-11.1997103485265,-5.055526011599971,-8.415214466561398,-7.93230808769012,-5.442907627125085,-11.240891609563668,-24.39660534270735
-0.4233540425364843,-0.9141317731647208,-4.926796813763623,2.339716747863888,3.1208727600815167,-1.3126579699402832,-7.286750224810049,-9.48362151936093,0.2913199045159734,-2.5801258233206563,-0.4044249385372853,-6.728378918089988,-11.012234320119196,-20.292772989577543
-1.131064288382519,1.595873740159607,-3.416780304119538,1.6465435453920736,1.9114826680425447,-1.5206139841685578,-14.392877790554238,-5.562622690116854,2.789045208720806,-0.3930392541131303,1.4668658071726774,-8.652365569669117,-10.117857258484586,-16.963675620114984
-2.050938713708779,1.5141978856250895,-4.016932743254623,-2.1467527922278773,-1.957129151720776,-2.2926988113198767,-15.901752763305502,-3.0412103068700382,4.38517038914043,-0.3391948928351125,-0.4436931293381743,-8.548509410418063,-8.479265092912343,-14.701744120454514
-2.7028016762660365,3.728162851335717,-3.240187982618885,-2.582479645201915,-2.435294690853417,-1.849689903113337,-13.16448802744775,-2.963074449006058,4.659138459022096,0.7500889652527538,-0.5950197584794572,-9.57321798309184,-5.247906138519092,-11.368462634906564
-1.35089145342195,8.268259655103082,-1.8381796400610948,0.2656067999304431,0.3396049706969594,-1.7567541068275547,-8.865272487447335,-3.270242388852356,2.043808313096797,1.2952814796565837,-1.1127586461592496,-6.127162491962809,0.3170678690911828,-4.731211334209057
0.1658650994973364,12.517080777090976,1.070249055882293,3.647617171747384,3.217687809948208,-1.849985718245912,-4.738374116941799,-1.3695499601570766,1.8358714258535,3.843291137973971,2.330557136469828,0.5837001788163482,7.705311700541209,4.72765245157126
2.905066525293828,17.537456707481383,6.145129496975202,9.00835402248522,7.469144624888406,-0.7180022784151683,-1.0501466432234243,2.8196508837935816,3.6582527507526463,8.714656846917578,10.609851442375057,5.440796296824255,15.04643504138158,13.537870661484604
4.295662060204914,20.86446725177249,9.2155940768532,11.688947903085689,9.110439529098718,0.3374632303500351,2.3772322319506856,6.450226719425729,5.251259221693648,11.115801931633763,14.995258585403109,11.06598893377031,20.359908292065843,18.14519368507041
1.2565818796915298,22.117165323722872,10.44156357896454,11.258488801053954,7.565369890948909,0.6229943182565432,5.228404862386718,6.500112764695057,7.582119314423977,11.378479236600766,16.204291924578882,14.430508369972214,23.16326847497378,18.410131527953347
-0.8969752066086739,24.567991802354413,12.399677817644733,11.389128272467383,7.153733770979153,1.7190053839598225,6.9221825466849936,3.0218518151935108,9.390867020405546,11.966151722714883,16.65948522664119,15.326191021346258,24.994519196314243,18.22449910223344
-3.373779784404327,27.693417052095302,14.305813404967472,10.97163543160516,6.931656236494506,2.209483966778777,7.466694939722288,-0.4500971877285344,10.447733043099602,11.9906148388526,14.60887890976337,18.63432454229935,28.24087385252552,22.262713150574427
-4.575898565895818,30.25487384948326,16.429527784987414,11.389814821078684,7.010572662602356,1.1324935956581128,7.638087031692127,-0.01139216342807,10.739929930500791,11.881275916331706,14.340596047963878,20.45040501847433,34.07672515910116,31.558308905479144
-1.1665531774384714,32.72745494525597,19.08206596674196,13.164553730592344,8.049845295334324,0.1065694165097609,8.07668059877139,4.797378678647959,9.825871935208902,11.882604168670918,16.009915968092695,20.07707673679453,41.14281195548763,41.9734472436194
0.4957788412797326,31.648283219922423,19.295188832940493,13.5748601080569,7.560709055339022,-0.6594368411856872,8.3458269296344,10.186655549089044,7.925292282116493,10.869865733410617,16.623036187904166,20.88476944081292,46.14963459278738,47.28444883382676
2.3689978483904044,26.560088518945182,16.980488989164037,12.975195646831391,5.650913207786092,-1.376953183551776,7.247020546400364,11.3294635170007,4.794798224128427,8.946411297946854,17.08359890167525,18.81028494581213,46.148529402733416,44.51770288822608
3.607225537551876,23.657153356239792,16.924066234777193,12.554622684858453,4.741106751880845,-0.8829946753814077,4.319626909769367,6.786208129284846,3.6653914107484,9.184086367960976,17.048505767133083,17.439849335900867,40.86694039294392,36.98239908561973
1.0511156123381329,22.365970163839428,18.749166664074775,11.89777632992682,4.473549810040802,0.2878952588150673,0.9457972523485968,0.0754836334375026,4.772202649219436,11.653517821358864,16.164494507963052,20.35460586738637,33.31286339045638,32.17121596699583
-0.4966426391910407,23.504379720158173,21.829836445220295,11.877824005028046,4.660622162601199,0.1537981187848347,-0.3963424990730626,-3.157804386778558,7.008442085973878,14.146562967767718,16.51439124251878,21.631132540801374,28.039960891011944,35.942345894028755
-3.485522215467043,28.54739347555069,27.22633113321491,12.697863047444946,5.763499373579315,0.4702415654085947,1.6534203618431818,0.055391658662713,11.290149632962072,17.343345281066824,18.056354996778605,23.86295470817355,28.1817057432757,47.5824923705148
-4.802782230574591,29.14934857248809,28.593836609689227,12.780356850117062,5.829195020926887,1.0204404318117302,5.745700051781481,7.423428861845041,12.865753859308146,18.460993969264475,19.08629194188368,25.13174583465661,33.31747416213708,59.79758466679258
-0.8187502522096535,25.495676690759463,25.690912294863757,12.304782551128508,4.850581228090425,0.4036233680811973,8.606971176326532,13.210158515876396,11.46871712904924,16.98430578300222,19.973406890702847,20.5101121282156,39.687406051186784,63.821472161429874
2.2323095996414213,19.551746603798573,23.052069309136293,11.238333902524666,3.9518390892328097,0.2885299653289757,7.720082489058662,12.79266717990711,9.12041345721103,15.29237342759333,18.75203099784428,15.97969147431232,42.63267556422117,55.80757165728542
7.241184161457349,9.35054176843348,19.273907763984887,9.24646790087104,2.7175585878890467,-1.1335444974491655,3.473248923459879,6.097765283575633,4.5850940951284205,12.58627833439444,14.950080506624818,10.415431481155618,39.59843445582801,39.67608609238786
9.22439595823286,4.30367651386872,15.968468447239651,7.353965666204685,1.8935693606549409,-2.8952174060093885,-1.2567032892373955,-2.72507337612962,1.9316298301829653,9.998682161534918,11.48455744859249,5.199891967590714,31.669460572503283,24.33347079915328
3.564102283003288,4.818326432774591,13.763167566540895,5.474554624397006,1.6349883214891394,-2.1611403509399523,-3.684102547298052,-8.721579844678907,1.429257885171057,7.834718091936128,7.851618790163435,5.51194316887033,22.638884783380284,17.41812073732586
-0.3309740106248969,5.339178118358744,9.513321773928867,3.81419643067616,1.222186087789468,-0.8976608134577038,-3.3892158196590216,-9.583436125253666,1.3148431365877993,6.249757772667807,5.178638216056498,5.640225855789558,16.311591734687674,20.182782015785648
-6.505894536902705,8.078331322415195,3.641080743207906,2.6171902993293634,0.859830339989239,1.743796326261363,-2.21007280728524,-6.512999085142269,2.6458900055167582,5.715049292905125,4.09148963108027,5.799927470514655,13.95739583503103,27.071556494627487
-10.26683484938021,6.345523992601706,-0.4965922862830174,0.9813062523445444,0.0908308018460239,3.942693248502519,-2.080992820407502,-2.4067830491154147,2.9888293931961343,5.061587633801646,2.832887339169768,5.751696724735631,13.70446573395795,30.00069455281714
-5.602007838691188,-0.8270922925033929,-3.167357080747776,-0.9931394952228324,-1.2100228596485971,2.704992479634353,-3.09749174446954,0.5713586305011482,2.2137104819680538,4.495468180881858,1.872224759455743,0.9656853399361996,12.248062099242482,24.052730430754035
-3.8278353051475142,-6.3798408285153565,-6.716596381134622,-3.766429040758746,-2.4201775393435323,0.9123894525259106,-3.646922354702781,1.9485446330117568,1.0070264523941987,2.254933911925362,0.7925102615477451,-4.253317751514739,7.533051472962686,10.565848145333756
0.5378934961386914,-11.914491337746613,-10.576541627333876,-7.570776402174592,-3.66587121008562,-1.3767799504760467,-2.241591220550077,2.1574983577892546,-1.269219957152347,-2.0303161281267803,-0.6460092914808115,-9.012712906908323,0.3507014001364474,-4.26924599308164
5.800969497709671,-14.85935591800024,-12.816995732480311,-9.435037293098516,-4.397030131433093,-2.9224479934840324,0.9106301097734716,1.4135731667651577,-2.143582747262407,-3.879666312009808,-0.6804212290019637,-12.057254525959362,-6.338266711019362,-13.920221808770595
4.656211658395758,-13.925888673314608,-13.586207943290365,-9.31042967140085,-4.460019041648401,-1.830580711077209,4.0362788790578605,-0.3545117800383863,-1.5387979704147063,-3.5282222883664174,0.6385223630678938,-10.263786512911496,-9.741056669651009,-15.705975064859487
4.270428759993644,-15.005733716283627,-12.136419324148283,-8.772652417741154,-5.194093810860643,-0.4755863240773001,5.240043918317596,-2.604901346628949,-1.0377640048603662,-2.239383441852903,1.5299820098919676,-6.908267548957783,-9.34741018338319,-11.792292062396116
0.4672123092419973,-17.3221441391798,-7.907221231488878,-7.132648917648182,-6.500864544529577,0.7796828281515331,3.796310342887871,-3.668117269283357,-0.094870208836424,0.9635518716976172,2.26559106859838,-2.1732549161955346,-7.210139558623673,-6.714472221733914
-4.738183174531788,-18.478213859018965,-6.312015666603751,-6.372162043853647,-7.205857600998547,1.5814429282659055,0.4025986020628451,-1.65788568973079,-0.374255345313205,1.2164818828452633,1.6267666510770935,0.3655269667459286,-6.293077440812972,-3.774273767014634
-3.737573703378032,-19.378941467751236,-7.385289656579904,-6.74229436670988,-7.500977012287535,1.1709710094956725,-3.3059746585903085,3.7354758683025295,-2.176853473951104,-1.789713341472435,-0.8592796852401947,-0.5292665935300556,-8.262195567200529,-3.266518108428876
-0.5792476040761498,-17.950317320321165,-7.606478881631615,-5.865507135238899,-6.695242173177296,0.6800662829349317,-5.354456471709369,10.290404482754433,-2.2265644978094787,-3.2766349658759464,-1.427856148743736,-0.684333714458392,-12.396896533158426,-3.6420128883070495
5.360935744436992,-13.786384143090748,-8.126830460416286,-4.16493761761668,-4.492736300517739,0.2991455731759609,-4.114848977115699,14.327449104223495,-0.7998917710610212,-4.249333974683853,-0.2907085028261917,-2.566016304526298,-16.342047875719302,-4.046420043066405
9.575268321202117,-13.753127093649876,-9.651150073472932,-5.247183242629413,-4.4902380137910285,-0.2241790786070448,0.6480765093076997,13.17566072312335,-1.682353845570159,-6.725645611846936,-2.882842103016912,-5.160661631409909,-18.049603525580345,-5.579433785772544
5.5328529309785175,-17.78512341666244,-11.921817841666206,-9.068896932648784,-6.7040428400744645,-0.2879918512348922,6.82679045361914,7.048738887024648,-4.515424341792102,-10.159236018620955,-8.84932162127797,-8.743332295485315,-17.454323695420214,-10.08088477811539
0.2397693797993659,-21.77480515809603,-14.894368300669813,-13.310002113858593,-8.582205756904177,-0.0137061874533877,10.363829282068783,-1.1945821854788503,-9.46605423685016,-15.815090524385411,-16.95128150493807,-15.88147704071509,-16.663620159537686,-17.833996891575822
-4.61593777594168,-27.17091278783113,-18.66811685464564,-18.73893166469531,-10.867476179068662,0.2894675402127177,7.611306302628684,-8.100821935398159,-17.422397027167282,-24.12453404309707,-28.39431111112681,-23.663509998417435,-18.494298732669883,-26.706503287475208
-7.148507794636068,-28.762670695112664,-19.396651331893924,-20.421088575847843,-11.218015113740432,0.7539614723923731,-1.668522636415091,-11.72535231854672,-21.11383573445131,-27.666855251849658,-32.83537223189887,-27.607438632687423,-24.36109102089473,-33.75416904110399
-4.270295527190664,-25.68384111345545,-16.716364091290156,-17.633488365664064,-9.100716262462662,0.5657893877020899,-13.279068894466704,-12.255692421161918,-20.32891498492457,-26.25422293384808,-29.533307415570075,-26.916350620926828,-33.023060590680366,-37.699010541101146
-3.7337304949468506,-24.411861979282627,-15.427844101043991,-16.768105561049648,-9.291534239482669,-0.7905044308267708,-20.994642213601693,-11.11263394260127,-20.70065763505553,-25.797604865115165,-27.73896437302602,-23.970670713382017,-41.11346831151785,-39.69217112004914
-7.01630520926505,-23.723214453585243,-14.742589989287373,-16.720565425739558,-11.354746390510446,-2.325797615716916,-20.88436237324088,-9.688633576557072,-20.68801440770144,-24.73488372662622,-25.133639903854565,-18.34876387322764,-45.0791540592262,-41.498979641675895
-8.70750924418399,-20.79747121037521,-12.06957243413415,-14.89501192154654,-11.087511610337543,-2.760495326298157,-14.064135425609171,-8.752138457109808,-18.559484212448595,-21.74812626734786,-21.617552514587757,-13.633960702451448,-43.135709784042206,-42.97130522214377
-7.024650687979955,-16.425107708057013,-8.023354078008506,-12.155584830949111,-9.124975004605952,-1.5963253863735312,-5.525900629939443,-8.531591127406955,-14.829592037100207,-17.461526531344436,-18.42094614825995,-9.671004148812097,-35.93331683439918,-41.54456409068004
-0.5793235521928343,-9.038225178640204,-1.246773094015604,-6.460079807292432,-4.365009734221002,0.8558463656906854,-0.0786492368888858,-8.86033415770953,-6.698432674527233,-9.113994344407008,-10.286251561215828,-2.7012676615315256,-25.73077768140256,-34.53164699808506
10.66578361387191,1.9218042016869183,8.81302475946272,2.688412998188931,4.143513291276577,3.305726670080049,1.088784601379018,-9.105375030913072,6.385723849550699,3.6645230816876455,2.760724745349512,4.585145193413269,-14.99296590316964,-22.136650542461894
16.83881072345261,6.011001350522016,11.403971925994544,6.016107840236617,7.100948220025609,3.1735179584560607,0.4612844892194516,-8.26077533497839,12.50207369494862,9.30920879211769,8.576979043071427,9.596909212872468,-5.505521629954323,-8.266687908490432
13.162440485307451,2.8767586564444123,6.087386603964835,3.385412869694944,4.372718299247543,0.4917439671302225,1.2678028884274113,-5.575759737688209,11.5006250320507,7.587155183489593,7.317290296612625,10.897241829964164,1.659064541540225,1.7794157298791615
7.134435279605656,-0.6644438233365499,1.5017740921643783,1.3510358874952535,2.390380518016889,-2.024444006220161,4.487864050632879,-1.3402309259933816,9.773802225993665,7.007276962082319,5.992180506044499,9.513731576233983,5.830775006526949,4.821725876164109
-0.590465538763129,-7.018377556419985,-4.7069411996960335,-2.071432891919592,-0.8277971155826217,-4.02014463222358,8.351879773003184,3.063068695199796,4.572829237101843,5.082942950821354,2.0013700561881347,6.4921396969699225,6.715760513637154,1.63878842247264
-5.560233611277552,-8.653825068905164,-5.53139264051662,-2.139198830504621,-0.5750208587418381,-3.563882882024444,10.316402826141516,6.184233542424703,2.771079307694005,5.199703430419952,1.1397487551978236,5.186174063222009,4.725066386284862,-4.069891044008802
-3.598108178809517,-4.2702702061100455,0.8120466809859161,2.337956179038304,4.302314901462629,-0.791826410491469,9.351010827648246,7.76753201703702,5.296001773772418,8.665870512470983,4.495989842742121,6.827811496359461,1.175187881695205,-8.35248218470759
-1.6625519087034153,-1.8266026281348144,2.419517301297758,4.030947116025222,5.539082747690786,0.1458689668747623,6.53880449713909,8.914959654923237,5.730270265433087,7.576544179399594,4.9437744232086205,7.625808141698786,-2.094256441974423,-9.117192120596606
-1.1656089076749088,0.6032985134824695,0.9419269790142946,4.104388506321799,4.172684109809861,0.4985749319593611,3.903973703410351,10.789275990392122,5.745450288037847,2.700293542779437,3.877703984047913,8.571240059834757,-3.5961915276089904,-6.55753993139005
-0.6264506499916765,2.31259740855068,1.2587756134303647,4.788591354628294,3.689137286561977,0.7940448270221833,2.9152096888911974,13.090428581496644,6.01439798901057,1.3208216910966624,4.459435956362652,9.05409435221025,-2.958478073063196,-2.350597971022596
-2.0389783578207887,2.152550103184032,1.5540962891199883,4.974559187902494,2.7716793454760245,0.951973185182095,3.928385050822168,14.031548560693931,5.800812191511531,2.467188205764582,5.859260450626488,8.414441047391147,-0.9648824191916638,1.3720113964169318
-5.421267856618536,2.419149249455543,5.404995249201436,5.874036891069927,4.294179988335185,4.029263405712997,6.530102910494129,12.147703217075248,5.793290412888728,4.780647045319192,7.783689223825106,8.953631483994737,1.1835503981881086,2.8463518192973103
-8.206674747422719,2.583726107758125,13.589754012447424,7.658953631529156,8.82782702267105,7.913381231086032,9.92797239334636,8.232616574345993,5.908560920174644,9.647728974993562,10.681043281651494,9.144871104858174,2.782962752146448,1.4014423269863077
-8.447003592037023,2.489252085149636,15.099252747545371,7.489824852999418,9.462623323222337,8.180329277595748,12.947956755655232,5.190114654534421,4.674752779951652,10.048099589679923,10.421597156966827,7.267655996186937,3.9310431484487687,-2.0269924743938805
-4.547561668746472,2.4097709559837903,10.164871851661143,5.461600854041988,6.559305716358104,4.609992466494504,14.060566336773618,5.448808740026601,2.052315316893269,5.623818132985205,6.715405037927042,4.206113643687415,4.981798426381684,-5.166758662828065
2.900149763451517,2.9906215063574373,5.03997084156895,4.617610456475448,3.324432359623659,-1.4554707704809082,11.980870152576902,8.197668137766879,-0.8886586883841875,1.6981939803698525,2.142541741050485,-0.3253787175619037,5.766121287608247,-5.747476790474699
11.573411521428918,4.386123313120437,-2.554667911444489,4.53602611335352,-1.619807239515561,-8.902145611541188,6.617358697633979,9.35401387534258,-4.477616893789536,-3.292058266973688,-4.335524947538696,-6.58007457609076,5.50553543182095,-3.1435973582709025
14.2450987200185,5.316143209311632,-4.789594443990983,4.635367949333814,-2.65667876554101,-11.429061077674293,-0.5142692718775681,4.874678041204607,-5.8915923540737,-4.544415188617636,-7.20048206602274,-8.958488876951632,3.668424447953424,1.0917998451597022
7.931696185237154,5.930704238479722,-0.3926416487251229,5.473939198584035,0.9229342791291032,-7.472123824888325,-6.96749897725017,-5.267885048541821,-4.729314116493084,-0.9781628313593598,-5.765649724211582,-7.976854240646666,0.9253721237279464,4.476632178351864
-0.0254095867956808,6.036771425541094,1.5718747168335678,4.387899697454394,3.1941105985237432,-3.50239218555009,-10.67185322553379,-16.17018708326681,-3.1840799470432155,1.3529412980239008,-3.3701522977610576,-7.443544101919042,-0.9619903604609804,5.65535873646505
-8.883685560553516,5.347758448914835,2.989669872272648,1.2388290475780606,5.46485873137514,1.1748701200845453,-10.8397568047654,-21.37580200471574,-0.4754389408528861,3.7184689999834095,1.5353588056881118,-3.18742229638583,-0.5015991129852146,5.386628749189772
-12.186838187663446,5.622096554729247,4.095891073398391,0.7623082388513186,6.541237674987805,3.968059182909874,-7.928578905998664,-17.884451442341604,1.7359820654286149,5.412048416617716,4.876771952820883,-0.4027751532361298,2.1265738481362604,5.526909686193324
-6.304200095657866,6.8300433699111744,3.5040730784586223,2.644679600913555,5.415637745206481,2.141705466669645,-3.059106919098596,-8.485616014546192,3.1270912584699744,5.435258969542471,6.2125541607594,-0.481369834242223,5.108178900699521,7.049448288799461
-1.3957450851327675,7.948066606502313,5.419654482809228,5.189061479519616,5.604675420213011,1.711940694063223,2.3681534128766586,0.6173508677388106,5.214175130430275,7.4033485122461,7.905501187606778,3.192492048189384,6.62493869356889,9.13947784046957
3.19268914337007,9.334320481931982,9.637517733944147,9.36498007807861,6.620635195217669,1.8915202810077565,6.691607013259304,4.768503876939715,7.538741397512781,10.979104509191252,8.874520950858475,5.582432358373071,6.562523825253891,10.295671128094444
5.801413843651319,9.679604761928717,10.065551028684052,9.773735209328905,5.954470918644152,1.0755541053444375,8.16937428255715,4.072160262881752,7.991399918565447,11.355133662999302,8.337188637802427,5.354686878709436,6.554686927936245,10.199883171229438
3.549982788878519,8.764718741518308,7.0765370661400855,5.921780303499498,4.010651241392672,1.573322370041344,5.761246628099698,2.269324843019003,6.504347865769086,8.813281166657669,6.239395584255808,5.532912764214212,8.204847577231668,10.175049522900316
3.697602356279706,8.35867009755664,3.066049400653685,3.1768970117063287,2.0556366641417814,2.1607171359415216,0.1189733904783381,2.6860911701412924,5.314078020959005,5.954927397679102,4.048986835758097,3.0648618808243104,11.175549259035751,11.48670242980931
5.16753790085139,8.167464251874861,-3.226428877400698,0.3391050124332541,-0.2763454811538298,2.1683826606411944,-6.216557516520787,5.1674912612130015,3.9988544594902704,1.8434644243146276,1.6168051926917308,-1.3847486461062002,13.077888373471392,13.195598624440738
4.133602591513999,7.78126677952128,-6.43324529250909,-0.8500395031500033,-1.3420432145154375,2.3263780091066395,-10.007131363563346,6.698004864394722,3.2439672820014858,-0.0402822981970016,-0.0586012638642929,-2.6528416657958958,11.434814858951537,12.132127384680397
2.122140807465711,7.476757908113718,-6.031143321695653,0.5885594424468054,-0.8067804379444775,1.6952607843180183,-9.3257607621421,4.795116679401637,3.504168362572928,0.8710599508895421,-0.5499326433939147,-3.013376200259384,6.023516773937548,5.663245888150307
-1.9804155656482096,6.481073244216988,-6.327457968606224,0.5833238025056119,-1.1881844254656164,-0.4613852331132302,-4.9518359628544175,0.2237550375438566,2.598594988108713,0.1487036664878304,-1.8421737262884208,-4.658693476177728,-0.5241738855991329,-5.051715249400239
-8.220027764931357,4.743881737911575,-6.0182127904232985,-0.2927119442595616,-2.1100279871178302,-2.708571557364569,-0.0096450765379003,-3.576682030298528,0.73511303400101,-1.405514443890909,-3.622472136868515,-4.066798900088799,-4.501718894954045,-14.6437380204661
-9.459660759402984,4.178627648815294,-5.429108189944513,-0.4048636393215267,-1.9827314104216325,-3.556287376706279,2.030681236570917,-3.697080999049497,0.3454830798549058,-1.4842025528190632,-3.179499858265756,-3.389046921648167,-3.881131915376873,-17.015396036755202
-4.999950675979452,4.749316071131699,-5.0351199692885205,-0.3560481023403011,-1.1194941909174234,-3.148214592470781,-0.3598119454518311,-0.4510364203653374,1.2072357934302589,-0.6097618886236017,-0.59334558394602,-2.4321173972019814,0.2058730341880803,-10.13691572346265
-1.144368284074489,5.116300296089311,-4.1415559685665,-0.5941290387089891,-0.4816447278970205,-2.474990225087328,-5.783217345619672,2.999364826002175,1.4824682286190456,0.6093349103905421,1.45439800427607,1.5629035651134529,4.471484208031399,1.9807115774023352
4.409950700752221,5.656015800641924,-2.979257457548856,-1.0237956492735458,0.1167958666526883,-2.5743831611370083,-10.88172626095074,3.653064514137867,1.5473639372767491,2.497165432952363,3.4175904706266937,5.638131061216075,6.138986475959339,12.063176240057658
6.605157042560839,5.657828303899465,-2.826433161708528,-1.5250132383169124,-0.1009857091167129,-2.8612255932728017,-12.521856200818169,1.417412078572486,1.1206764040063086,2.8621397345248014,3.364275283629944,6.738425483522694,5.079153614189959,14.928443826882038
2.0315712564361155,4.885542650532424,-3.773131615878009,-2.184533011637892,-1.3931642692559114,-2.227451945103545,-9.662860169248626,-0.963692698539674,-0.1381917132720206,1.4686559997272035,0.5979421710447732,5.650208063847733,3.650298010180123,10.98968902300062
0.4065964040737495,4.884952802052561,-3.5710011313522787,-0.7145415616553599,-0.6158789020083358,0.1082517235304428,-3.7370217992141193,-0.6523921138709312,0.6908110511973865,1.7991987815662691,0.891246930557295,3.2453490451685227,4.405012073515326,5.144333045864617
-1.8237208356538577,5.498275582085548,-2.4094303880992904,3.109054370855959,2.197703079503464,4.7666299941017725,2.466148270876665,2.473504672378059,3.652344653130557,3.477504535864401,3.9196437393300783,-1.2897058943610442,7.669035137152765,2.327880727475204
-3.3786963496371367,5.356491723094034,-2.016311677156919,4.135931149639012,2.9737488815140964,7.3541694686926515,6.420967514251185,5.514847195175214,4.186157831796758,3.5650180783889884,4.824898611897926,-3.468291418673298,11.134041899377117,3.7340129502108574
0.5868507639501117,4.651791238629982,-2.050464367303785,2.6020458278219216,2.144733542207552,5.489930820271972,6.912538583880931,4.984647891870448,2.6524226198700704,2.5114931813806534,4.510396651725108,-3.582397748981756,11.827887705749152,6.742408337869016
1.8538523076411475,3.994531942996301,-3.223479361493936,-0.3424349386263115,-0.3528010482566444,2.471646827914161,4.148443573235312,-0.1969759775850814,-0.578873127052628,0.5420335136657352,1.004881741315767,-5.450573316938123,8.687137975278103,8.046934400819449
3.869928324265985,3.1655609060168786,-5.907807705946167,-5.880118764297842,-5.423926897478967,-2.294881965068586,-0.6863757479557719,-7.693714902046246,-6.542397808552972,-2.905946007455417,-6.758127725787027,-5.640552082586118,3.426444730748156,6.724595103153936
5.740616416424562,2.423761024754102,-6.225887875537952,-7.318461428086625,-7.356120599019116,-5.071199431234441,-5.929047173709366,-13.47353861751654,-8.95027343495211,-4.669928830602072,-10.077043456568452,-5.810811519880323,-0.9969323364984906,4.470633190885399
2.4186075359349983,1.8509791870561032,-4.17509225850702,-4.3093229388574175,-6.07549708912402,-2.753779890017591,-9.870767198961882,-14.74686818757747,-7.624948237292847,-4.6613699577181125,-9.176293320467192,-6.690863687812175,-2.8169903720668046,3.2229593611818963
1.214975369257345,-0.03821585485507,-1.6766646413405937,-2.086071727736907,-4.998807258818111,-1.05876933065055,-11.26394934188948,-11.79205512572188,-6.0012736921578815,-5.864511051863499,-7.876401888625965,-5.1043336374215,-2.577514433326769,2.8939540443746044
-1.3986454953167318,-3.2874452190765955,2.1445732725802653,0.8356038223660661,-2.8735288880931638,0.4328028686115713,-9.862114492411791,-7.421476561891257,-2.6139051831551017,-7.674072898872046,-4.30483407687737,-3.750844305524009,-2.123865884225059,1.5681345027503966
-4.756089968297174,-5.032417503418525,3.2236832993489566,1.2395393446075056,-2.052895553119571,1.7057394213465455,-6.622036151100263,-4.733688342078502,-1.653573393917205,-8.840263329741653,-3.5995545654767795,-3.651729955173805,-2.698449116112979,-2.1505231107088374
-3.95366509792293,-5.416433731775144,1.102158003030698,-1.8119353972037568,-3.0205787052816526,0.3000303897190351,-3.252172251611114,-4.957133886930328,-3.6720192499759854,-9.722938004894496,-6.30433354005795,-3.397430907177553,-4.040465929901278,-7.1863902900738585
-5.621086208678068,-5.14810386985624,-0.362336737188285,-3.2315082399003394,-3.352492634564079,-0.4622210759211838,-1.2728013838800862,-6.888235983408449,-5.674870649872603,-10.214680263313644,-7.764246828708909,-3.8344853747499417,-5.156884477583291,-10.54578722764068
-6.660446133824414,-3.579993959377373,-2.1351414781643774,-3.864931683393166,-3.677996297431209,-0.5969829091391298,-1.1873524810898868,-8.108975258473578,-8.777669100166067,-10.13096723983774,-9.166558223007195,-4.700178347866445,-5.685820165957146,-9.910982744696309
-4.279015293276112,-3.2788170417994724,-2.0369355233905986,-3.664904559216318,-3.495708556491056,-1.187930291289077,-2.3111704300981355,-6.9132113147771,-9.604130128397223,-10.272556774554822,-9.45442087172785,-4.143309069110856,-6.293261332721875,-5.745804689921982
-1.6636632007505117,-4.345039560224862,0.6679284371994192,-1.7238627262332686,-2.4546878357819817,-0.8456234462569289,-3.3315665266361183,-3.510662003809541,-7.627711628203961,-10.603030318524702,-7.914398940759151,-2.928422826182417,-7.71405438586401,-0.897133150798032
3.047384675587762,-4.213934360776938,1.20551538743982,0.0253641053389698,-0.5796393990467038,0.0716280281798776,-3.1853185654997387,0.2725846727606078,-4.997746915761214,-9.089792584268464,-7.239131475143773,-2.0250069909584703,-9.563923308848624,1.8338549797833807
9.063871460548746,-3.3695948849716526,0.071407820026825,1.8758150763825785,2.438852239251941,1.2587949492553776,-1.664220422723004,2.472297110406325,-0.7386380435493988,-5.719167855030222,-7.056799712953748,-0.122870810539334,-10.33267901160874,1.787124154383097
