AF3,F7,F3,FC5,T7,P7,O1,O2,P8,T8,FC6,F4,F8,AF4
-1.711648975589771,-0.5930020800482612,-0.3481689713473637,3.377258359382325,0.6361772746918176,0.8291886168845797,-0.9715104775017692,4.057635754066959,1.615705392772249,0.5741014089621901,9.228026391480388,4.64953760862187,3.992118391223604,4.509361816067349
0.3642041100230866,2.7033644434492183,2.615695412501405,3.093956607961593,-0.5204256652717678,-0.4444549040013178,-3.888962581841825,0.2973487957932334,3.091928705781653,0.8884153459272883,10.40613872702646,2.198966313807187,6.059947511067068,4.558828981046778
2.4062748499611075,3.3683344071826227,4.567111377218723,3.386068596508401,-1.509508698542411,-1.5657127593510711,-5.771074491464945,-3.800215788088007,4.154921504578975,3.13747456139862,9.81421279301783,0.5364943085342002,6.6586131348509525,6.286674290249087
1.819470071972642,1.118463009070397,3.951847532800527,2.9755984685427395,-1.8296371884802276,-1.572418461793204,-6.333434175907064,-5.08450249927613,4.290245960294937,3.57993625525882,6.770088701410432,-0.1385401480027006,3.764814572154755,6.01414628215439
-2.246473432599183,-2.369725422623417,0.8646325322973416,2.5513133419683918,-0.658818867112649,-0.6075131495174694,-4.194550587521667,-2.3376651014425707,3.335419206153233,2.977636848480468,1.39558052477696,-1.0920089580362866,-2.408449861236889,1.0370097816078996
-8.003262961606781,-4.827739545824027,-2.9098244058660483,1.2669259365160503,-0.4692231461344401,0.311694992457541,-2.3721136457278,-1.6738541384253631,1.8567752909517368,0.8063603199508902,-4.732212704735188,-3.3879874682428963,-8.680924615975373,-8.265485876057092
-12.339576111377596,-5.1391059397007846,-5.274005506841108,-0.9676802581266166,-0.9560374451197884,0.8638239112988609,-0.3514560936772866,-2.192145085558292,0.7430329947496181,-3.619928120991694,-9.232402837942193,-6.505388334974064,-10.944898993734942,-18.577589672369747
-13.105024916939376,-3.953990967021341,-5.3306207454050165,-1.6557996271689823,-1.3980369411261613,0.7959694789028698,0.7757584677445146,-2.0147641132935834,0.5110460454480368,-4.646617106310845,-10.48466031908789,-8.555057861627681,-7.410470810331576,-25.58793455805278
-10.52227800418428,-2.824653048593969,-3.784277961149376,-0.7977384480650416,-2.203354071316945,0.1500174825327342,0.4070714022774109,-2.095039910260857,1.023748934602562,-2.195058816449959,-8.791551516426813,-7.951326662080709,-0.2857551787128776,-26.4135454351201
-6.839782730083111,-2.852666301554246,-2.1270458386960787,-0.2696105398047214,-2.367318835409559,-0.0904196717919679,-0.127536791276405,-1.3157484698844557,1.7570000468734657,-0.7272256902081122,-6.1508783848592286,-5.077614546927281,5.61452596922859,-21.17344333111337
-4.729946338770974,-4.069123022808238,-1.5210326574551782,0.432066618161443,-1.8027956679576844,0.0592300394566765,-1.317565189653796,0.4629932265315845,2.198367797632947,0.8983524137887673,-4.831728953385905,-2.3937750421095583,6.291578603073242,-12.845287663653416
-5.624122386094546,-5.840211036448757,-2.2699760218299883,0.2701990150777311,-1.210484202899666,0.1728121351727628,-0.5228493507487748,1.0360928748589855,2.020656214010489,1.3893836645573017,-5.861110724913074,-2.6529668020421697,1.3705496170459308,-5.396544868461202
-8.920601593904037,-7.58892314075856,-3.980907436337483,-1.1015160213886113,-0.3495398644475226,0.1306606001904385,2.594848815215693,0.5261481081431659,1.10810092196844,0.0148526134671983,-8.455804209343459,-6.50779220201902,-5.772960465236748,-1.2852911581828796
-12.353511082794286,-9.037584688510892,-5.915893594241665,-2.76724034472628,-0.7528455514401805,-0.2986318210090016,5.759964497723746,0.3698627279027164,-0.3367139532793357,0.8619868618625441,-10.626792110624486,-11.493017079352908,-10.504862369051692,-0.0765919221686308
-13.264390405557728,-9.914564168814152,-7.167255288456705,-5.098202007108625,-2.633524550877928,-0.9683577405986216,9.649849490045913,0.1724273359749719,-1.669726353002285,3.6242842235850095,-10.40667161770262,-13.459767050995197,-10.07824592922854,0.7168521017469489
-10.15727084339436,-9.705398249390097,-6.788570787096987,-5.513164500197792,-3.4153365294140725,-0.9519483019358262,10.553680257070924,0.7342033586126124,-1.9750339389968667,5.886832571530614,-6.924327322933162,-9.574051497931128,-5.1768136278726855,3.2217301903997537
-3.711140814973223,-7.892514653841722,-4.168456357765786,-3.716982645280479,-3.373912162989783,0.0438405371545429,7.852539577061969,2.321373545973181,-0.6113331213294879,8.34005596992791,-0.8251706371966807,-0.5703051962687746,1.0345531276455455,7.299043132011082
3.443700094980813,-4.4833541345589705,0.4357155987393672,-0.2169176375356001,-1.164337166068085,1.134499236099915,5.585002288327259,4.366933233634397,2.2436612635461595,10.441385369624642,6.047625667728143,9.604081263533342,5.376218403701936,10.829234998635272
8.216409465483443,-0.254151701334619,5.688338891133502,5.810716445760875,3.908059497655591,2.1903865647368623,2.8031745651901594,7.170861136402548,5.5358628299144925,11.836694392126825,11.488364549706477,16.521883403898794,6.685199380520621,11.824559623150405
8.93801324512196,3.5745565907254826,9.674233876690623,8.701480393281733,5.961676937749632,1.9538326246699271,0.677454277094125,7.26479419689236,7.840870981129633,11.910301809890496,13.899937875665378,18.188496509856414,6.012898816996492,10.265619388166485
6.349437152730186,5.9662682748964135,10.921273784897805,8.213270815768944,5.1521931022304654,0.2818547417775691,-0.1070020547565926,4.315882533195318,8.056046274936586,10.276305900732778,12.973871365739218,15.871254714011464,5.151199413144074,7.916063246734688
2.9945593911396147,6.545068916714764,9.283485803957724,6.052141588246299,2.415403934930778,-0.7296638793542575,-3.153979069907696,-0.1472833676667671,5.875087816512081,6.371226093703279,9.754526630744513,12.485079117314209,4.949406656818901,6.4885436224445305
1.5071147503555544,5.72472411078448,6.076477297262501,0.7033006167487421,-3.682798314609995,-1.463195196496317,-8.158683364115545,-7.117092061901817,1.94304501537041,-0.2721633700175367,6.048853911728245,10.236105388020423,4.878797015418307,6.1860045667374015
3.067242494273632,4.563724387016837,3.370130896392072,-0.8257580668872004,-4.6754086332865485,-1.116053581170075,-9.857635975017,-9.358416830958769,-2.2548545577906944,-3.645319408575552,3.5027801904848106,9.54758720150236,4.045104664793843,6.071781893953787
7.014888281760812,4.382617199554268,2.868651025212811,1.790134434569356,-0.2389522681032075,0.1953875598550314,-8.515418266698486,-6.278708852534091,-4.834490476179354,-3.572188495677582,2.862553465641329,9.744207179332038,2.485049517047897,5.608208939969812
11.58973623973228,6.090894776415505,4.992150586160181,5.9219930279482815,5.24125504612782,-0.4266623010011221,-4.805066604078403,-2.3027042216755564,-4.35829546858421,-0.9351706396065804,3.8011005885994695,10.25476310982478,1.364999863697996,5.435708628712243
14.994193441356106,9.423078487371743,8.616367783632398,13.382238260345163,13.80933385427198,-1.4019246450334275,2.5449085170329586,4.437609054471299,-0.7737380777074829,5.940635109013236,5.311566149024418,10.921603708963085,1.8433012786867544,6.456068270105031
16.048613492689043,12.71110651666754,11.61195078763065,15.302064618962143,15.761332694298623,-1.776932704437997,5.419132861958961,7.541619328286086,4.279661679903042,8.797306415009936,6.3397742608128365,11.358961711176525,3.749985503167254,8.369959504638832
14.3274774282145,13.743195971435412,11.97500318858282,11.079184490534496,10.048005100707469,-1.8570294978154973,3.50633536639431,6.200968036098452,8.302029148485785,7.500471829383308,6.278520538621457,10.545709025083507,5.489151849085575,9.557787938175824
10.095663035412295,11.381756183249877,9.007231876557618,5.906267368676254,4.602443590836358,0.5397383341702904,0.9226972145390132,5.014267318990145,9.499240514468724,4.5483930344058,5.13806954748433,7.556851902715905,5.379258627154886,8.672930501206357
4.266097043601179,6.675721355004596,3.836866864231757,-2.432118552947692,-2.987420044353335,2.981421221382293,-4.305409625025976,2.2828758114276786,7.9040206402986835,-2.1196625137782927,3.42269728804076,2.8589333195004736,3.181051087427613,6.251651821516026
-1.7236669190287923,2.3229886226085337,-1.1787376628545974,-5.4019137011299225,-5.53344991996495,3.013145948461686,-4.595640136601154,1.5374482966224745,5.130321246868657,-4.363609819275171,1.8281094499298147,-1.3732356070120342,0.3185626775232313,4.43796449320778
-6.3024453304518175,0.7000796363688755,-3.923547848770325,-1.9581673874358076,-1.4926077818086896,1.7597094340806072,0.8480820105305504,3.4264179672605866,3.0038811358504285,-1.825712067739212,0.8783319232479769,-2.7065925324632936,-1.432840972113791,4.917500843327703
-8.378506275480836,2.059191603075864,-3.896994665493545,0.3205266718886669,0.9517540518548137,-0.5450213258626497,6.24749186066527,5.615697435193702,2.2798384357715906,0.3839841827156019,0.6460016427964401,-0.616542881788888,-1.5077172936645038,7.170188396800606
-7.857734656992315,4.45502787951396,-2.449653494510479,3.543965300858466,3.744365693419677,-2.0786073333584354,13.499698490124173,9.147900709945167,2.4699950235714647,4.133939803337357,0.7356264315413306,2.6995590854264835,-0.8580364996189145,8.915261811107486
-5.710717694723751,5.435093047883689,-1.6522211825339068,3.868834486955572,4.673420948480375,-1.4180965900608826,14.977599859539623,9.821118744074695,2.6894755768515983,4.236667543911861,0.6089019849426822,3.92586318848035,-0.7917473621619351,8.326585553465751
-3.4416130543561243,3.971509497390861,-2.681784920406473,0.0233108936687978,2.394021919050294,0.1298809986032148,9.392566716582817,7.172046884434463,2.543485942361136,-0.1942587626178922,0.0711441633017511,1.470980815080889,-1.588824610238016,5.723813128790832
-2.1641882932955108,1.0235546926498404,-5.025414038005902,-2.882551295618092,0.5940075138937851,0.8994600801558585,5.013221908496096,3.898518257263646,2.247775061964518,-2.0151699319828147,-0.482138158328274,-2.963202299677482,-2.285256640695978,3.022142411063273
-1.8312457775966848,-1.5240389287713914,-7.089914194689897,-6.030032995145643,-1.6455417626432685,0.4513672857902284,-0.098211338795017,-1.1176775307674722,2.087650652013087,-2.3666776941330907,-0.35004174203939,-5.641184241245584,-1.7642885539461082,1.6099150369494204
-1.2553211077815472,-2.416578041114368,-7.587564923287102,-7.18259874278787,-3.065291594985772,-0.4457449326473885,-1.756243094459824,-2.673487275285172,1.9431344264009915,-1.9840491958821995,0.8109818023227056,-3.935017569421397,0.0159857572385555,0.9447347769309083
0.8638188385382586,-1.7784112328025232,-6.479412832446768,-5.407692761808308,-3.0862652729891904,-0.960824363688424,1.6267857555273637,-0.1350399270895462,1.378546236951054,0.3712103696575235,2.51502874646789,1.3558605334084826,1.8863632762384848,-0.6858200369795124
4.535444506152001,-0.6949023210115346,-4.791841221465638,-2.5209956902981188,-1.9215695629867036,-0.5580279854859576,3.8509194715923,1.566190048158575,0.1141905444139275,-0.3921633453126489,3.6733843284284617,6.552721933882615,2.4977865713142005,-4.127548111043004
7.913078919192007,-0.2414519947829383,-3.682551577130272,2.3960048098883218,1.048339037514198,0.4212007293885843,6.269359186653411,3.693359867612822,-1.64391860970726,-4.350751112938054,3.444300990080502,8.044880532872119,1.484168473322181,-8.247049287511311
8.351751481913098,-0.7769625778220925,-3.661738328043412,3.3706239430513563,1.4822221218658669,0.8682795102155664,6.579945914223841,3.2667968698564294,-3.2801214405992285,-5.92189902958463,2.0057832526581363,5.073247312067565,-0.2932534032372222,-10.89414737437454
4.4965743276720405,-1.887273736768817,-4.494722011961402,-0.1548859842973373,-0.7466179770547569,0.4967571524687031,3.649975403041951,-0.6550623937960512,-4.0933025991864,-5.946980234431305,0.5093822941200083,0.0047418943771182,-1.52050841313537,-10.887490258361275
-2.317876004180415,-2.86717397869771,-5.585494987595426,-5.053390622048791,-3.836002646731475,0.0436849765266843,-2.5799582845987348,-3.1930648797306938,-3.6251231994921578,-4.172426060182192,0.1409388878286841,-3.970855884288216,-1.4504552632261127,-8.97339645451602
-8.726202479948705,-3.3720344464477314,-6.357797715234575,-12.955603930536398,-8.862931239804988,-0.2063296495221649,-13.346038711572977,-5.160391163443312,-1.9327849768003325,0.5117269292104101,1.0429261907329184,-5.563234362330418,-0.3484398041230561,-6.89384569171243
-11.678519471745991,-3.78973104367152,-6.440020234174795,-15.672347831187995,-10.117914609278666,-0.2231764109041157,-18.24885496003662,-6.083477666901316,0.2127821396734237,1.828746534825318,2.062657128139086,-6.158048065572974,0.830249699604467,-5.707114467551708
-10.559777026763957,-4.980242745413416,-5.785664823003187,-12.438507009833105,-7.127407497290586,-0.0095424412010405,-16.991798320469186,-5.050924313595642,1.437096217434697,-0.2019093994342842,1.618712512355172,-8.153371617887352,1.1372017216424233,-5.166379611816359
-7.339426388503067,-7.434973480419719,-4.792294084960075,-9.947585565201932,-4.998500788607922,-0.0095174128006289,-10.152541621242394,-5.140819417973192,0.4601851618118291,-2.6688037868726666,-1.0051887556195895,-12.51803771605294,0.1980419801029391,-4.653805779098064
-4.76897326399013,-10.49005665862592,-4.212362658797344,-6.228205806456092,-2.433482581161861,-0.2468812649552002,5.241238789611089,-6.054653971279084,-2.8255494218262123,-6.972203388455433,-5.032823428249137,-17.764713308530194,-1.6146844498409845,-4.397087927725918
-4.29443255372125,-12.423929885301307,-4.674511673177204,-4.464969307625001,-1.2299935921960592,-0.27976651090129,10.646142818749771,-5.793435558104132,-6.777964238907803,-7.99127614995696,-8.760794035512635,-21.112331386349847,-3.418606450487258,-5.418023287813838
-5.366002756038301,-11.636813606621278,-6.058293917719055,-5.7052385816256175,-2.244898044640677,-0.1150889959202286,5.700155729568158,-4.8033593760792535,-8.783879247407976,-5.179306891099352,-10.807726249345972,-20.66918016031364,-4.336197324132737,-8.153220271414522
-6.371624921622499,-8.042304367985192,-7.304144847572183,-4.265378333661904,-1.5843683019787491,-0.0231958930859586,-1.466122440849743,-3.101028851773504,-7.176682942191027,-2.15808709536688,-10.968424866429554,-16.736795348110576,-4.028015525663742,-11.292932258574558
-6.04375654597259,-3.365821622042492,-6.999092374937879,-0.961055879049623,0.2187285916246026,0.1757607095436709,-15.29132831878825,-0.3677133747667416,-2.797722432666609,2.38458319246415,-10.00473989899314,-11.309852055741974,-2.892659941191347,-12.32310853574587
-4.118460687402092,0.1135868850940742,-4.388509293766021,1.6260667821731818,1.343726985935756,0.2961857849801999,-18.44154835066754,0.5326383062961637,1.3702080118770144,3.739042000023215,-8.695279956077577,-6.466646303076544,-1.716635136355368,-9.555797841183816
-1.0338906440854032,1.3717854079896532,-0.0028707217228554,4.312472460850574,2.353030994601794,0.1422233579720314,-9.398183021559248,-0.5381679237354018,2.504935391523107,1.177291450306274,-7.11404492072554,-3.123937483594545,-0.9764526836549337,-3.845790827773558
2.6526829036154136,1.345433684210409,4.644246436882376,6.672398742335084,4.072929666002422,-0.0336972669795864,-2.100484411855569,-0.622013705186543,0.2900654258953145,-0.6070900279251127,-4.824480793050126,-1.0229104771886115,-0.3904759165453226,1.656393184917925
6.473588206860052,1.839364548099525,8.049711978247338,8.36540354418133,6.37359446141872,-0.6829300879977293,7.544933081515528,-0.2825824569943694,-2.888965832569537,-2.807994334400042,-1.7380394013671867,0.4202786716222295,0.7741651072141043,3.6491438741451696
9.88276647952642,3.65530737524934,9.602908422087632,8.677555664518605,6.8499683568047685,-1.4307277855866831,10.09679098200299,-0.2976720803892502,-4.215598702398953,-2.913461068133945,1.3057080397607403,1.4138722313456429,2.799361883090948,1.0445267468278638
12.171858774068005,5.750443011002718,9.712556254748224,7.259235447252967,5.4382890265653545,-1.461709063684824,3.074490905700959,-0.2447379912854211,-3.108544981653811,-0.0616804957838688,2.947896879685975,1.836883530707667,4.862486416945988,-4.227392251733559
12.772795311730327,6.258556222701572,9.224185623154412,3.975890086773509,1.9430152215857976,-0.8441845596468052,-0.0852596349620649,-2.064548410585864,-1.699671266318842,0.056384029751419,2.4573460981628896,1.7458154080595856,5.436174444877812,-8.461889118679045
11.735508451897896,4.39656280672008,8.732348734688973,-1.6018159157363874,-4.373503036091294,0.425983356864175,-1.876372771397136,-5.960163313618105,-2.586867139669154,-2.003251127577979,0.5741784781365045,1.648055073923817,3.636909963162063,-8.505376027553549
9.869090355078272,1.4202913332156435,8.339404987970216,-3.733767717169626,-6.290833490173347,1.6330046255256474,-2.3588375102612384,-7.334138982426918,-6.024474288804258,-2.97515621554404,-0.825887559810643,2.227239483626822,0.3845008020062499,-3.6313636415466
8.249057938291047,-0.293691070651447,7.888253538034475,-2.1278472400012443,-3.5443008593578424,1.9244120133282825,0.6968633058860236,-6.354470834666188,-9.362472097133924,-3.764113005619657,-0.109955784488827,3.8336355001214,-1.8722521468516704,4.112982409661766
7.358746592482055,0.7922753446863977,7.267441790563699,0.065604206587429,-1.0879246366496462,1.6974747268976615,1.6103845431710389,-4.131554410480078,-9.399986396106604,-0.7591818008116582,2.77358370483841,6.2198582300533465,-0.9780484619928872,11.200914926262776
6.574859586855007,4.105638313246918,6.447567368637069,4.280626080661303,2.7124228948237583,1.8624041886423897,0.937045751967009,0.4058269119868828,-5.440407025691741,6.837588575127011,6.094243582641607,8.635964816482364,2.920676424200352,14.723442226996529
4.585706190490211,7.394702850703633,5.315704287983316,5.135236431501078,3.3401254249398056,1.9238200169925128,1.170251671377168,2.15101952537843,-0.0904362189543648,9.400716743545836,7.452810481718668,10.050000389362358,6.995030517298602,13.957713290048323
0.5876071094479878,8.367600933278606,3.623609889844466,2.022364855184822,-0.1163159086337658,1.4655176673942454,1.3912530172011244,0.8698829629796654,3.003300189752649,7.366634172385474,5.36937530183612,9.355334976278188,7.611844793770479,10.368021820196962
-4.715434004862397,6.172720314300314,1.184638179738922,-1.0855241437607213,-1.766145497273147,0.559401581868808,-0.3569412358478349,-1.1400013774649982,2.3471393610528057,2.7105387419559723,0.2226703755201438,5.730200042235225,3.172333129282662,6.087404183825718
-9.36608920649665,1.7265632219307872,-1.9053358516148475,-5.570718283802465,-2.7156812104195622,-2.1078453408404805,-4.074228262904451,-5.160020642057599,-0.2630365073753671,-6.780856165502678,-6.011762707467941,-0.7459793654391182,-4.384498296782313,2.1254384189877564
-11.719318209223768,-3.074522336891455,-5.305768530010592,-6.8203325956347545,-2.50347146211308,-4.251119667531201,-5.990497962948787,-5.8120618477034505,-1.6272384469065853,-9.27547628478068,-10.926187814907786,-8.604299510382766,-10.774453881344511,-2.168085635772456
-12.01358817676229,-6.504795668401767,-8.66604359236768,-4.060633966497286,-0.1011730803020532,-3.762152189054476,-6.309287951993566,-2.639123135786997,-0.144713301409556,-4.24315503686432,-12.94127850534883,-15.28797901573342,-12.420281031509765,-7.905789630681631
-12.285668731804927,-7.769519864850641,-11.687250331710628,-1.6920609899959551,1.2459574918792402,-2.524887570476748,-3.911024493894615,1.022048824730472,2.919990864188344,0.5676652443069244,-11.918565662822855,-18.3824836699042,-8.933832762411264,-14.823533287066
-14.30644894713404,-7.064330165331143,-13.835818412548502,1.5051430869528588,1.8690342935978688,0.2082274167771896,2.2618558371153115,6.539523958489053,4.97856561962262,7.881668546979505,-8.853000058083147,-16.95220674277705,-3.0509000872808265,-20.554834487217327
-17.266892691979024,-5.088655896039604,-14.097340321885518,2.986761924530136,2.3791734034692364,2.634613373646004,4.944253494858788,8.953427961624822,4.8290639901270245,9.629449776643334,-4.973737423912484,-11.858017235901851,1.791132660286994,-21.85579982017777
-17.671558974464673,-2.459007535638793,-11.380046407046754,1.986815782661378,2.164368549815042,2.175801752651356,4.296465560775479,7.617768076216639,3.856173215317828,4.38351554313966,-0.9722473347050404,-4.8330448949003735,4.052307687945936,-16.914477525163793
-12.1866513478168,0.5024333383846695,-5.59607164122012,2.894330233451669,2.905204984210533,1.472141106033647,3.872160054346816,7.764103077395458,4.577980181361143,1.856022279859493,3.031783902750135,2.6562243849888976,4.665226509240551,-6.902184701504535
-1.2811558840013824,3.4508104101392565,1.4788291675070244,5.066067928520523,4.612413705196365,1.0904578870898092,2.137621111560594,8.233012960234381,7.963281829817232,0.0924778556688701,6.8285580874138,9.585240048138925,5.340175482116676,4.490852954519649
9.822563550945713,5.567572661553026,6.675170714349248,5.501935966741406,4.8299326197678285,0.3575342038821731,2.055880953692062,7.600258321960783,12.116132312638642,-0.7486380197569162,9.51155886898862,14.66694695801138,6.449323700537036,13.199309636995729
14.434470589261624,5.657301587023481,7.329020248352963,4.723190744210301,3.754723343586746,0.2183503264811599,4.062214396760979,6.496952853187215,13.647700769450536,0.8951575768720978,9.72853274953197,16.10547501997884,6.595108965843414,17.00598954686297
9.655105789772232,3.0442473526863782,3.282964343002691,2.070201912038441,1.2823472202271473,-0.1670421696046532,4.551908626097607,2.284478047424168,10.548070285694584,-1.0546893529179793,6.766494292763596,12.751776053569698,4.191561356739584,16.285199818315007
-0.8577297959429764,-1.406451242802694,-2.740706522096469,-3.099458934236739,-3.174622119865333,-2.452785923737897,4.163453855634585,-5.401985979048632,3.969657984900694,-6.378133824906291,1.4828207365163326,5.769094001929634,-0.6348010798829868,12.950337566527493
-9.318228334899914,-5.284829890083444,-6.905217993868083,-4.520695925451403,-4.802974206694963,-3.923220554455435,4.516482429772411,-8.841078450194006,-2.690263778622485,-9.07727896038954,-3.9577945600973177,-1.24661557239164,-5.777836269350793,8.704842401775458
-9.714651575585584,-6.090030214876983,-6.849379069756242,-2.076235310794197,-3.462566143340709,-2.7302618191708685,5.149909578103021,-8.157819477762304,-6.568101503612515,-10.043844582432405,-7.505511774506003,-4.561385050167765,-8.77892037646636,4.140447667667557
-2.321689861876063,-3.1732813160738687,-3.0657741291768863,0.2683653819522826,-1.5826326844778855,-0.904157391790679,5.989631553209612,-7.029439398510573,-7.466714140166397,-9.568667974260434,-8.589182165163356,-3.2800932109455125,-8.737976845263791,-0.6779916267922701
6.918024022400022,1.5274897058839878,1.8871709342608012,3.901093194529826,1.990926636637386,3.134582753345183,7.24910770931036,-3.754866214430964,-7.4851750952842036,-6.496318353923037,-8.176543502295067,-0.0920951124618554,-6.734076815967402,-4.987438234325044
11.440009164120353,4.7969710311999405,5.451259063554361,4.659137115740105,2.737461526599687,6.048314450004387,5.786542209343552,-2.577463075245355,-8.640608072754464,-5.262282556179869,-7.527215352827017,1.254244021706766,-4.570304938856317,-7.0007582538192015
9.104425414558577,4.539441576926303,6.6392627006496205,1.797749665622393,0.1743505842804152,4.084384141263709,1.3582747559481052,-4.00190801743769,-10.8215662855252,-5.786799086280887,-6.907563589403513,-0.484369089799209,-3.2531505405443752,-5.149316220633754
3.1359096267027056,1.2787189911671772,6.094389588141207,0.4320963554731002,-1.8004519989378394,1.256832252658684,-2.873580658831918,-3.659422015539073,-12.014588423976038,-5.33063882088758,-5.532620818307264,-2.911343784504621,-2.613827859603868,0.1485509249775436
-1.285789208524832,-2.4531770339542005,5.080314491546842,-0.4408663214257984,-4.276996926736872,-3.09633748185583,-7.5947047348748145,-2.5011676278466672,-10.497396817424864,-4.75840665017911,-2.7192209755949515,-2.457019876647937,-2.0808405720797705,6.083432480135515
-1.3420139197061092,-4.198310983805249,4.545824535795616,-0.3385266904542636,-4.818913393987721,-6.062738442460667,-8.561741004464368,-0.8726290629551026,-6.761837248653488,-3.046414659261645,1.010719850150419,1.984330010882364,-1.4588627038858792,9.238245999189289
1.884371882220666,-3.30034172941361,4.887229258683622,1.6184721861984768,-2.7250207378386966,-3.75361802896086,-4.852471726845523,1.8514089714278663,-3.1999597617791977,0.1902619223849888,4.081677617009627,7.868411590356439,-0.8548936521703281,8.239873367586721
5.318440423989589,-0.9743260047567156,6.119933277731737,2.382634719377591,-1.849291674441472,-0.7639490198920178,-0.9662951533224912,4.680584614803795,-1.8038925342021672,2.720410246015968,5.1957744025328045,11.396987477178566,-0.1011829790549865,4.856640059588719
6.835663586187263,1.0054752558509357,7.919502827860986,2.231150021964175,-1.5546816933862018,2.6896491456328646,4.319349328002492,7.728796115953437,-2.137533836137517,4.7815171171726805,4.555216412068443,11.024326082240671,1.3443233673292605,2.3506671201541405
6.477319852444179,1.6550343845938578,9.509989447598889,2.2185733721522314,-1.7920749126763875,4.792443764982306,6.965920787973571,9.156962707926215,-1.6526594937080397,5.400274029669769,3.739741934696069,8.588806169867912,3.703171435069436,2.467159836422411
5.425320638804958,1.1332302835696808,9.844775543058148,1.796452289576758,-3.2427806217044024,2.734028169994342,6.034274393524706,8.591475292488731,1.8228390452360688,4.003269503074413,4.275536418674795,7.110393213766546,6.185332673699039,3.878351046173577
4.443479053937413,0.1852786620307327,8.279258679525931,1.4889787880901395,-3.1792759296383384,0.588582582643713,4.962361525727745,7.235378360884243,7.743923849390705,4.046573454710278,6.205190873606131,7.663948021341563,7.292084403854389,3.66795618622983
3.518482267725592,-0.5342275846764366,5.248903540088446,1.3461099624240334,-1.66629332916561,-0.9638464796554044,2.490906698906967,4.488365661560458,12.940475389009748,5.296571043555492,8.015181271690015,8.500574900091506,6.066302586091066,0.5637846297030187
2.654541863952744,-0.7250226379471414,2.2088338327413,0.8408388226528295,-0.8301285335055754,-1.61799169649244,-0.1155743643003224,3.113109220722209,14.19585015380217,5.830298653044307,8.030900249340231,7.132196579482091,3.1133565428807586,-3.1862656356835046
2.4077778758015285,-0.3978425375856034,0.6842032817052086,0.0693423436051454,-0.1921913467425727,-0.1904862267427243,-2.5231754734236174,3.3721516949348898,11.034242876803962,6.260448862075105,6.005630232141275,3.0933206513713216,0.2879549509016499,-3.3383431911498214
3.2676750385266544,0.1704250137855787,1.153434569614063,-0.3059823843520267,-0.826056301711036,0.6687511053959714,-5.375381023204486,3.157479259803661,6.20076704643175,4.631317805468383,3.425829917129448,-1.412183727030321,-0.7796638219425915,2.460834044977581
4.615936575746574,0.5000518364005444,2.715973407719545,-0.3077524527499206,-3.1691765152446854,0.4758223875451259,-8.250920522730786,3.149813458706141,3.386163531391805,0.5404504161015335,2.2419300675728167,-3.4891164898654807,0.0229671541914484,11.786477134038511
4.720112420351313,0.2142265988439504,3.8062537257961786,-0.1176969312810459,-3.245598196969885,-0.1310018616018286,-8.570164627830815,2.587040380894901,4.196268434269243,-0.0607327238581483,3.194199605308331,-2.098258400486017,1.354420887316806,18.331338713982262
2.163727862140167,-0.5070972731390455,3.3052538481520486,0.4229617532518139,-1.1749396781084145,-1.2039464103985107,-5.992612962585556,1.19923524986251,6.978840746678626,2.689972083784008,5.2494140609541375,1.2015320938160985,1.7057504157574002,16.299049063981712
-2.554860952364894,-0.8426662224184263,1.165740685676127,0.767819060525406,2.0683624115426325,-1.7449183140037106,-2.513373168504992,0.1962246319914345,8.421887741672986,5.067744724468689,6.588728677719981,3.7408927011744098,0.6686711422414682,5.03190479682047
-6.926969143709297,0.0527973241556054,-1.7563028910952363,0.8991306662536401,7.411853837983563,-2.1434538523496744,2.5999658183308685,-0.6340483554766384,6.432284177451232,8.2628558641591,6.167810187714444,3.853408392092639,-0.8903134934789421,-9.795708891394742
-8.163081725512747,2.167818691895519,-4.287853960509123,1.4974087158623517,9.36866474767473,-2.1898611450625967,4.619326701460974,-1.618814871569814,1.8184116136719848,7.980744664833141,4.452335366445258,1.812863220483564,-1.7000567224885827,-19.590742544830903
-5.332787805154872,4.405456488591625,-5.460148774894678,2.4764878265078942,7.623972059288027,-1.3244339038498745,2.931325268126044,-2.5854757099810914,-2.5353174228492623,3.406188548771499,2.8194374411512357,-0.787831766958913,-1.0870162997527757,-18.595492059080676
-0.1024846633722589,5.396738725052867,-4.857683062463966,3.68731966582784,6.078893609769834,-0.0778460956644942,1.158832195246453,-3.8857352481605183,-4.138977776449815,1.6049877088584452,2.333803570401193,-2.28248417056086,0.6569115492843309,-7.915887419584671
4.50115471767948,4.661092549514532,-2.89102512163224,5.255647144913623,3.4577316367024364,2.636042823278628,-1.9687261839073276,-5.558975942206788,-2.860805139007216,1.6886042739979796,3.0073695065921164,-1.8136850664458637,2.568745176660041,5.12148649673885
6.238062761611403,2.9742046635054145,-0.8420670811646573,4.805528101974309,2.556184537435651,4.657451748053229,-2.8193585311441662,-5.603043968818347,-0.8055476940684958,2.175454510943201,4.021123494568851,0.3858102531497138,3.5686053354627703,12.004666466928938
5.049387073598481,1.5764262220316354,-0.3164109320854056,2.118311843448413,4.015145344727372,3.7488417019219287,-0.7550161781972868,-3.925112076754652,-0.3535484969932216,4.352394571925425,4.5080735960694,3.1036665648691297,3.005558811923102,9.05040653353646
2.7704999531303507,1.040163127931354,-2.1400803692286505,-1.3632665972074738,3.4263054678841494,1.7595495764175086,0.2671935014450429,-2.768666306694663,-2.0989719098170188,3.348547446589436,4.178104732496335,4.623968902631479,1.113341900136536,0.0953585433495405
1.5234885990942928,0.9212520258510466,-5.508077755794691,-6.276635044633196,1.4276029859555872,-2.088045547417945,1.165041940136749,-1.7514256280052602,-4.3998560006522105,-1.060322865145208,3.4059381072115045,3.659832979222653,-0.8652169793497748,-6.306134706237094
2.0293907526635806,0.4365055498180137,-8.339670090051325,-8.537605895526927,0.3600437454106726,-4.952826034080847,2.748988458555061,-0.5331215390397729,-4.819806011701383,-1.4732406095006452,2.890877217138509,0.3872641082825154,-1.272604674274092,-3.425880221067855
3.079175489378745,-0.6513856088442491,-8.828242936271938,-7.694364856936917,-0.37965923513421,-3.509775027560571,4.54434016812756,0.5137418000420644,-2.158186410891533,1.4354661614790984,3.1934601634499096,-3.2903516502718446,0.7165063596052406,8.119777605404524
2.597259239179221,-1.8542473560762536,-6.907613698052073,-6.385871509502117,0.045484907845987,-1.0436408050380808,7.838859003752852,4.248039555767508,2.640559346254472,5.856550515871893,4.3861444805782135,-4.804400761231939,4.104989422676933,20.298356794230084
-0.4373079881036315,-2.5359381197143733,-4.216765842541971,-3.508818827379082,2.064102950412199,2.092319086089589,12.764105436787723,10.864698982994785,7.34822001544755,13.286593768485272,5.955715351508749,-2.7175269791381647,6.465145056833093,23.54043705069477
-4.731928556943672,-2.514899020228615,-2.5046273257277853,-2.0286224660467136,2.311141524850597,4.124655455349521,12.477588548020124,12.839752554337853,10.20097006151683,14.854289446034212,7.0485275427097385,2.1945850572293253,5.803620963412415,14.313677652968543
-7.300953471784222,-2.0726477641876926,-1.9859741725218336,-2.341330665874733,0.8919124123966785,2.391724059129684,6.689718351269636,10.29537290740953,11.001174799401316,9.961111575870486,7.019145190145996,7.547150634831858,2.4724963529027537,-1.610357342959194
-5.749351715050267,-1.4959723669827056,-1.2708750913628517,-2.343185289781431,0.0921966443640199,0.0667317575200932,1.3784889471738946,6.443025390821801,10.771764957105624,6.539543253567439,5.972789855747811,11.101932987319866,-0.7185132507520091,-13.134793418616075
-0.4791481228880423,-0.7644418562340327,1.050420215399571,-2.8252678000043585,-0.717637027748467,-1.5166514982848984,-4.920816479319009,-0.4203276808204693,10.490863483476971,2.643080401822385,4.814940371798322,12.093222991486154,-0.6447567282400186,-12.26920636854386
5.144845851972111,0.2576590700997379,4.734051296047151,-3.0459064980032458,-1.1066504081659747,-1.8982624129378292,-6.899631815137506,-2.3540289277629323,10.132424033181715,0.9631696538215831,4.561418367016303,11.051447668250333,3.362353593711945,-0.4422289027270496
7.106978706013053,1.3886214628367513,7.775679559865806,-2.80755864757946,-0.7430417537739623,-0.3449971130420392,-3.1820011199914515,1.3951588553412917,8.798718669804607,2.86608703469886,5.309816086654999,8.62480497615535,8.556681438664018,12.44787539273728
3.8631895037570816,2.014004684767575,8.014047192950368,-3.5522326030322824,-1.7595526755002924,1.0077300051873617,-4.051666482762815,2.6597470893592536,5.716902504214212,1.0307914327535903,5.801091891834724,4.8828273183971245,10.70237977014554,15.696820401695945
-2.247713667388971,1.5368400910493434,5.01008507561367,-5.143867582921354,-4.094455434778548,1.0436129379490504,-8.359470177008477,3.1795241089522768,1.2029229769396863,-3.8510054389951702,4.235710940177361,-0.0928168227487482,7.483320836347388,6.190661010543748
-6.595364259523672,0.0424152161343958,0.5687821442102208,-6.085616431863067,-4.96880188834591,0.0826110072799061,-10.825228488710282,1.7703084644813605,-3.222387622165,-7.325927470631877,-0.0931247121288083,-5.174372517309664,0.5649524232563694,-9.191485041123531
-5.779187643261117,-1.4934379201052117,-2.5135228077612184,-6.541542363952651,-4.644818654265312,-1.2272956739569216,-13.073758480530095,-2.95578526533929,-5.758734824281249,-10.533502917790551,-5.802183635558142,-8.327625108785874,-5.582051711985612,-19.2085526149595
-0.4053130923689823,-1.8313054655727568,-2.4618605857607205,-4.681258835756331,-3.3033792709189616,-1.7892032531148072,-11.253639285965772,-4.333875235138068,-5.75233622750188,-10.575553771726703,-10.252965969916373,-8.379486301599439,-7.322189036587693,-17.471912915103932
5.109927399811716,-0.5658442645887369,0.2286175277507878,0.0165447536097034,-0.3296690932752514,-1.7576343350797523,-4.35992911284739,-2.7219033455649257,-4.584835434269856,-6.521637492854797,-11.777186575837426,-6.808605753695847,-4.968746936327358,-7.706012112060426
5.738311558641895,1.257409567535159,3.1948132648986336,1.833251929041,0.2475674664256459,-1.1908831071207542,-3.224577417909784,-4.033222041922507,-5.092609496267382,-6.060787152446761,-11.273583913190247,-7.293127809751997,-2.5919498895581974,-0.5557929149345071
-0.2741375849217835,1.7465734871633778,3.939899445310493,0.9838650760382472,-1.6985452364562468,-0.3148667969802626,-7.382892817246289,-7.273421866996536,-9.528607138205889,-8.692581415465,-11.4361930682327,-12.643836018506535,-4.447039998960428,-4.4153473314792215
-9.847694730270112,-0.297521158187596,1.6318575716757788,-2.0440974172492203,-3.749402441137231,0.0891215822269705,-10.913238524768492,-13.12771755111268,-17.42882969158108,-14.016391378368043,-14.101155775725562,-21.637229670122547,-10.991942797461236,-17.974819580551213
-17.212761119059003,-4.19532457699993,-2.3777764799313417,-8.65926958831886,-6.831144735923242,1.1881315139934947,-15.935747535502625,-22.776047728322503,-25.312978337879187,-23.82135656672184,-18.273073500508417,-29.07494459152913,-18.09649401669368,-30.999902287052805
-18.22649545251493,-7.750042032482263,-5.726084533124498,-10.56641727661099,-7.698734007207952,2.2382323825963844,-14.1547181200982,-25.379822952116296,-28.969648086979586,-26.0956843831965,-20.976777853931384,-29.746095712074904,-20.39350433303394,-32.87390733731341
-13.431940074859032,-9.012809427811568,-6.951633552081425,-7.568336327091785,-5.873210396117945,2.101662723115119,-4.241653970647036,-20.64299014706352,-26.764531821352925,-20.48789827647685,-20.269678398883805,-23.05716993681727,-15.946932494785806,-21.563131259617155
-7.304705900414557,-7.902487024428812,-6.507690028249761,-5.5281807768306965,-5.0072420095439405,2.0479232229200752,1.6633468696554807,-17.2852761411664,-21.08570536744892,-14.229156535581478,-17.346532729586798,-13.903958087590269,-8.01752254646701,-5.163980341205489
-4.310146894308872,-6.1318523614393,-5.981338204080013,-2.673012831925933,-4.335242152294183,1.0076938784790082,5.29974248398191,-13.046867644671904,-16.359164391967823,-4.573479059548073,-15.385812171276278,-8.565400452812383,-2.2302346526016628,5.212365381780005
-5.213764021771162,-5.476373301188412,-6.314106420317925,-2.90970628107006,-4.708205828607805,-0.5730057107717965,4.312837641683697,-12.004544970544435,-15.182556982345108,-1.904066926222729,-16.14728775144214,-9.20779764634267,-1.7044614277340775,4.673348746427017
-6.911403333027877,-6.095755873113284,-6.866836555705145,-7.26616028409722,-6.780489072319611,-0.9926708501405526,-3.894714449841469,-15.72340902145948,-16.101472153282593,-7.737429903034476,-17.87634703836336,-12.191558760579486,-4.647406645169951,-2.3848006453090638
-5.85655352764309,-6.617212615598675,-6.390557558325577,-7.416454312336899,-6.356534201857184,-1.132091431421623,-5.335523636011242,-13.181145758645595,-15.216780586265,-8.665550374682173,-16.93398014381085,-11.889691512810597,-6.570562064770144,-7.68897264316038
-1.8246816847470413,-5.8989027596676245,-4.935885863138616,-4.105076407162699,-3.581374450827901,-0.9006637058042934,-0.6322307546390018,-5.176385764754426,-10.192310153797228,-6.961853877362113,-11.707657626330937,-6.383757333752769,-4.875679201318075,-7.34240657364861
1.5890162572262625,-4.579838496624671,-4.504715984369074,-0.5852482894132123,-0.9399861921122722,-0.1754707907765523,3.75679781377148,1.6120326310221946,-2.8066621741997797,-3.646501543683547,-4.770140650464526,0.5027069533902697,-1.3409913455385372,-4.906661224979512
0.3054013400369868,-4.609841606131781,-7.294303821507537,4.673662525591498,2.3768723232162188,-0.0989426975189235,10.618958158775571,9.063520718184424,2.5339710234299258,3.573236515301274,-0.7999605777998635,2.8582154566362803,-0.1528756819535885,-6.65476507046683
-6.092212283883431,-6.992634422672676,-12.916654467298988,5.8026891530645255,2.425775552059928,-0.9158880924833264,11.621324326447596,13.528876464245563,3.0431356371899216,5.593591655083616,-2.0513034625340207,-1.4665690047956428,-3.456952605129836,-14.070307855302108
-13.246174542544065,-9.98801321756496,-17.465285642831994,2.1231591346986627,-1.441934381814069,-1.7830719347246629,5.654185901012888,13.79264860757656,0.5314112813750285,2.3941457222952414,-5.822646988049204,-8.430319990617994,-8.75120775611099,-21.27425058107728
-15.12638050514626,-9.891558693552591,-15.982369266643104,2.423882273739103,-2.239516039062796,-2.094973551759046,4.202498924732873,15.298383558448778,0.1521609903089533,2.040908600896347,-6.611276924408042,-11.136745538711704,-10.65987886698748,-20.12363936407093
-8.829050999150514,-4.146582183204556,-6.69405319617518,5.645216775186458,-0.6875988291581568,-1.389350591506039,5.604395391868452,16.975174461641938,5.8628355530962,2.902196818913505,-1.1179879171959008,-5.863655841082998,-5.541408812742322,-8.143009884129103
2.910587729810341,5.889332869026134,6.678417232631283,11.77560290760203,4.008346661820435,0.3598754363128914,8.838236999570249,18.88933083516497,16.62864594979732,5.8404407876284745,8.549299513842902,4.671727027431313,5.148302553781932,8.432622178262028
13.548754284228291,15.269615773994133,16.96327321442806,22.645613549411603,13.450691425280349,2.174893208272509,16.024234286669643,21.90919004860968,26.785266788333374,12.27728446525516,16.46837648596864,13.582378673246035,15.621447017647542,19.63498521157274
17.41741054631757,18.99881809751568,18.645821793479755,25.04049519247935,15.867209557162523,2.887826511113541,16.188479668284344,20.44103458312125,30.296967307401005,12.915372990163704,17.813454912201944,15.39186417902656,19.93243646055403,20.23985739460138
13.577593731320718,15.907569138516138,11.905850030476572,18.59208084914245,11.14995691247088,2.3153138426993576,9.047382348582726,14.373689831807896,25.29591707978389,7.775583425392979,12.645393950196484,10.04305810771814,16.11304000882339,13.8353119877175
5.992429455045354,9.468305675254909,2.2031101642599005,12.278722056793589,6.436263422115326,1.3690809986080763,2.9696858276325937,7.374279205272052,15.213243722833507,2.3796956699093985,5.39558378389755,2.252391069045132,7.167612573536076,8.740487953394716
0.179488175943657,4.800964489418121,-4.160052407051346,3.188952981747005,-0.8319508545424484,0.7019535479004274,-4.32817876907504,-1.7735525308242504,5.885516341209819,-5.236719646689149,0.902263325282142,-2.6545474489423064,-1.4150095307014894,9.81346100490466
-0.8199816902772596,4.537092113724839,-4.64101195349582,1.6173200124644842,-2.194535300916224,0.3179425480728203,-6.286630889872675,-5.0209282294620445,1.3297752337508228,-6.485013873845478,0.7644526771369122,-2.577092529905638,-5.352729676215539,14.103707016054765
1.9403440993443049,7.181290954036374,-1.4389145643071828,9.466556892485112,3.7591046355993143,0.1121074526903325,-1.196520101135357,-1.2087150420792598,1.5802667598948332,-0.0504038315860602,3.0159861065913063,0.8019302914329494,-3.736687922978948,14.504725634436788
5.015213254520326,9.185163817540255,1.5013092504401868,13.430403955850268,5.023493622612317,-0.2075790878163921,0.7645962901175791,-0.2255308203724869,3.794719949755791,4.544397967422528,4.797724725449594,4.469092391747751,1.3883872836196467,7.673793344500034
5.800007193046238,8.496126221662252,2.3144256944925097,15.980536232286076,3.424791024025404,-1.2960640951315194,1.260374390572482,-0.2244813887562671,5.058032872011573,9.38984290391146,5.150138943363629,6.871420714802223,7.045888343787286,-1.7685488112371883
4.503520293403522,6.201691918484238,2.360525622556054,16.902044112310925,1.9673254782961092,-2.047549614175458,1.572836880125918,-0.7600412733798998,4.376075796779933,11.375903193851608,5.4511225401278,8.680434447025235,11.182085376875662,-5.128411188426135
3.449206666671623,5.014084450354151,4.072559727337072,13.934471667224583,-1.303619024947702,-1.857763603701724,0.0042022432689097,-3.45577249381362,2.6598587631562687,8.761829670621793,7.555609217187371,11.410632299197829,13.29152199670762,1.999293744145428
4.680155686757964,6.434342967042678,8.052178696149522,14.360754401965504,-0.0885453387621787,-2.049406150095728,-0.2506180121084269,-2.5422853472551896,1.39213086157638,8.67595804454864,11.721575932837856,15.625563251906868,13.930798060778034,15.005632034961932
8.141639265256554,9.42190217419234,12.37072919364016,17.694687679667872,6.073549172076458,-1.753157362224535,0.6053698631290243,1.8583331641759224,1.3978546968063483,10.082277794044284,16.211795601536984,20.39036740106943,13.864552218188756,23.87731604193703
11.940734318005394,11.569427864282863,14.554952305853533,16.916019369287987,8.049111742316338,-0.9827008043701246,1.2226009730981988,3.538944360978958,2.490739681533011,10.543181519408323,18.659589551419494,24.130971670358047,13.46522012162845,21.907459350559726
14.204548924766993,11.291773858903458,14.03704936630372,12.965442869279176,6.839512203312964,-0.4842701856083202,2.1652082152513,3.335996144966698,3.8305612551243193,11.137993543855314,17.799151181563193,25.79417160224795,12.595158312306932,11.518599108477945
14.6873900897371,8.88833476361592,12.57439808933437,7.791972819479774,4.775819084616707,0.6544868580252239,6.039448670282824,3.003314435820736,4.512110625823933,10.491394073116762,14.172932815815582,25.247047313575248,10.914930110749706,2.0081616520188934
14.6542606643063,5.820685462343096,12.334185536620822,0.1395336195023169,0.1261811718634108,1.84076578780357,13.047122842749546,1.4502971338169317,4.096473817086039,8.345414277626825,9.526757799170513,22.823673604778705,8.376361929695278,1.4309695856003817
15.240454853928425,3.297976027392357,13.646974620916865,-4.3362697955224,-0.7303898937467467,2.0685343359655306,14.455568171317736,1.3561784133174888,2.912810905174652,7.025638363882695,5.596377754876034,18.72621038955408,5.502769719342937,9.84837836972523
15.929370275850824,1.5586960489714574,14.62757635664991,-5.179249469472295,2.575451838212698,1.7958937983959782,10.23863110466867,2.905567265338058,1.902964814092628,6.287862054081784,3.1878358088045067,12.95425594221528,3.121208241324301,19.554321510934574
14.71799084473359,0.1927178473348778,12.96011676540433,-7.383056414278045,4.780987160893537,1.7597360544500915,3.592978594619682,3.803502716055278,1.9534767330139564,4.91101227330564,2.030697424577652,5.8098547254944215,1.6679166711092148,21.667002291092988
9.99108586821448,-1.1553033708882587,8.119155813343836,-9.67156636753416,7.26631606427894,2.064257047565019,-7.609552945219447,4.621037802812751,3.156159227246853,3.2711317197712364,1.3333078227215722,-1.5550344518259769,0.7221216543350648,13.34687443813056
2.451628260058687,-2.4137015928590646,2.009617575755676,-11.851702155490118,7.184963623715642,2.1186325259347933,-10.595576957166516,4.631462689808417,4.687257042208005,2.0117700337290376,0.5730626167151567,-7.178094852862172,-0.6167370751990084,-0.11304863017852
-4.794611035795615,-3.201154155983142,-2.478454623707795,-14.556684438296523,3.5706126323877463,1.2019021301305972,-4.367857014822493,3.449881582523124,5.506914041530957,1.0596063783357874,-0.0807001502739055,-9.133705445869955,-2.7011766914592084,-9.621736518517356
-8.361842081826836,-3.209009600273113,-3.6983565114777672,-16.893069900199173,0.6785810964645052,-0.4461571912578049,-0.3512848456974862,3.316033467237784,5.230788175616571,1.859120976790772,-0.0637755414776037,-6.755353512444735,-4.681691389542685,-9.35269914716837
-7.225812683342788,-2.600974166997732,-2.409726203664864,-19.017136271264047,-2.339869007128525,-3.035333230412244,4.334961865148331,4.063194530655681,4.291884371324995,4.715144226354009,0.8095360469395914,-1.3481572862672593,-5.095607785357121,-1.0448214750894351
-3.558328256196169,-2.194905823461152,-1.0323895328054729,-20.00457246316821,-3.825741150994922,-4.447320685426471,3.829342028154613,3.995126876731152,3.2703625959630718,5.636481079862717,1.8536691986146876,4.3141668070485935,-3.35249173588695,7.581052047724212
-0.9358727306327524,-3.1438145000856323,-1.7137724663235012,-19.627675113677288,-2.942167748335909,-3.112353027019505,-3.989952571339999,3.4532149980623066,2.216679722524878,4.788310755426467,1.910563105560641,7.556402566588346,-0.6651378989569281,8.886510514887853
-1.4655757428058322,-6.061552914896257,-4.774263028746823,-18.202706389929688,-2.2546329172075428,-1.4729026331895976,-8.040647866597991,0.3147755264145415,0.8068995177379445,0.897970105222885,0.412499145157593,7.358868622084838,0.7225765844799064,1.1329649039535958
-4.354318976209722,-10.144176784911767,-8.654940061021655,-15.3800548001993,-1.1232154781391142,0.9112763814766632,-9.905190331802125,-5.92784306305403,-0.8426419823505107,-7.177778498384859,-1.8887727357054445,4.712442551813815,-0.4593277058653697,-10.379123957241838
-7.0627080293696025,-13.226604960998088,-11.2479927718624,-14.108670419253205,-1.084028508714161,2.60653749068757,-10.307168438471365,-8.62520714340358,-1.7634672194473957,-10.117877306499093,-3.354431197416311,1.5277599365103,-3.121985051444259,-17.58481830533148
-7.765436900208066,-13.17038252000355,-11.470140423812287,-14.57100971959238,-2.6119445847661837,1.8522766743581769,-7.209999916360447,-7.962619768160991,-0.8581013505364865,-7.964605504002327,-2.8070933018460664,-0.9168345971225732,-4.550744807304813,-15.83919628137136
-6.755362770373679,-9.711122463912655,-9.893051289205562,-13.20753598320961,-4.8152911239599385,1.06085227202461,-5.7057299157854,-5.916220690746227,1.796263930148548,-3.1317074004670964,-0.6077894798494299,-2.659245433848085,-2.8291484484976834,-7.113453920696397
-5.677926603531475,-5.115364916456421,-8.09830027590423,-10.567714387044672,-8.274927377832984,0.1611484440086695,-5.432889803030191,-0.9517216917768674,4.458445455608569,6.672415718648513,1.552758125397908,-4.427074457203766,1.173536968966971,2.099043588455615
-5.685225662069605,-2.7405688442974494,-7.414043977786839,-9.20507758457678,-10.535990780201375,-0.7049824846739752,-3.66704629148928,0.2113955760193921,4.8237613402390735,8.64807387103491,1.993446656393928,-6.50594877645667,4.16328964317205,6.08379322477667
-6.493576662520702,-4.436049578920638,-8.041681690886179,-8.70494750060592,-11.448601954153435,-0.5423119055138002,-1.2574464921098865,-2.8067563753006795,1.9310331097579836,2.105181843489709,0.3363358595190107,-8.301496879213474,3.0023480111468217,3.8856311869380704
-7.1335299330707045,-8.970613943592824,-9.131042987261075,-9.884293237329056,-11.517517466291627,-0.3295524769943015,0.3032843611483187,-4.817365575799925,-2.840883531952485,-4.110014392461537,-2.3301219484530264,-9.011049113446106,-2.6457538805837477,-1.0693544482827164
-7.328447402294955,-12.97533711895192,-9.597250200153953,-13.332844624741016,-10.046764165721555,-0.5253308078515165,1.1586270755136705,-7.318821499432108,-6.715228910821494,-12.968448797085369,-4.456223300314569,-8.698910514414024,-9.908823234247391,-4.816702106129242
-7.897761230390714,-13.702036545598771,-8.998494275068879,-13.125247298826332,-8.574241282829835,-0.5010017070515327,0.3551536405032367,-7.378309945702325,-7.696025321157322,-15.472732614199623,-5.268713633852052,-8.670080258767726,-14.923470233817518,-6.417744623414095
-9.770200078450564,-11.20048363358761,-7.852082561888558,-9.198215049300186,-6.996119223514706,-0.3260098030287368,-2.5815401227654244,-4.109324363771477,-6.124735680421793,-9.939462080256945,-5.221432380438337,-10.653526611145525,-15.780446649559224,-8.12020434374611
-12.705841834539116,-7.979658456554212,-7.182027044294969,-6.187741534641436,-5.283526239226577,-0.3555231545543272,-3.1739213907620183,-2.4610514761406104,-4.258351552864006,-8.026558986677848,-5.385491139514627,-15.318817196393496,-13.69116407371613,-12.29148032675809
-15.078659758013792,-6.508194118612188,-7.594505115733753,-2.8985929165918827,-3.774001062752622,0.1602653764347811,-1.4927403062330056,-1.6828956796894037,-4.249443778084768,-7.584667216958019,-6.366436137783147,-21.24730203389015,-11.49092114753411,-18.23920739441141
-14.95386988870274,-6.910214185093579,-8.537548581184495,-1.094341592525125,-2.2623343689437685,0.7501407323039094,-1.2439826072634346,-2.3328093202647207,-6.321253296252749,-8.381682212820378,-7.666544858662149,-25.26819830336073,-10.990650185252951,-22.06172379174824
-11.483803724355605,-7.007883507497297,-8.401699311618259,-1.5734099701398907,-0.907031632577486,0.8675353831221466,-1.6142825381809116,-5.388766567560574,-8.749857673227325,-12.36321951570849,-8.052395545695887,-24.21069650952689,-11.656287292352404,-19.864690899314667
-5.490107492344293,-4.612654035969044,-5.609712163874605,1.2797336268638722,0.6839794532622613,1.2025209851079313,-1.9208957835912917,-6.566934637825423,-9.62424160589579,-11.795632799603588,-6.698742710098173,-17.102409433961903,-11.718999343125615,-11.543832508432445
1.0586690740504991,0.176632636856084,-0.0199718539104765,7.147621187617914,2.5027372904432346,0.9452649918456572,-2.673313198694121,-6.106252703506721,-8.721283441858944,-6.828504493618476,-4.183458191277509,-6.300889825628985,-10.402478454869112,-1.6240038686059393
6.09873253327433,4.880968542586473,6.511235409883454,10.413867436153568,3.029553093477842,-0.1407032521096988,-1.1499831943427474,-5.2159769573621695,-7.710424785215196,-4.011971019510747,-2.357452943473476,3.496621170733775,-8.863152132595886,3.950517286257224
8.312947990387741,6.820444454465473,11.094386161254649,11.859058269042146,2.206239600483144,-1.0593182072165808,2.86773357283283,-2.9992160463222874,-8.455821955689373,-2.0239493352921114,-2.93229053627492,8.017085015679612,-8.804414556588881,2.628843553226901
7.461877336223154,5.490826446094459,11.748502468009804,10.658436672123816,1.9077398995777728,-1.4035940175023294,2.0903667379335453,-2.411804595653618,-11.00346103308462,-2.053910585492451,-5.809352368755285,6.162500209382074,-10.20839290988866,-2.4107246816681
4.342412346607603,2.979448118884605,8.824617566449334,5.580981101163212,1.8668618187276091,-0.9506383623567024,-3.3671031303956966,-3.5969366363580506,-13.202386453623966,-5.315997489890279,-8.661634224171891,0.7364783293499357,-10.672808363035251,-4.637637780625994
0.5782444216909539,2.1845647225819818,4.740364669540412,4.561655391299501,2.357176649071484,0.4536573323885384,-5.745761896453653,-2.218959070879697,-12.40670749033427,-5.201580415893039,-8.410994286125629,-3.455439985880787,-7.298759774340823,0.4429385111440069
-1.7680359770891414,4.547084617605904,2.253288024617831,7.519493482151646,3.778141338484948,1.5849083779357465,-6.217751036636671,1.2981845905216691,-7.74699618107077,-1.9959996848353043,-3.597187679675244,-2.738349944458406,0.5339615662439456,11.291223260301264
-0.904280226948032,9.158106533093644,2.689974303646025,10.391097285809174,4.038919851953263,0.9335745968114488,-1.1074018455247256,5.709027050164472,-0.9353642315067816,1.51237126875143,4.286237478128385,3.3162440965959377,10.150636826582584,21.14419448254452
3.699686080807467,13.615481526564537,5.420734394339348,14.883036046595432,3.2166330908506438,-0.2717293318033977,11.478608080690996,11.854166089820552,5.021561583930833,6.673207901022921,11.62946134064515,12.033002604594031,17.311202750125886,23.1022657053185
10.50747934937374,15.563770205177924,8.657764874783744,14.619261537675666,2.053668770826524,-1.4187253842581986,14.703870525904703,12.343853919635343,7.908477812111514,6.379317248574707,15.018044817555731,19.42765225395172,19.09359708958172,15.382614782460736
16.059518684485198,13.755824778217388,10.636621126920176,8.77232605633243,0.1018298376998721,-1.9686946713939453,8.89318503087298,6.527725200467079,7.359567632976038,-0.1270111291995386,13.159912256209694,22.11648105893764,15.452937975003849,2.534802552934764
16.514804927119613,8.365162397073249,10.315846606523252,3.019407243185214,-3.1504043456474515,-0.3038277993360477,2.2967747000549816,1.5377035761506437,4.31649434275819,-6.80645986425628,7.135145454391115,18.40286556990241,8.514799632356365,-8.162350856121357
10.05805088383331,0.8943106050600562,7.530274682948566,-4.238535642692645,-7.799344806466847,1.025414396132134,-8.69039232669804,-4.298932780471876,-0.085417968155447,-15.402696046050714,-0.7312354977738593,8.699933965029572,0.81498571983132,-11.987714455316834
-1.3824056140322796,-6.186136650450855,2.9978905959073074,-6.372748111461019,-9.462275697099685,1.2132803497374658,-11.207882798436763,-5.906294922084493,-4.905868614615343,-16.415794727400172,-8.089992427636794,-4.3246480823099205,-5.750986933887951,-9.534065462764488
-12.676533784120338,-10.30082194772652,-1.7278296972149365,-2.0571859847945366,-7.907225997845209,1.1907525863358932,-3.6569509294789295,-1.7436556144194246,-8.952119503425017,-8.201789687580032,-13.062104365931129,-16.174612080279566,-9.818975048658046,-5.168905632774383
-18.43713939851321,-10.0703108599632,-4.7195645588406805,1.691922569781521,-4.189428694478793,-0.2813529181129777,-0.1756017348950913,-0.0004411122798214,-10.540569879372654,-0.5851282312098547,-14.305552263431032,-22.14287063765505,-10.269439901822338,-3.0343293882921643
-16.528759089920758,-6.251327789854056,-4.707741276379458,6.696043770422369,2.9407535856763958,-0.5407266504849159,2.137283949136395,0.7071628763332347,-8.29320860029869,8.947309594662098,-11.361489365749378,-19.835478210914705,-6.681153125148114,-4.073126841287952
-9.49158275963535,-1.380382116276337,-2.078661153428719,8.878604687669936,6.04753781639836,0.3131205551846863,2.3249256833161325,1.8029368073476555,-2.4739842471403257,12.52462518337138,-5.291593806483803,-10.960906204987667,-0.1694576732354917,-6.18278758022317
-2.604303465152526,1.8764781094019936,1.133412949829168,6.95013411376048,4.79268659598796,0.2812727795191436,-1.952052049814408,1.99447885301794,4.5292847658765005,8.087522487295857,1.22637753814535,-0.6460545268981832,6.583157075817351,-6.763789961334513
0.0320463602995531,2.463919088627378,2.5667720242758136,6.600622878835127,3.5960302418911336,0.7525324002181382,-3.410938800105711,3.2108048192593475,9.388492316610998,5.36825927861516,5.034414061980769,5.702486335067597,10.659622384042196,-5.162093074562478
-1.6846756439536,1.373349901700525,1.2602130297982264,6.6196713656684265,0.6895961251382988,-0.3457964994285328,-2.771487776291492,5.376733014561376,9.965230984902425,2.1000704372126218,4.408434856678824,5.813891726933848,10.7483437633191,-3.024978065085331
-4.342025116779171,0.4988895678481282,-1.6566423757923538,6.756221573940198,0.0289731537324874,-1.7861700779577032,-2.962727635130421,4.401225239103176,6.714329578148288,0.5037368386596854,0.3089788144543908,1.6386216194637306,7.973830023288541,-2.57604516358398
-4.236983487410308,0.9942391986276268,-3.958174982436384,7.832167199127673,2.238226940397126,-1.10996113332385,-2.7597432087403155,0.3023987479617047,2.2313205887550147,2.1524977209516503,-4.208842902598811,-2.634336000280575,4.983983722134763,-4.476064719730722
-0.5037256050145658,2.522416530974292,-4.175103922077145,8.21840637362924,3.3836856683703225,-0.6372249694698388,-1.2187444316871645,-2.1810421796467447,-0.6639158104105167,2.58793899002065,-6.16630905223915,-3.869338982325875,4.010339198336101,-7.077556478380641
4.453380329931111,3.8501737452747378,-2.6953311781320477,8.089846920582602,4.445522934908143,1.2001840024025037,1.6006330536219644,-3.702960581741777,-0.7855772995875299,2.7676001581970477,-4.781605397695071,-1.9459268020625016,5.40747148409848,-7.640391621814871
7.337329877550644,4.048269699825706,-1.1914004437789742,8.083011343152805,4.645733016960158,2.783192988556048,3.40129739332747,-4.063942207599624,0.9682030428082804,3.779401364292782,-1.850218439570014,0.8634622922744697,7.705164158964983,-4.516266740332394
6.823519757899049,3.207479704516146,-0.9822946328321294,7.943634106186163,3.387645940673161,1.423174078864192,4.234094873346595,-2.285225073271659,2.7094432914445576,5.102174515145384,-0.0750558406325723,2.146516556080158,8.980258546814191,1.4351353470113395
4.37850564535097,2.215866109536549,-1.8790670606198745,7.821739411288372,2.8888917867945745,0.5483253551545378,4.118939222370889,-3.620022205131833,3.1522295234881383,6.221420382776838,-0.7218520719701829,1.2164253593143783,8.39880915123534,7.374703370073348
2.5676777851684065,1.995740090031525,-2.536138618162425,7.774493655575315,2.8641082535430327,-0.927471656666691,2.43926116363539,-8.024929505862623,2.4206815495122385,7.1364060981370425,-2.55060318513587,-0.7022390474589599,6.75667114875192,10.642027749010268
2.6946939842497386,2.8981554533127536,-1.875491830674591,6.469238938776137,2.8624834817655183,-2.0976274499307057,1.6284164019388163,-9.815027683222985,1.5830169714663214,6.983364801068108,-2.935675892175638,-1.7257934057044082,5.677228148291931,10.859397123472569
4.00068468561733,4.605204415979571,-0.1727675053794541,3.831827555601123,3.269983688159123,-0.7692461995519636,1.5931534884811929,-9.810144689096694,1.4972378978198435,5.504557755284108,-0.2652268809707294,-0.806778079052151,6.155776719524425,10.16161592493745
4.909588121030524,6.3997774131645,1.1947785854260644,0.3503744791663333,2.505160899992432,-0.6411046929653286,-1.7410135943630365,-8.044482144840224,2.023258891423509,4.439541478146046,4.395812483602455,1.576335689340283,7.619576358684526,11.139727414093116
4.789725374100726,7.495368654397396,1.0245680234069,-4.338661416064553,0.4856780289902903,-0.9115811053653228,-8.19189518234256,-3.391180472385696,2.2093944534427408,3.5778505236894715,7.855029817843047,3.8312486692102814,8.268098881914824,14.084364706249488
4.412579731751066,7.290114033838407,-0.6295988615599413,-6.126243652069538,-0.523212956344908,-0.8265455918679818,-11.138670339414524,-1.3892222358607935,1.1827572586583983,2.3218133713657587,7.247257973567017,4.387793516892117,6.456405444799003,16.0221244975791
4.851478665604745,5.596939067918157,-2.4762032963542997,-4.6631421202653645,-0.7615198723438613,-1.1696549228509192,-10.944081560618292,-2.0133717365118358,-1.0510269029713015,0.9663745785716708,2.4774113335859056,2.84630121974044,2.039326850636044,12.807681251973593
6.2125955150840895,2.846363042819206,-2.959685859879912,-3.195170545937408,0.3575583313491425,0.1579798347519841,-5.964302685981377,-1.467458135064589,-3.513986325284776,-1.0226756647396826,-3.3850912769773918,0.3909813804711177,-3.404799828896401,2.914232796603315
7.58919589616707,0.0694145269882824,-1.3329247191565798,-0.7204186706368325,3.389686582933825,2.218051156431,5.630063574549973,-0.8494962383505791,-4.880514981157418,-3.7095767697418336,-6.2556573466141145,-0.9511695295425396,-7.664990380537915,-10.250810078563973
8.130331780290348,-1.543195064485161,1.8730723338748876,-0.1249619344466137,4.507515200416974,3.2048793347922686,11.0970046894057,0.9239205766499428,-4.351024245756264,-4.684730551656281,-4.161914625575179,0.1229593572579119,-9.41170934405494,-19.863060498954862
7.877624228642901,-1.3804487297549315,5.109888155425438,-2.0295962399671854,3.787698895221274,2.717274926669011,10.613126049010722,4.404955450269333,-2.2026586448624528,-3.873155491963658,1.1466026169358656,2.9480846853318496,-8.885271443307232,-20.30851615768384
7.421521927246431,0.0707559677345557,6.586206674362444,-2.911999620212137,2.182472555438417,0.5107664186722598,9.21560844361846,6.417998097041386,0.3419167363769873,-3.2971214546151986,5.536026709686837,5.186233508901182,-7.251753852424173,-11.381742593704416
6.89954227216532,1.448485512162108,5.281586825805107,-3.5278103085041983,-1.2153422176272328,-2.0636701745147,4.030678199650663,7.204736927322579,1.902614894984964,-2.448514658904011,5.835369984150873,4.7591517939044365,-5.343166826276388,1.4490117300078964
5.636517382425012,1.4508315365627595,1.776214443550515,-4.487009929660711,-2.3586731814324446,-3.17291571831625,3.0868610176918785,7.810630293906163,1.914565200979382,-1.6557454100076374,2.4788002380981027,1.9192605248718169,-3.0674108576779986,11.090510333209808
2.924495989058641,-0.2044607908408409,-1.7523740500508609,-5.323066262032231,-1.0774907272675287,-2.346249751281482,6.993776121239175,7.615024852827124,1.05851723623843,-1.227097088886285,-0.8474646266349168,-0.5406862028639239,-0.0610406292889251,13.933278966419778
-0.952062290955439,-2.5898404244912854,-2.771031005510764,-6.092726277221994,0.0841500036253361,0.0825121595288165,7.198077355252777,9.08278179135822,0.7093867385079591,0.8100490466833805,-0.3633513839126294,0.5028816008050114,3.205752245335475,11.830636183832496
-4.647430084463139,-4.304150058029933,-0.2993648501075086,-6.741755207523903,2.055785444710944,2.473180935699275,5.288739872436902,12.418248767219398,1.772202780358299,4.41409026808741,4.522680072093692,5.637259830366418,5.268934791882742,9.46133773270455
-6.735481273225361,-4.485162541976109,4.023406026699405,-6.297990648055142,2.6287825760031804,2.9425039417213767,3.932070750781796,13.55018035909789,3.933122852605578,6.646717523215447,10.700365148952216,12.07095226606384,4.917636234923009,9.62017016790756
-6.666124800480702,-3.2562909735115118,6.919769189487198,-4.624904960140084,1.3995637359657047,1.370719423705573,1.9355770055750168,12.839487212752829,6.071884587332534,7.721361814597073,14.084848951063575,15.815716699830148,2.671844058380742,10.747581325186417
-4.782592034927461,-1.3617370309123658,6.027103953509311,-3.971928456238329,1.4041150937247062,-1.488169787908392,5.989813928321003,10.662442068642465,7.444328003964273,8.8088659396258,13.121015756915938,15.015453412546693,0.7626236553971921,8.887196118121466
-1.689969778094394,0.5041709606262543,1.9275998269632169,-4.21731688014104,2.147478769143569,-4.319216633996025,16.92495214812813,6.130071614914952,8.381872468152523,9.324672008786564,9.900566887728132,11.31450725676416,1.2580715243536815,2.142841933854754
2.0375837227255715,2.017614292730684,-2.24360872664613,-3.822363705459056,3.4451752227623285,-5.026060351692868,19.908949518746464,3.6696970142300978,9.711130014123285,9.960684722980742,7.979560422627514,7.995477333495586,4.016271484890183,-6.647861720023627
5.510964466879841,3.059981554922871,-3.418780519283814,-3.1844673454061945,5.829669205209446,-3.251785576176864,15.71201678704699,3.352253236043001,11.509869414865022,10.793245136279682,9.062585952083596,6.79898466239635,6.627327356652415,-11.69864740064412
7.367616300523053,3.481172843132242,-1.1638668924777278,-1.4775877899794856,7.091782659360269,-0.1153690741942828,5.870802173203612,1.442823479738386,12.647551684898133,10.70020465607149,11.66561039707031,6.633892187706579,6.649357609940637,-9.052123411393126
6.595509319131253,3.177591202006312,2.0959369889678783,1.5942207696340744,7.233245755763406,3.529088349120609,-13.142940214547677,-1.2005631376994643,11.777245415545224,9.776951132627753,12.82129435091548,5.383023023710621,4.022069674892805,-0.0555721169705236
3.77193662793124,2.372389484420978,3.31523792172743,1.676697590031777,5.635461155441066,5.373524984606377,-20.28658465952335,-3.5504240284941644,8.814162490892642,7.676462481420881,10.94186253286037,2.7204883945557867,1.165419892095514,9.60756868960604
1.121743271061689,1.6421308092508582,1.396873102720832,-1.295941862000482,1.64004134254428,4.439609246384079,-14.939636025597574,-6.056897083147863,5.270519066730103,4.1059068560533225,7.017997285560568,0.7325711671644228,0.5308978091886729,14.393331745501
0.6672096561103587,1.4701406260135172,-2.226186863213826,-4.014822540978744,-1.54435162569433,2.556226390941938,-8.721742048423549,-7.231564440345261,2.9412296162313964,-0.4885070675788103,3.2170253964962825,1.444118693768047,2.0193555670938395,12.81524667382854
1.9227699465479449,1.6724621455847029,-5.309572016873943,-7.3856578848487215,-4.136528116253638,0.7640999134693829,3.2700696606163944,-6.850029320663652,2.193187025174339,-6.3208955734770935,0.5985491648980172,3.785020937967943,2.9137731578863395,7.514126052095108
1.6595455356115565,1.307436903579671,-6.957967515842185,-9.027621830614192,-6.02853411088572,-0.3154700039100415,6.302314784786412,-6.7347970140930205,1.6080156041639242,-9.6527888129755,-1.6198244108029485,3.4820421804035107,0.4665443304333081,2.0003436264155425
-3.3607343158132608,-0.6897184940689698,-8.121922958214952,-8.286318254319903,-6.4635532417999935,0.1334242357226717,-1.5787233694304852,-6.548334556995181,-0.6001876712763305,-10.109701811244404,-4.643190899966413,-3.348416774484747,-5.392569063904062,-2.4081172032203995
-12.84108711739028,-4.588438301293728,-10.12154575924552,-9.800614020038347,-9.404076329742097,0.116404811528034,-7.271312590932538,-5.600100696836597,-4.747577960510228,-10.449994338895864,-8.26612616878839,-15.95955256734488,-11.863951889405662,-6.648671129683812
-22.10269489437875,-9.44507272749459,-12.865249514498608,-13.048051549079458,-14.806089890338027,-1.939162478273428,-14.4518151839106,-4.127830369520991,-9.19146410368267,-9.70433572352744,-10.75514930762928,-28.26548504633713,-15.718264631423176,-11.61060512739794
-25.326866557195352,-13.60337100217414,-14.641571411526936,-13.346107240814382,-16.20171186418042,-3.345262930470159,-16.946244546767534,-1.9508757981548035,-11.639370930120814,-9.171035949894508,-10.661185095200391,-32.934833136594655,-15.965584312045127,-16.47242809126576
-20.406982477549903,-15.740659929922488,-13.692227336464862,-11.187019247589404,-13.977689180902262,-3.358865306265251,-12.627604306148532,1.0231552400332855,-11.013447450720887,-9.188033748152735,-8.62296397663124,-27.151263236442144,-14.301588761621424,-19.542567683219005
-11.060122819843023,-15.597585800771515,-9.959593011993684,-7.42357948011433,-9.940548713946416,-3.103639871229231,-9.870678972469433,3.748465879332057,-8.189443667080752,-8.507836670899767,-7.112060606749797,-15.099723948213612,-13.146643305304064,-20.312045398438947
-4.037111576150082,-13.819366783239282,-5.255172768223055,-1.0857232997061486,-2.6790251389230084,-0.8757347485169431,-6.760257558802361,6.209883429030091,-5.055329048174826,-7.514668389741585,-8.149049507207344,-4.847988061432801,-13.309882214851465,-19.971586879779107
-3.671849240354604,-11.174978836938491,-1.7022225248582004,1.5959540279571145,-0.2462565045368957,1.1019091881831606,-3.0256857331312523,6.699410209626331,-2.876637587166101,-6.860838345879079,-11.169132769435024,-2.103634340340747,-13.421627369664478,-19.572865108291552
-8.510237475510422,-7.996701118548742,-0.0036293019334294,0.271336010924024,-3.191219638176789,0.5989142217584398,0.1999465556805645,4.743243803227185,-1.4858315570010348,-6.4979550214104265,-13.232922726205118,-6.056013264685859,-11.458115061245778,-18.04888155889718
-12.921591029225326,-4.386621273787483,0.8206943844689931,0.9391183240531348,-3.698264486769201,1.1894329506921688,6.286563765028712,4.24538721315084,0.0608992234648724,-4.2663214147673445,-11.590425767731348,-10.6930627900079,-6.820424360071229,-12.81098234860758
-12.113884713501191,-0.8432983423185192,2.111317603238632,2.312546803205755,-3.471897085135609,1.8818387620462789,15.098880818461582,4.857266699094018,2.1209594898729733,-0.1168381310844502,-6.32030939368795,-10.235099780616537,-1.126137879919412,-2.823563453329712
-6.027650427303541,1.5802037487202938,4.096943292931599,3.815136488626168,-1.6583613342726249,1.3605047533062915,17.085002716974408,4.39910569847429,3.795405591119305,2.345442992109146,-0.5849411402811029,-3.887558515835536,2.8794473943940204,9.004482705019143
1.1522211070237347,2.0077965094527315,5.730044099317496,6.321611678233835,3.026962127316427,1.4587215930533686,12.07851615664746,3.5219305199253483,3.660854874452213,3.385981121418796,1.8518418989710312,4.021460972238344,3.347730880433886,17.040128667627727
5.010445804942947,0.7321825600319585,5.87202478565473,6.279723581132193,4.791528880668948,0.8185381787500707,4.164744543640005,-0.6959467814655871,1.2455640351039392,2.039831681648404,-0.2550495595192501,8.216846921668662,0.7182034628050928,17.160000853312795
4.561621872094406,-0.6475204436427475,4.534219378345938,3.601687487338184,3.933036657360123,-0.5816840810743266,-9.018493290473254,-8.811933075466733,-2.179610056675358,-2.650735630168313,-4.553006800054845,6.983594067665592,-2.5132640389617222,10.218356322492014
2.4321642275505155,-0.3383300079943296,2.948480557692505,3.543533772889741,4.131976123005753,-0.9383253914504688,-14.475396257590589,-11.438799117433769,-4.354491269702635,-4.621075548712292,-6.966797656901463,3.1241393847816994,-3.442902331308744,1.49150838040606
1.9281963640795536,2.162327640728336,2.501419129726173,5.639202210769652,4.369892586866214,-0.6607302144911043,-11.076277017841475,-8.718485052616833,-3.7806195426111913,-4.051853293154903,-4.937336790918607,0.9817847995703914,-0.6721858351801302,-3.4233561324882658
4.079479753984572,5.586446949345088,3.6395831539071537,8.24818738703036,5.391072835927107,-0.6345048416841373,-7.23914020511883,-4.447120779656256,-0.9752960387108942,-1.704836964171887,0.6397072064628446,2.6053149112947267,4.784998849230874,-2.5858327846129328
7.278781230398749,7.923558948421942,5.715373414347027,12.407336026101705,7.738207415106699,-0.6732247184815517,0.3535557852333498,3.513286436992366,1.8647339972781083,3.897029359947087,6.2519879106661165,6.456213221285566,10.155515162259348,1.7055034867848915
9.327854267805378,8.043740036034364,7.7124727848802195,13.288288929464818,7.990869894321562,-0.5558099503788986,4.948276874854831,6.065276819712041,2.5107220366594447,5.586484759519043,8.536052242556252,9.327556460711437,12.640543071192267,5.669358727002873
9.525601964640371,6.457352618920822,9.022353129398423,10.5034169621283,6.268603677210818,-0.315145540493262,5.430708626817235,2.4195656141462334,0.2975747917776061,3.246040197007232,6.654133988934973,9.228531081141796,11.09629962078759,7.223572018982054
8.85722160580599,4.620520498380529,9.623632205031072,8.731390387235388,5.547668740761303,0.3844199616228526,6.258109304918823,-0.3713664509744771,-3.550520608493457,-0.710249015690402,2.509558306983536,6.582408027512088,6.644150160297613,6.872117158423748
8.546518330508661,3.5842684846522843,9.757797838811143,6.92491750950965,5.267324387203073,1.9559178632509897,5.51039172395077,-4.487383687769023,-6.950210885085312,-8.045067890273836,-1.0472101715477038,3.170994191738714,1.9237676164988216,6.167643955245126
8.771128544861085,3.3073397058155933,9.627089565099936,6.286109113721579,5.118007395201123,2.7608407683686784,3.389555756956287,-6.329173577442717,-8.383842031373547,-9.372134229628877,-2.3041416037865474,0.4451234990042394,-0.4836185576202751,5.816159896650333
8.80280023719547,3.1558858239915253,9.40234304814942,7.6370328416321955,5.5890857169122325,1.8893658128541928,0.0213563045743483,-4.825927922575193,-7.6514434330946415,-4.058315073795751,-1.4244230386495929,-1.0377065143538855,0.4825080095450857,5.301256053246107
8.120932878392978,2.8750855830281807,9.339759668677289,6.622453622313807,3.605916674375992,0.4235270591789877,-3.3584603816539924,-4.388509103751619,-5.618116216708017,1.2272953543839735,0.3622447677903437,-0.9812488380728156,3.8217230500432606,3.9566746713353496
7.100853710205115,2.9149983394909214,9.668265088837188,3.5522325050347634,-0.9815740851408824,-2.39548164756345,-6.582590610757063,-3.9500358963025,-3.4262606672459697,8.713312273177513,1.977989604348068,1.1114556457114304,7.127932702355224,1.9404024838953544
6.559476483940671,3.783007178662956,10.248769782697764,1.4179054171379488,-3.3437501061466044,-4.385755097175994,-7.467499780537943,-4.025471653277394,-1.8539631209187064,10.468736539046612,2.9679923635728755,5.291178244886169,8.06278382651442,-0.0126214478148085
6.780329019585452,5.197021241524453,10.387166361715344,-0.4807340761334822,-3.9097322793509424,-3.3536031771180737,-5.340312111492387,-5.248372888469775,-1.138369502487194,5.10514444563015,3.1509654059714194,10.144522952136183,5.79888185347977,-1.569308663855054
7.13778981824305,6.051215407857853,9.147173852404649,-1.2060256244623568,-3.901804264148824,-1.4507305051389885,-3.747544362808757,-6.453497694781493,-1.131245845613421,1.4785155993758132,2.274272350318597,12.990584844284284,1.550224724516056,-3.123564515861517
6.698841842289539,5.328405344592568,6.048530790025723,-0.206721478287225,-2.341572642850404,1.5866689721932363,-2.049789992632498,-7.977735987444952,-1.5133072693839722,-2.415450710655646,0.2732055993497511,11.73464896965146,-2.1968655484163264,-4.9054019762729695
5.137026677136873,3.039443777862232,1.592975024119255,-0.8532907610865366,-2.605766650115041,3.7384010083114583,-0.5026925318761699,-8.256442715892886,-1.9506910670226036,-3.92983390306819,-2.224864020499808,6.826864570326052,-3.3247909878610926,-5.898277321278954
3.0401615568503075,0.1915780684632864,-2.905497790139293,-2.9472411701672634,-4.846825958501162,2.570912374656825,0.2674282915913584,-7.022725028691296,-2.237961427468236,-1.512981583656924,-3.996429297023497,1.2227718266683496,-1.5305401852897376,-4.096314808481793
1.3507653475473944,-2.1890851235139053,-6.157478056493801,-5.050754528151995,-5.823431715490728,0.2933496115941174,2.512706290063796,-5.15993099006069,-2.4304721148641875,-0.4129480145761314,-4.143342865922705,-1.9855173263213144,1.458536522124632,1.6529771200919186
0.4902059794425213,-3.91660218126799,-7.766169669966189,-7.823480053809455,-6.191852906350742,-2.342742391274176,6.0653907124122215,-2.1830127850131595,-2.825875230205384,0.3659216984348736,-3.0115851172997736,-2.1741592984425324,3.1365697018757146,9.803331187493768
-0.0462392731469663,-5.435984152760511,-8.395471326421898,-8.360278299643232,-5.934852031642778,-3.300917096904035,5.996585597574431,-0.6423225327833841,-3.667295398573401,1.4957898797578453,-2.042004014578197,-1.46764372580094,2.092210777959849,16.249696871818742
-1.2654511432093614,-6.8088615871326965,-9.078524759084187,-6.325561462510983,-4.52200581555162,-1.0390064290236516,2.306721586392441,-0.7594430138605939,-4.708958746872781,2.2117593481031887,-2.459189884604825,-2.3349410566191864,-0.9011001775027124,16.827137499200717
-3.739662392131436,-7.156245394533698,-10.266131463214151,-4.434370034949388,-3.493939432451982,1.8902314839733771,-2.7114048012651586,-0.3146230550187454,-5.062265867158544,2.585074777601405,-3.955990620242801,-4.891649612813239,-3.4845186677664515,10.36267262993374
-6.910248143096737,-5.4247305045136045,-11.465207087891145,-1.9895387025463087,-2.732063095247124,4.525282902759518,-10.212979336476147,0.100581683169695,-3.6659645359083015,2.421323411061977,-4.733597576047828,-6.713718622277384,-3.6077562178378457,-0.1984235621794141
-9.295377895794331,-1.851153555879819,-11.78545959858127,-1.6918806143612513,-2.262129377545333,4.6524154769473824,-11.70470669692415,1.011979167233457,-0.2135096515629584,1.593862060704216,-3.077564802041593,-5.467060594912823,-1.2197820048045287,-9.584652371949232
-9.610681902136434,1.4943046547504082,-10.874027102247169,-4.168549130767649,-2.4272619293969098,1.3071202142551224,-6.327510862461628,2.749277887212098,4.177755008378426,-0.036409290955425,0.8496820626628505,-1.7140610340850344,1.6646769362788518,-13.596817509310084
-7.97465900391478,2.0080221471635014,-9.363428419549678,-6.108688545472858,-3.172029054588044,-1.3300694821407404,-1.4329772313514595,2.9213959655569868,7.295584414684527,-0.9485910792800412,4.693885889775288,1.0768548892027638,2.620471146065597,-11.62697544786772
-6.06595518788788,-1.2196556779075536,-8.417809997860786,-8.255338102071946,-4.688194337130811,-3.559240470002232,5.043374321788895,1.5906607297607307,7.202795470219144,-1.1099644161055235,5.561910358937098,-0.4310944813782953,0.7994099219904456,-6.592721411354546
-5.831072113080268,-6.293818698915743,-8.787035589814991,-8.688766635644912,-5.479750807003277,-4.164224414801702,7.457855659718176,0.961515990106925,3.7579333775788655,-1.317086335528877,2.3702181365072192,-6.187086778329899,-2.4448332964223027,-2.5299241538938304
-7.686735179065351,-9.732115166900485,-10.186257695461734,-6.734527726697472,-5.5023034190730415,-1.7745815141977088,4.382661682095687,0.6403209507302661,-0.9466272500731066,-1.2127151800360791,-3.106523537181374,-12.431802144008714,-4.777253169750395,-1.7066813685721058
-9.867140834921315,-9.120732837102707,-11.4795189104035,-4.417631301847746,-4.692070781741233,-0.9181922505744872,3.766152334026308,2.3288340471289763,-3.782807821147685,-1.2861487693329292,-7.4491166482883955,-14.687581372038435,-4.794288259224175,-3.360522810819589
-9.728021009264296,-4.954596625372744,-11.44425779922858,-1.0570989101892054,-2.606006790369928,0.1532092862575082,4.122722790537477,6.599446045417457,-2.709056599287237,-1.6061212755611107,-8.101959138362588,-11.325091745174744,-2.943200260147421,-4.911472551696932
-6.021700110099857,-0.0964823569242412,-9.500350899663488,1.2313041186873448,-1.1167144306129515,1.543802706781101,3.6268405768181,8.476738032266178,1.7254792930546046,-1.3079020991486423,-5.110140181747454,-4.570244123399107,-0.7958502010413326,-4.588816391349326
-0.1234956506285129,2.6043163650876977,-5.9543886619342175,2.0807159282176824,-0.1443118332904895,1.0857755936078812,3.409018663129328,8.234672465460493,6.676539313681303,-0.4626146878609765,-0.7433827415777046,1.6191245842740043,0.4350027242209648,-3.182732312714734
4.936865623898711,2.435756943364624,-1.7560772452335414,2.233590533548477,1.513365422505497,1.243427131352829,0.808504092133907,6.041657581136458,8.943114594745396,0.4719381557921545,2.4677800240481247,4.533364128815606,0.7017486939762989,-3.228355027497969
6.771472081535876,0.9628402976295832,1.96846478748364,0.9944711771356134,3.520291309804864,0.2401980582741162,-4.384639195372436,0.7008313210355608,7.137242222683881,1.6476688091483922,3.4968060613824434,3.930881980587088,0.6862588088042969,-6.180238396979803
5.219230361482715,0.3164243469090024,4.37999727147627,1.322744298054485,5.598798810311973,-1.569315515407089,-5.341697529820327,-0.8917603368539269,2.516348692999884,1.774754952072866,3.046721621482959,1.0819402629044816,0.8381317097272643,-10.225119518194646
1.9871008057042443,1.3422078301179,5.280535062234179,3.3179394917507667,7.869825253912907,-1.3777174357990585,-2.174478672834276,1.3509734268617155,-2.036588556517557,0.6752807377893779,2.4622030968227198,-2.6015048779923973,0.976435789136957,-11.175993572503245
-1.0017162928274246,3.2275991198320355,5.238520826916968,6.306428836606168,7.977065842633135,-0.2428537433748131,2.061306771047198,4.268127864055889,-4.020812394564004,-0.454351101428205,2.616595152921249,-5.74274171430325,0.7623507648825694,-6.132010055698643
-2.869786440669856,4.687626372141679,5.309880693560345,11.074453398882694,5.653548967101706,2.235290234713214,8.89476718016311,9.464925856706238,-2.826929678161079,-1.9475751828491763,3.681051191364716,-6.4094852241959615,0.3590557057327146,3.3180561203982397
-3.695754913681398,5.342205065396875,6.3346236533110485,12.296770147733191,4.158746021486639,3.9466173684915726,11.216414857150088,10.356897812247023,0.2043249787817203,-1.9898582955067043,5.521202518075832,-2.503935704955893,0.4491287305593729,11.608961477461762
-3.618187286749194,5.903309860058847,8.188016566833799,9.689130252175003,3.019961389189514,2.1583065671494115,8.303571169806437,6.298434233219364,2.976902604652679,-0.2569080950248377,7.898318455144473,6.253773406356455,1.5443115501517788,13.415392381825608
-2.343552808219796,7.114268647491452,9.631306763683142,6.334553896587152,4.327302078155967,-0.6116007226843179,4.686249713097761,2.4623746902717456,4.0618161419791,1.0384408017684217,10.20372551100169,16.528123655195472,3.3158367420637727,7.958095727562802
0.4303522498727599,8.672192873950172,9.117314466975875,0.9294471622479988,8.929080429886527,-3.6693868689420936,-1.5069819681244234,-2.761698706202476,3.357796613625789,2.347438414200832,11.296239326188566,22.284763718339583,4.683773052551491,-0.4982686841140751
4.2752929788074425,9.340499170696456,6.106194490290768,-1.0751916955165228,10.523339558153138,-4.500710147299169,-4.737852264669505,-4.776927066163633,1.7307492009015846,2.415952701174642,10.040830754616527,18.73404889836095,4.669923006878612,-6.349579726388001
7.892646144199865,8.19098559456301,1.8193579789960024,0.990671631101906,9.510253247748096,-1.4156041868387468,-4.265146215276299,-2.6061220028903844,0.1539734846664657,0.7659531319882565,6.303629670842753,6.404865451381852,3.292147948143516,-7.039834811914318
9.810519119097222,5.71007381906864,-1.3835044718505003,2.134082744917748,7.035256381535095,1.089615469650696,-3.2230058758241564,-1.4814467405491734,-0.8775873678658854,0.2878539108040685,1.4501102296983106,-8.37308977659211,1.7166902365598986,-4.175129823535016
9.320829514271438,3.58443525412018,-1.698590145800381,3.6935750443472775,1.7143223838424744,2.9101879899985,-0.0425907621404295,-0.1677110246523421,-1.2971779862160986,0.6752113241619355,-2.319793239074272,-17.53116883119405,1.4751216391221078,-0.80856669994904
6.88252560569596,3.2632845412840368,0.6944946482136629,3.625131499721756,-0.2446153409536543,2.857082574409348,1.09772776741723,0.0968998151382444,-1.07830440960025,0.827506010896917,-3.4274864965405243,-16.85389727212288,3.2795678735477765,1.9293858237451784
3.7334104682995104,4.613703182768774,3.725204591908792,1.11089052625534,1.348051220560056,0.1222616010831997,-0.1831435892630262,-1.5344956326624968,-0.0966979247239976,1.2461371784165731,-2.025076099520561,-8.642626578577634,6.289629178329989,5.351062361139611
1.080484045194538,5.9469819162203805,5.041620155571167,-0.9777866988817624,1.326805745345383,-0.6484424534412855,-1.6650508529596697,-2.320445918480579,1.5350671826144264,0.2121681967861826,0.1522785618267335,0.5586565293659191,8.42318708252381,10.60300891119087
-0.5277222170600169,5.449596118924774,3.800709464336365,-3.324055490972006,0.9472152310145552,-1.0791574754061712,-4.437670464392325,-2.7525573999708213,3.089688320870636,-2.4884203620166714,1.1081385743168255,5.094159593844665,7.630634803171631,15.993592271361932
-1.2647635699838131,2.778225517774501,1.1533250060573437,-4.48985171033176,-0.2784133440314768,-1.2048165307450516,-4.655144781128024,-2.828627650380835,3.4429350956287976,-3.236156720150759,0.0812554261773641,3.999161270324493,3.3546169293205423,17.395936054349647
-1.5742178877088977,-0.5745588880376431,-0.8787561499002834,-3.9483081483044256,-3.125609200832411,0.2800119715158865,-1.937346791485615,-2.098143333070703,1.958480052428712,-2.240047627582538,-1.925895447082212,0.7722583433839247,-2.8612755347280654,11.714783913903348
-1.610902125270968,-2.472951193451763,-1.0481374395099865,-2.8146156783818923,-3.2885349408628093,-0.1042128879077807,0.1396722641813207,-0.66061815889936,-0.7067919226105914,-0.4222354274286649,-3.010376860536184,-0.1342072301091832,-8.184562698394558,0.2669646102987997
-1.0662965193579907,-1.901738698554737,0.350654775194215,-0.5307824514395971,-0.8454507232630111,0.3281114349953951,2.454166407418421,1.7086517490923685,-2.776794776023792,3.0094280484318,-1.971384577418604,3.035602579087737,-10.287985330227997,-11.177393369091988
0.4186245430676933,0.1525060220458272,2.043335777692306,0.2933521504507861,0.3403517124863727,1.586658763099527,3.0664910746415157,3.2991027180105363,-2.585380416054022,4.964424840041341,0.6438133142588356,8.305211941666215,-8.849913551806026,-16.033306209029007
2.5736007619725,1.4299418734354674,2.929046211689865,-0.5814430251094428,0.9997103995604454,1.226026386929389,1.2914545561130524,4.055606549998442,0.1080848728384751,5.307939195796184,2.9805651155778605,11.901682124261356,-5.597670913149358,-11.431795054212555
4.226764531190099,0.164487435309212,2.7637082554700214,-1.550467292535864,0.4179322493501012,1.3978128115643491,0.8988571904903558,3.7692310394438544,3.8675002200911024,5.734207406937954,3.5064382550835376,11.2635654132159,-2.8564577088057206,-0.202270311962593
3.904319026468869,-3.5137020826907985,1.9807973149411569,-3.291994571741629,-2.1498890144313174,-0.0430480794702465,1.381815499238476,1.9171496078860129,6.620719964565097,5.509550833615804,2.413851628923084,6.755281138596331,-1.8119596169670729,11.038721974156346
1.015125281733276,-7.654048510890675,1.0970198804331233,-3.987611830179057,-3.327356666911679,-2.2220354054613463,1.3644218576156824,0.3314808729727418,7.084197897177944,4.4280518544720175,1.4524225396004056,1.0575627601104711,-1.9263574206818248,16.164877263868334
-3.354706375733997,-9.97116180424797,0.3503083989797346,-3.39749739742091,-3.358798848793551,-2.3141185817923366,1.4427573620962226,-1.158568289547028,5.418239883970728,2.519504575425884,2.2201509438041285,-2.9555559873491006,-1.882056258880482,13.204727919688338
-6.909791654586769,-9.540063528563197,-0.2256651627935753,-3.2169437947270008,-3.214247561838924,-2.3851382890462087,2.388491879371611,-2.189070786199653,2.759477966895645,0.5094310218758802,4.439992555707846,-4.105006990623252,-1.040593562536117,5.117552251508243
-7.742707750348927,-7.353783984205137,-0.5695330154701992,-3.0043794747409995,-2.219289574317638,-1.5176191608009184,4.211436518015503,-2.329685456603229,0.2531985093324351,-1.602054847934549,5.905309773110673,-3.280798243856424,-0.0126773414300203,-2.555055333578906
-5.807823959930317,-5.359587858926801,-0.5261537376706542,-2.656144654675197,-1.717834926131787,-0.0319570846644235,5.219894359430641,-1.9866478996525472,-1.552718731998823,-2.2025293540329987,4.324987507394667,-2.304779139776599,0.1134878304118558,-5.445070581360056
-2.903021408642928,-4.843850905985363,0.0206418612985714,-2.374623537828839,-1.74713564900964,-0.0700598466388345,5.489386993640516,-0.8620240616445902,-2.638386304180329,-0.9209080595670802,-0.472042779248909,-2.327300721934847,-0.986372712214404,-3.030279429474831
-1.01339386473461,-5.511305871845678,1.0078726552481498,-1.615885486730114,-1.3972372242219049,0.4132396563310455,1.2077643311108577,-0.1003821755147281,-3.109042711657736,-0.0872801507573154,-5.944549722012482,-2.956021514590475,-2.419622097359479,1.47318286808553
-0.4507094649254952,-5.930392570392286,2.1908880662218166,-0.3899559887455882,-0.9419828468344924,1.3667724495014444,-8.448759416468882,0.2561382705486829,-2.9531123854071666,0.7228262365790772,-8.50301594870993,-2.663585378971277,-2.816988525316333,3.798686651630902
0.4022258101142597,-4.84425211651029,3.2525135531211333,0.2467468822453725,-0.4789367368185423,1.5328671997331056,-11.515800115907195,0.8639980289122615,-2.126778005896057,1.5621753567801506,-6.1685436951568136,-0.1180018556212871,-1.5023632072271766,1.9006666090106703
3.3473856946638136,-2.208461675096032,3.929083571567986,0.3231574925870855,0.0794197573459443,1.8126104651266235,-8.298409767758407,1.459118168244912,-0.7636962554042412,2.041219919290508,-0.131653320227187,4.532768525687715,0.996235397095134,-2.58372248719013
8.236693355506858,0.8260371277320786,4.109076721777058,0.6189971971215716,0.1772788229111735,1.8801428149681303,-0.51389998881274,2.3979213802741577,0.7642535884525898,2.422406806432801,6.0028760375431744,9.402652114389682,3.456270363043401,-5.683181744605108
12.61455378003285,2.844808080524203,3.893208984598985,0.9339909294312052,-0.232641439034671,1.523102408218481,14.80791499924403,3.7488352377140672,2.0111559025313,2.5449169434160845,8.697296318706975,11.97351307169204,4.898767867457366,-4.113995186301096
13.668998471967145,3.2039632805850715,3.5686640734386827,1.4179556790402972,-0.6399280343551719,1.1400740043558946,19.299950274847987,3.454861781622395,2.6897786455646013,1.949411752043784,6.821197106509487,10.889302823102,5.113055291875227,2.3307784739008355
10.695679261171335,2.387547894848254,3.440411253028444,2.1923152587202983,-1.1710189062642158,0.5260841788283565,12.269506735185136,1.4312104819909206,2.7631004527617904,0.5526493364942269,2.161118184881616,7.067622614581694,4.48942739153884,10.650211618324562
5.670676223431542,1.4900219717243743,3.5755708771528987,2.97570256642678,-0.9264385539526158,-0.5567503177101971,4.433717183550744,-0.2339340296609682,2.3343603115204274,0.2308764938933408,-2.158194764279884,3.093574620643764,3.5606397895748216,16.58706351846088
1.3874946249568012,1.2746128825274925,3.66157126049248,3.841254338904017,0.2554016889828319,-2.3254613307166467,-8.519019969157453,-1.9483151960466265,1.4924753371478374,0.9933921852905896,-4.016911556736275,1.2137676710825076,2.7607787882425328,17.131569187313374
-0.9348307069733082,1.5505364401462316,3.1618028430148613,3.815562541602056,0.6016609735075767,-3.205108146003183,-13.030961118152858,-2.044243761953591,0.3240838876895395,1.2194385761424236,-3.5690386780080985,1.5511912096446707,2.4589183676281507,12.032427238636105
-2.2056319424706032,1.3750939427550009,1.712029466907829,2.7667409216264054,0.2687159956379662,-2.5068269820077496,-7.1888213573749296,-0.0002844647180376,-0.903070893255176,1.270391995272229,-2.5650788671646296,2.125173233914502,2.919848189658346,3.698896115189008
-3.8303717533576815,-0.0492741527275981,-0.5506969138509277,0.3982757664891496,-1.0616455503036102,-1.608228588148433,-4.046553760269963,0.8113692335928624,-1.6550755991569377,0.6778030561594846,-2.516659995426771,0.7161539178052223,3.990638630442902,-4.2062869594355305
-5.845384190106529,-2.5179348138884805,-3.024565785642853,-3.665478436801497,-3.8232571066066976,0.2144954248945858,-0.2488065997771742,0.7904274151783492,-1.412090540217534,-0.8550180078695053,-3.422500619813647,-3.0719517926124453,4.82782889220713,-8.733568068815295
-6.87414849273906,-4.793228286519007,-5.030186890219607,-5.390990608997232,-4.7091528189553165,1.5866998179369476,0.5874278498444543,0.3086987453196326,-0.1931078166937396,-1.6395067732568838,-4.131777635149561,-7.39268123073543,4.1992472224953445,-9.261813498163583
-5.839872369053442,-5.521240613810983,-6.211320052569871,-4.666635114611708,-3.708511425387974,1.132229625600956,-3.5731810460465008,-1.290286262972291,1.192206894440723,-1.785955751453098,-3.805950146458031,-9.704142347752672,1.416631174885108,-7.841865268827561
-3.439064764908881,-4.340827060970207,-6.614466902796485,-2.8499085363443366,-2.7981408523445386,0.6256035160597546,-4.517545350316337,-1.7195792671025822,1.5784631315772613,-2.926897816664615,-2.900600945775425,-8.848024060352884,-2.826436240182444,-7.791863167771737
-1.7270212784037335,-2.1740347353530325,-6.451808715755414,1.0981991627767105,-1.2669190172598783,-0.368939185490383,-3.4221673124081304,-0.995420900113526,0.3452921684926318,-4.832883339519361,-2.654381256739132,-5.885620366153166,-6.6303680608452975,-11.162956845497764
-2.271377460539018,-0.400152928508712,-5.863751676725009,3.0820476831592383,-0.6013002329866853,-1.1198384445265563,-2.521970229515563,-0.6454455576286868,-1.9902609699201927,-5.742851296201302,-3.661353457115095,-3.164461124117537,-8.199593954811668,-16.811554305849835
-4.794117174124027,0.3261773909900167,-4.934622696282679,2.896685758085865,-1.1031733428499928,-0.1871315616360704,-0.5059166491932161,-0.2243276949602726,-4.093228198033796,-5.808053671591609,-5.08389452754572,-2.593295895358535,-7.263433956806178,-20.800787180034625
-7.541882626808242,0.4911763401698863,-3.856724963069979,3.0761404840704167,-0.3345107081390742,1.2647125612411585,-1.19282228820014,-0.5648359984263547,-4.826724041110555,-4.887243865389481,-5.416475730068687,-4.509827139299102,-5.292931566426091,-19.238111713144512
-8.772514598150146,0.9995881556343172,-2.9328431528442955,2.6623557462127567,1.398871593823127,3.120558127131551,-4.909577025663893,-1.9283129295395307,-4.081560333252401,-2.5472002013948774,-4.08627027026407,-7.750976372612406,-4.214344114747142,-11.538651761677857
-7.829639896071981,2.071364186181121,-2.334632551851783,1.8661501819107944,1.7370081930467625,3.773088519004352,-6.989938100149241,-2.8744789537090303,-2.7153180942570003,-2.346957787655872,-2.251055416208509,-10.54852607378223,-4.757867785984409,-1.410538260684497
-5.100046068929082,2.8852194941602107,-1.9305381359505915,0.8647761078802776,0.9331212022723392,1.7973389035307163,-8.151807352885848,-3.617438848389663,-1.7555177533120343,-4.373077467462903,-1.896190610814564,-11.521370228114044,-5.987562065808064,5.48751304713236
-1.467207945334465,2.33346548673002,-1.51685735462204,-1.2521383527751473,-0.6804614103145349,-0.752755057157491,-6.849822296219728,-4.000791138771431,-1.6796034246122815,-5.64959134362189,-4.017292186249023,-10.296411869275552,-6.439143733889331,5.492786665657491
1.8890440997742248,0.1382942169948151,-1.2993518706957587,-4.4620926998813,-3.6017052002180923,-3.8796239301724422,-2.0394168133705453,-3.738232471838042,-2.384964974754965,-6.898766173563907,-7.621053984266908,-7.640395222443644,-5.713069840655621,-0.6624161854211508
3.4127027255856817,-2.762596811341368,-2.01740549001385,-6.041489541176428,-4.116190358902742,-5.089889723158952,1.0356868660751857,-3.9833115746542345,-3.660834788052995,-6.952687108574166,-10.529823022476982,-5.1163025675642615,-4.919260245563862,-8.839814762457252
1.5795147930304196,-4.915038801945492,-4.329031271483451,-5.944572199621388,-2.02064783321738,-2.6312168734278605,2.832309588890256,-4.657418091849007,-5.461742618162212,-5.27159363430046,-11.251155271738092,-4.327686117241079,-5.51702406208284,-14.786234608799504
-3.96125276226595,-5.450016705175898,-7.894826235528214,-5.421114701375141,-0.2393568135306354,-0.32636902309123,4.047771416996839,-5.3556396901797125,-7.604738360719665,-5.171394762634621,-10.147981409944975,-6.005182151670908,-7.695931047941137,-16.802619508013088
-11.419449426755577,-4.5951626083447294,-11.14123026477877,-3.8080162618239295,2.0624761613242897,2.4537222214133263,3.5903400035878628,-6.302136092225041,-9.31211346736896,-6.390907965403457,-8.823846614302,-9.435591819371396,-9.90652772174434,-15.782062919128087
-17.312778569127005,-3.258311640809495,-12.21131060239022,-3.244805048185486,2.3474492373237794,3.787012594621852,2.976386921470444,-6.402513109348661,-9.371489547665782,-6.373152847360571,-8.381007948346621,-12.727285829766906,-10.051556675662326,-13.25810217256354
-18.47681309373853,-2.23342911231029,-10.443379723993246,-3.922268680621782,0.01889569855251,1.497303530498847,1.9561198497587131,-5.554679476882955,-7.104732893321199,-5.612038751384685,-8.310321062423881,-13.942760363584448,-7.284183631996356,-9.800391955709712
-14.252877682981756,-1.8077419575325704,-7.040782434532218,-4.571812076728604,-1.5634480336817105,0.2236124718790955,0.1428440011209151,-4.897037334292871,-3.339495572551641,-3.950057169471171,-7.126447413219083,-12.429066056201664,-2.815266432198925,-5.252893085765692
-7.059596359414854,-1.9677447491227864,-4.2134120244967335,-5.741808014078448,-3.067996049589069,-1.2019415569387806,-2.2702290429485443,-4.191614224265001,-0.2485203172843739,-0.9228388616556344,-4.076948654626392,-9.308177293822313,0.9624449232181148,-0.0509993391600289
-0.7733947917122634,-2.710777852641783,-3.462830180024895,-6.069920893131509,-3.5102375472768794,-2.321567072017865,-3.72034223549603,-3.139520896988984,0.1979559226060132,0.8841388041495013,-0.1184738188525926,-6.55410618763996,2.270992026182398,4.287157633858442
1.8863139985111133,-3.947036328290253,-4.487296460039019,-5.381315213746018,-2.2543036052861787,-0.7634135766570915,-4.056493138093243,-1.8891623166901603,-1.9835909179811184,1.4910922342118824,2.919406750888242,-5.233418005794675,1.1955485583562648,6.253487052065495
1.000270102310438,-5.112818221748853,-5.598633932622022,-4.516372241240955,-1.7238146413585398,-0.0940461993454082,-4.738760914936185,-0.0034476566257833,-4.448468923754277,3.3967217562191374,4.157129850928769,-4.408021166433699,-0.5348980120418076,5.8028556561389735
-1.0039935989484832,-5.142310371389499,-5.169147308462101,-3.104648532467602,-1.5599405307375638,0.8034890743141335,-5.383702973422291,2.572828808050012,-4.230787365743879,6.165278291685092,4.539644879731753,-1.8824569007664136,-0.9395110067514024,4.455182309253274
-1.3729706145987706,-3.1649510020631624,-2.813227014627813,-1.9967870878012464,-1.1551749716643602,1.860031529933088,-4.606989825129003,3.993396328896912,-0.2435466460090083,7.232075572641899,5.753625953708081,3.597658732122184,0.7871157592880849,3.8712096940274137
0.9917649177637742,0.5724022771125448,0.5623665092573162,-1.2969520989648888,-0.8934798996242405,1.0352746438029004,-2.4503902652216465,4.215581403125986,5.583300447307238,6.787008257243217,8.258222736055785,10.59782959514645,3.834766450425803,4.450526920932518
4.965978447687732,4.53707551468473,3.6109358317922897,0.0425160728074356,-0.3855330902422151,0.3401319127453028,0.9951542620587938,4.527566595281062,9.629477836083495,4.552897587684931,10.533347786979943,15.49349859772029,6.50266400638337,5.399382982489655
8.251037407405434,6.897190635899037,5.4302707471482,1.848281113810516,0.376807588293283,-0.8517587450457368,6.10272964343742,4.521834180793806,9.335522310890129,-0.1305265023588248,10.462849982668956,15.119042498786172,7.428728498530148,5.979507010452792
9.110518224321112,6.91179050470636,5.879000016969584,3.576420198438973,0.9947553012694802,-1.7141559268361894,7.438562227587964,3.999724579378815,5.083379635803539,-1.712810659052071,7.534875464382921,9.447974346349511,6.425283965633362,6.363470735397442
7.542789627594502,5.459852673371643,5.392154745647154,5.361410754226871,1.5235403135683068,-0.8575837893844411,4.628676947913525,3.0680441837332046,-0.276788007163347,-0.0682909916620032,3.623069303362741,1.978608969144986,4.437709493626464,7.167155285293163
5.167879587578334,4.208184129293031,4.676167103928734,6.388136866646528,2.9577116919625865,-0.2608203498925651,1.466394659450239,1.914787370012537,-3.666677582709696,1.6408042667707696,1.505732201437958,-2.603545915386718,2.804861401597705,8.424590613023575
4.023658264911703,4.235173110289054,4.463114258133032,6.488722453351167,5.319560431898612,0.6451434108538532,-3.3794136540791526,0.5457032466967375,-3.8179859584461937,4.688489009482017,2.540068127270928,-1.6388464928368407,2.4161887493483576,9.41017168067281
5.164565598929954,5.413683602952055,5.244973830428748,6.693553745025515,6.85746259032671,1.21911260185937,-4.643919311093882,-0.3686586947016335,-1.6169337721746473,5.687061295280078,5.679739986206819,3.8882731228173526,3.310676123916465,9.54461467998609
8.02964653068311,6.98547449095738,6.974346672544343,6.790298710697318,7.685579970375913,0.2869003313371714,-1.4966757322750206,-0.6983091040124952,1.0865098764306325,4.13246307858617,8.594834312374772,10.368339371304003,4.870772175565364,9.150928010481197
10.962144422533385,8.491123543398807,8.961403874206773,7.962922100715287,7.839245133248252,0.1932734284769413,0.5842890223807067,-2.6779690297297463,2.882738582181375,3.1311777010789137,9.62287731621631,14.202306330880482,6.345371200778871,8.947171480679962
12.421316572354804,9.95956820818236,10.200407678037427,10.493734823681178,6.896487620683766,0.0183475616632835,2.9255363920887336,-6.27501295007804,3.33943360584459,1.8230359478830804,8.728857904261638,14.043424067524557,7.267745711413262,8.805689153754095
11.950263781020432,11.271304051008904,10.004799347610325,11.2149899436432,6.249411316341063,-0.5802014590763345,4.597986102682912,-6.88473858886155,2.6786357029367096,1.6622968490592422,6.934282539996275,11.229589168803244,7.512033364880459,7.4683060057359825
10.242363582599172,11.688624986279384,8.482705840926165,10.284251354722048,5.815814430321865,-0.2120961760098633,4.762912274516092,-4.635955564446034,1.3185728191415862,3.1569798310667583,5.213800383331709,8.408222598572827,7.104420852973234,4.018502000426096
8.435789343128555,10.393267231898475,6.453344512542465,7.599025081203488,4.944811867171812,-0.3587121862175947,7.434906139601464,-1.018398787454293,-0.2063554948960906,4.228729377948705,4.048708482932177,7.52037764605058,6.128398675792457,-0.2152524762826431
7.3441062238024095,7.600437345293486,4.8683278494871445,2.362312646613006,3.893926881118481,-0.3279752962793847,12.349038705953731,5.035330642761847,-1.1041256754763111,5.322051682489985,3.7422565684566607,8.593565215538103,4.902747469025698,-1.619596518706281
7.193216844479977,4.901758420292012,4.2130418620700425,0.1002215025613415,2.851339202769389,0.201185864099703,13.6916556136347,7.840759672393903,-0.4462383677225503,5.622092516813581,4.670985115800939,10.13542774617748,4.185197520869448,3.0989246888514157
7.8166981308357215,4.107667008568143,4.329640213695672,0.9054818498790008,1.7967846507309149,0.1095910201158401,11.801707608983117,6.997403193366724,2.269463325456609,4.738395154873212,6.898336069324444,10.710503427059628,4.93397329108528,13.575382856593166
8.861960850798404,5.4843494798923285,4.690924597414101,1.7856860434397168,1.0307789891563128,0.0597251170156885,7.099478919743423,8.121862446376634,6.491732058126008,4.749240698442609,9.5637208923295,10.303570769897792,7.507052355829272,24.80692485182318
9.766341665440354,7.162212103283046,4.796097605710312,4.000420414800817,0.6373722356522542,-0.044150818554728,-1.822740766239917,10.017120082223512,10.54345835091367,5.437548229723994,10.935449262103766,10.181235682018649,10.86607686453998,29.935240718355487
9.731685068391696,6.539375716055913,4.377247891566477,3.677334343706982,-0.3914466655775889,-0.0559185077188896,-7.015996075812496,10.856754936382831,12.402631752772985,5.13356682231923,9.418932373373083,11.303480751838691,12.67358946630156,25.00276758910976
8.036562583696078,2.55849700051978,3.404601260428718,0.300415366458556,-2.028064022289758,0.2943951408911086,-8.331372388054046,11.328428970025714,10.97117480816339,4.107104240888408,4.807388929721258,12.839478999274831,10.61601974687441,12.022831874208984
4.619734530860389,-3.231766672230199,2.0753705120407497,-2.061826156843609,-4.608893814086535,0.2177524270145034,-9.266079973847797,8.932886691937327,6.95888253360616,1.6922912536976855,-1.2905804664015736,12.480380220820727,4.198675690276721,-2.145784885121801
0.4203809620480339,-7.853953799824087,0.8531794821088865,-4.314076299421574,-8.431932751802798,-0.0871170311638616,-7.928362282394504,3.237268248320182,2.626264753409344,-2.5042747892974333,-6.281218493282451,8.594571223049947,-4.382537601741114,-10.382320682685954
-2.988373299108316,-9.258245633315871,0.3787701422100755,-4.799637641517963,-9.637406595163506,-0.4947867774397763,-6.133036196919091,1.1101705283375471,0.4057411726476498,-3.5236867167412846,-8.119983322296903,2.282096648875307,-11.190217242676107,-9.950398285319125
-4.373637329470734,-7.746666242382975,1.0809562508429345,-2.74551772983515,-8.091153491991236,-0.7965792219800314,-3.962913152918544,2.341717091170927,1.319324432657103,-1.2544092586297753,-6.4970419670651705,-2.87069751942047,-12.88128984152225,-3.862920217660092
-3.7524304188679194,-5.331111046413444,2.6655853326040724,-1.952805339049382,-5.847896941800988,-0.450388315856725,-0.5453769425114379,4.090819041371435,4.362486424416086,1.0109210472349617,-2.923207861504573,-3.525519859565115,-8.884449565965827,1.779773594673015
-2.4918137447640483,-3.851907239173607,3.991533913040504,-1.9484110646158237,-1.972748212976426,-0.2214622256092753,3.739699591639986,7.853686404068192,7.3139703806342595,4.3710449038466255,0.2680246110542743,0.4672852183502272,-1.880086030348856,2.2489645595406262
-2.387954251648935,-3.678386984799017,3.685459148213935,-1.6766270986799887,0.0813874742351309,0.0245057327166076,5.623221989047978,7.0820764588416845,8.30363877749989,4.163118347156591,1.3220999751078608,5.653504665636282,3.8308379224071354,-2.8396274821746594
-4.300121382748548,-3.990808551312549,1.1975720883154146,-1.7905119855762432,-0.0783669219545791,0.519684328932438,4.793208452598546,1.1480580885776912,6.904234386656679,-0.3853931625565394,0.0023088763739789,7.625444095887056,5.036196075042531,-9.878611285632902
-7.382233083350723,-4.012517441328168,-2.5571547108533217,-0.0299964376375024,1.2383870132469117,0.6357354174156504,3.1079490700266925,-4.261967767224584,4.0049465221926965,-2.784350757965724,-2.46986338461579,4.453422315191956,1.588357434370625,-14.231784352086777
-9.64882274382035,-3.809911445957969,-5.660636261161768,3.7832277674700903,3.261088842138129,1.473283610679362,-0.3544379684252043,-10.690319235210266,0.7930073894956955,-4.064800102982681,-4.380944805593467,-2.106737297115508,-3.7323530229174935,-13.43866492551393
-9.596336015430683,-4.001608866249793,-6.549900313969648,4.128226740854823,3.666738460363762,1.8822994411780145,-2.13821597927188,-12.867916836876416,-2.1685728446563104,-5.216405366653336,-4.7399322785438684,-8.532865713122574,-7.409171526415797,-8.528285032202064
-7.599257629445301,-4.946180938593798,-5.215274265615722,1.1428584050204489,2.7947032324198537,0.6454639550933358,-1.9061237527785884,-9.564551896457356,-5.046348361529788,-5.142598160897029,-3.925817476666048,-12.597212625925469,-7.84749957081409,-2.895630852443212
-5.769220977912749,-6.368267258531212,-3.20305419456513,-3.183003759446228,0.6857565155105443,-0.1493374112126802,-1.1164322100816415,-8.371677831658616,-8.123514276985777,-8.645894258196563,-3.3245159675856506,-14.692389311470674,-6.437092763694167,0.1761551503383422
-6.175266167615309,-7.685768443265779,-2.357961396582219,-10.107633813998294,-3.149946742932808,-1.7882509980873589,1.2008489547452812,-7.960795079592798,-11.14515392018237,-15.920476638178163,-4.200189233084714,-16.432691126526667,-6.093596161261402,-0.4189564301208577
-8.853982389038968,-8.467656065163329,-3.32046650574576,-12.0847059896659,-4.381640446768485,-2.8011816169245174,2.7594195996283517,-5.598153158223407,-13.202280360368356,-15.898601471348863,-6.586156711388018,-18.24199345320229,-8.397701237294832,-3.251829482761625
-11.435601074602868,-8.454981644002967,-5.02399782500963,-8.49013146563449,-2.815869735420643,-1.1683874177919669,3.483290630006597,-2.319276263889807,-13.196101368547104,-8.849592528297062,-8.98614649770213,-18.47404560674672,-11.754469689797606,-5.771446757606121
-10.919319349535575,-7.299057401183631,-5.593757801060452,-4.596436914627683,-1.4259395558615482,-0.1607361641547223,5.821645762826996,4.525715313623445,-10.48382380172034,1.0473422584479173,-9.139075837349344,-14.887845850688002,-12.300284467059672,-6.31662538759819
-6.204860183420699,-4.630128050184254,-3.8788784096220255,1.470247457194659,0.7857036922457231,1.7689887721373274,9.386018200266646,15.447555789652746,-5.275777142663408,16.306602088427045,-5.395949399386907,-6.906159780937443,-7.00715116727693,-5.135298863000767
0.7905252121232351,-0.6345836203841415,-0.3602490007498176,4.873982254098094,2.355646331748624,3.4124676680158985,10.961497721882788,17.957007265354964,1.3683268034599614,21.03008146109204,2.1241471986222216,3.543869169938312,3.523691321208286,-3.6521011672419874
6.443262596261757,3.501932013351599,3.25473951811162,4.734249830477692,2.876381598879806,2.153580344871574,10.679690582187057,11.75610342742674,7.826431664093072,13.829768832099283,11.272041059301625,13.21150551474836,14.945149524143291,-2.7823732248098736
8.102292693551224,6.063610014573381,5.338264659246825,4.923651153467646,3.077649882983418,1.3483746625454196,6.59719665788124,6.170545659714214,12.320141480988417,8.83433972148599,18.64677393489019,19.363484783394817,21.91843891837034,-2.012253542553374
5.934914150525543,6.072800697590402,5.438373067617658,4.06718915883337,2.4372053797051283,-0.7119674082101477,-2.331370475512234,-1.492375638273239,13.393854362554702,2.35895188666872,21.042482398480345,20.64974243782846,21.599119649392257,-0.2183886191230506
2.504032705954131,4.219382157641839,4.315758672807867,2.829032934747793,1.120547027184365,-3.4045719331406774,-8.097913223231412,-4.567250191670663,10.46893064563903,-0.2737665714305375,16.94288975813102,16.809645832376063,15.229712024943591,2.666342309340745
0.5729555997764102,2.3856630734442668,3.019444504351529,1.5400126678446204,-0.9670254874590166,-3.503184736411044,-11.013891941963356,-1.2993900857161926,4.313727408605288,3.285034611137648,7.442012493431847,8.339945037695639,6.8731187991208,5.116327126987869
1.029344914695887,2.00558657651294,1.9150840547521568,0.607958978325631,-1.6060832561770442,-3.1718387566446173,-12.832629800513068,-3.54957077210233,-2.948824913715157,1.0188334526826333,-3.892421091494096,-3.1116831476917,0.5751923184038574,5.504403060193759
2.5601705052186645,2.7684201747852413,0.5581312910782188,0.3867396461970467,-0.5997498153748716,-1.6081732731427136,-11.71216613692597,-9.790531120725587,-8.595926758999946,-5.6448745012722,-12.396569516991264,-14.31033624562637,-1.8183718174195072,4.164734773648451
3.1222673102647107,2.999487306526884,-1.5311289051973276,0.3222214711005187,-0.2617204749329783,1.1845660674879352,-11.598897178302776,-12.827668999417844,-10.623894683859262,-8.693700985801478,-14.556177382105808,-21.243914771089425,-0.9213439509624272,3.498094270627192
1.769083263927147,1.4373443159724637,-4.027655248709468,0.6888998932069137,-0.099146061724341,2.3051279094594594,-12.355047605625211,-14.298410148120556,-8.872747297525828,-9.754187446892814,-10.06899872101111,-21.302483881332314,1.392429191216895,5.348314974424978
-0.7394276239589601,-1.334786273123143,-5.826132559115415,-0.079751051304929,-1.3174286115984386,1.6827609400163608,-12.11091917577318,-12.625230598030043,-5.150690815117425,-7.67374662543502,-2.3809350603646315,-15.227797571594454,3.2717493610393493,8.007211402189768
-2.876197043909279,-3.29427895928016,-6.007872831370436,-2.127709282328412,-4.400033748261654,0.8402169520847785,-11.618646178761416,-6.489597395501292,-2.192747322492682,-0.9463849388668883,3.02627768051347,-6.972893823906871,3.3944011771404607,6.355897253903489
-3.75437039815246,-2.903064295262949,-4.820462942218809,-2.60830617299578,-4.789379955195069,0.0405510565018572,-9.401203918263704,-4.308847418406907,-2.10942109497741,0.4622801247841988,1.890974099887332,-1.289263687814012,0.9579269467547568,-3.925216230781532
-3.649684841020136,-0.6717681476065263,-3.611506318367459,-1.7377977878405455,-2.607812945409393,0.0908946018760997,-5.204298796752331,-5.829841690817331,-5.279882694417569,-3.3658584198848525,-6.024880553585511,-0.8399898672211652,-4.137096532771141,-21.362123581448007
-3.338973971155019,1.207842447430922,-3.631373139108092,-0.6782100414060747,-0.8605054263684851,1.9783638021484733,-0.4362234002897173,-6.140703433351097,-10.23842384554998,-8.061549665585751,-16.584726683363478,-4.969418505114842,-10.817487852854915,-37.80344561328856
-3.1964106255822333,0.8402967919815776,-4.797767849342403,1.120047821604533,1.3306731067803197,2.4822839881718,5.283151576167515,-6.893864502166568,-14.454586947973713,-15.85678000729127,-23.82164251494832,-10.733503139405656,-16.796752328831182,-43.4144162310599
-3.106384681001783,-1.6809940111042891,-5.683164646936534,0.2591291373943412,1.0619458880784312,1.0250499384506804,8.115281366247716,-4.816002872524541,-15.54703501446632,-17.207815515415344,-23.730663313593983,-15.021480163160264,-19.57533034194324,-33.969549727486054
-3.1703772209682795,-4.4549781590914135,-4.876686066607217,-3.63343142627243,-2.314036755411305,-0.5427130412541336,7.498199021481743,0.8779552883802721,-12.44843942997088,-11.174910252278098,-16.68734013809515,-16.16775423791422,-18.022783087530676,-14.363067827691047
-4.159611330105257,-5.593831257971795,-2.51356239188729,-7.35492990692273,-3.644053975815245,-1.9944359115145127,7.813310413462141,5.949507591999193,-6.068482946097746,-3.865796487632525,-6.867742342680227,-14.3553633867101,-13.221042880960551,4.748289187073759
-6.902227707028712,-4.935548895638191,-0.5020175601878174,-11.7167512420126,-3.5416809224809094,-0.9994888957391648,8.130962303486154,11.253057661630963,0.9718976471946216,7.203408681130591,0.7337701279998203,-11.11772890151189,-7.696479126784331,14.368505572826418
-11.081268653741592,-4.095981664219006,-1.1084018917779137,-13.495181057340124,-3.463003104188904,1.3430968161082777,8.197251625239002,12.375683185072662,5.647589267926259,11.092578413509916,3.414189213174074,-8.4603821956559,-3.6420277749412513,12.557076327759727
-14.797421904521377,-4.896068364665421,-5.032935849871713,-11.939178160631302,-2.490926127183529,1.6109464689589426,8.659997236018905,8.196665708288988,6.291995201516116,6.420841018565053,1.88430159518846,-7.8445822238779375,-1.7009607331386185,3.9677327581568536
-15.649181186144563,-7.627329174403366,-10.570418898005604,-10.801581231853136,-3.372150759213253,-0.585591601874551,5.87935006304776,4.340971255172207,3.6607611368487127,2.189906978816514,-0.9996493686427954,-9.258299509472767,-1.2660975444015117,-4.927136185462159
-12.556888898777911,-10.667182302692826,-14.553441355315387,-9.17264488343938,-6.303349140480584,-5.3519769044508685,-0.2639162386854723,-0.4511577967616387,0.4094382706822935,-4.418243410483028,-2.5506997433325447,-10.93474776446659,-1.6668360058529883,-10.183278170545496
-6.706364247444172,-11.73637970924234,-14.384200437958912,-7.585295144336395,-6.656050019811269,-8.367924826337081,-3.7935034528838023,-2.755607229753401,-0.7694063158614832,-6.16892165380056,-1.8433878650261133,-10.27063005273083,-2.802056760900172,-11.200443973940493
-0.7314015860244738,-9.729069025886735,-9.724757390013515,-6.594535942364399,-4.794916401450282,-5.663141733151681,-5.154295944919818,-1.4108350338667868,0.985548720629569,-1.4610811490659268,0.2313677248893966,-5.694699788285256,-4.610867904929791,-8.970721565224716
3.1427775372939517,-5.616132310662915,-2.7556048550567924,-4.215118034503684,-2.341987393361575,-0.119302270251532,-4.066332947540705,-2.114679336950357,4.22062868001344,1.4421440047533376,2.008699081340781,1.7889290760899366,-6.259756042255093,-4.685592475826576
4.400596020560682,-1.687994709447251,3.111073833828564,-0.6669966558822983,1.618127752968494,7.2441681609214115,0.9177443849209102,-3.8878401301395074,6.3720737758973245,4.504751095954001,2.22642158516352,8.787123787079242,-6.314457681539983,0.1107507530818971
4.024732485042923,0.2549039513082656,5.261792506923472,1.4469328956403995,3.0759378941031783,10.980669347923428,2.3884036539505624,-5.213989319820184,5.676593934046245,4.279893014776406,0.6815082601230982,11.634402531920951,-3.990692774030217,3.307740980021098
3.236656383701608,0.2734072717805507,3.447610961088063,2.2651026029604906,1.6686792811079163,7.106877641609755,0.4665773437459597,-6.924675968292294,2.361627093764449,-0.713193211229239,-1.7683322968422577,8.993785604987554,-0.2031398929630441,3.520985278619289
2.471611719329036,0.046273984667418,-0.0904925222044559,3.0757756631613926,1.347789229694325,1.896583561035893,-3.028112476306553,-7.204149127656932,-1.6556003416971308,-4.833805073915372,-3.7418215270910657,2.9005372592012835,2.8232910685104846,1.9416390252452569
1.4270579336149165,1.1981208129148824,-2.0949742530591795,3.3496643244741064,1.229600724291127,-3.6795309240921545,-9.85293731758542,-5.86903577475109,-4.206898275507884,-9.223172713380231,-4.193720009041458,-2.6505542088159446,3.16484812616506,2.129146408482919
-0.1056963500171708,3.702845986574543,-0.4695494547787628,3.949180559491192,1.9921275769090288,-6.557953289300223,-11.329690916450676,-4.355428994339742,-4.349194190166381,-9.804352621441836,-3.1649226649903124,-4.4757748288708,0.5638271651236737,6.880614912256572
-1.6032446577539048,5.898696673926802,4.3341465340573535,5.029252476756216,4.293795647658585,-3.698811697882197,-7.0509471884504,-2.235069993871617,-2.848551470003086,-5.293150261501573,-1.8306373074607527,-2.1075672449928358,-3.621167466319801,14.811546857516218
-2.0332601424685013,6.2020770778228,9.760741035339835,5.035942751973734,5.371034887596697,-0.6642354877401513,-3.8796340523123782,-1.297505469829341,-1.3910570019052653,-1.9675573041862533,-1.5944249916829405,2.586920848795901,-7.596115666534205,20.39744246073749
-0.7121159478278809,4.907910781448761,13.096599206842033,4.115425234173169,5.464602643685406,1.559255426355964,0.0656510579665338,-1.877413059611952,-1.1658147506787753,1.35068756821217,-2.8068184474359885,7.436164144320403,-10.185231457691248,18.195735606404007
2.024851806669572,4.201848187134786,13.360539707153196,3.254778064596616,5.388273280067635,2.5727049963140365,1.9044283308203416,-1.7105827072686086,-1.945260682090744,2.445167401737232,-4.256480102778408,11.576956568278884,-10.95588826729355,7.70851789044054
4.952087333580806,6.126264740106114,11.629106310472938,2.209851857261685,4.617577252377403,0.9529696060005096,0.505306167368825,-1.237522835484608,-2.423743936336985,0.0563627029466389,-4.099875407903675,15.159858057868584,-9.801001232828815,-5.613493172934925
6.755626742796247,10.318054995824294,9.673411552157386,1.497595646838601,4.336271385522084,-0.6908449680927622,3.674310311684008,2.0884741808153504,-1.5413833104174728,-0.2237023321749534,-1.5763328083326638,17.745964281124333,-6.847818259445113,-14.240113541187752
6.83719374461444,13.808266749287586,8.293755519150169,1.3158051482220274,4.606609418631552,-1.3665886048672329,10.847548584866583,8.898557066592552,0.3935387623745274,0.8941954985742966,2.069210648019516,17.51219591580577,-2.8609311046756485,-13.886857912748418
5.549992263901896,13.393578386905329,6.937936026746689,1.4026156250079862,4.097140438344827,-1.507350787408448,13.656255142786204,12.543912082173865,1.8918257733510675,2.02176236048014,4.494835479068948,12.661917925817106,0.6128369674892422,-5.871873853791144
3.852006626109708,8.611713037575445,4.849197703826275,1.9777773892846315,3.0145184284813427,-0.5878895720086085,13.056798134496765,13.394819539018894,1.734057225470071,4.122661019863752,4.365333979848419,4.004377552442206,2.038743150618433,4.837388681470728
2.780783506858695,2.558194910931743,2.4159122933058,2.995685621394203,1.271010836159937,0.5546639985764332,11.62635062471155,13.341248588136544,0.3768352882738419,5.867426074409636,2.759990719654565,-4.05586919113609,1.2165661728570836,13.457879744910407
