AF3,F7,F3,FC5,T7,P7,O1,O2,P8,T8,FC6,F4,F8,AF4
2.906554526404805,8.110636365940929,5.956391418525372,9.350932245459392,3.889295402033408,2.4334144861401192,3.837845944807298,3.8619230003129377,0.7800802570454648,4.506382872614322,7.649936396871437,13.519184534383868,9.224801223210182,10.068696462809044
1.8991237852705596,6.712755904446558,3.993919274303085,5.647225547199831,3.912850894643327,0.2911312080187432,1.9381711210562829,2.538685809246685,2.552274163552753,4.795644671252877,7.363202639378292,13.306252983684976,6.611850997644048,9.670244201074848
-0.1950493327978206,5.91228992299395,0.7065412609355814,0.5333010692409496,3.484336177950434,-1.7926665160154047,-0.108473834707671,0.94134158730116,3.691777404971722,2.5525631854325934,5.753417618964442,9.2493365616626,3.6986065120887535,8.77246312073682
-3.288555474839008,4.652929431685332,-1.781654265863197,-2.122041097108596,2.967025566228408,-2.247252156873308,-0.6171181286051617,1.802290628695422,3.7683160744679647,-0.0892221685128999,4.690526813909747,3.5116923953213237,3.615623822408384,8.57535075981008
-4.1671841423126565,3.633339552493729,-3.6342860330063353,-1.657740059911236,2.60210502909672,-0.4871970143200614,0.2778618302784696,5.010764242958097,3.297284140806399,-1.231817058201543,4.777467664685939,-0.7023550429798284,6.335238495062276,8.946871618352583
-1.9106415165060835,0.8052786802425331,-4.7236164892207295,-1.440451440778397,2.4838865870203293,0.2363791635867034,1.3197225743032224,7.57071500733501,3.100895839871407,-0.60225809416495,4.833573388019926,-1.4878988146432817,8.47088048952918,8.336815727919504
1.8493620530899035,-3.983940136163103,-4.547670491066893,-0.4055475553392534,2.6754525263528386,0.3443759947571474,1.6870133271987309,6.517511535754639,3.3486172030485557,0.4640084835209701,3.1536119689833173,0.2780084609385409,6.360129723826328,5.039112654198556
4.468824476586363,-6.380935496647953,-5.083549764218174,-0.5337148195976303,3.199133360762858,1.4514863493271035,1.676810437784285,1.9272275526584897,3.367625208645097,0.3869612382558651,-0.7131171559822373,1.536922696723849,-0.3818801822318045,-1.2739883632864393
3.991768625881325,-6.56756513543307,-6.220133369020701,-2.3363666392183227,3.845655660882869,3.078191136033129,2.024301288460201,-2.937350328323118,2.4815944472480806,-1.1538370118777892,-5.321336593425596,-0.5729183799945581,-8.194279492225498,-9.02317377178127
0.0018969566610048,-6.488959586394708,-7.0065699924802605,-3.8397661883665233,4.118772242277889,3.910820487637814,2.906174872445175,-4.465987625638332,0.975763186704524,-2.9029609944478385,-8.373354886466894,-6.310075137619933,-12.487609797876194,-15.6169894774079
-4.108485871333072,-5.233928655560691,-7.813562779499802,-5.639505630216744,3.60170374787649,4.013333800752539,3.821781916969643,-1.77617878260725,0.0722264039118654,-3.1664288920721484,-8.48334221139332,-12.811373324233063,-11.501494500016909,-19.03147157354322
-5.103779504000095,-5.970237015421674,-7.34853859088019,-6.5652976412215605,2.4905603977510684,2.3312363866772143,4.349089085610614,2.80536693192417,0.8044605423952795,-1.3569173724696402,-6.153776171616172,-16.00791403285985,-7.61898100905271,-18.865388118021706
-2.712264727233155,-9.058698127139126,-5.417825943995166,-6.305795847296739,1.6179764921831796,-1.5983859209905695,4.732882135575452,6.04824686017608,2.860864858103378,1.4566719669576815,-3.250333844540897,-13.62482198690147,-5.085613863525312,-16.230846432881286
1.326265332734145,-11.205231610971644,-3.007233054660579,-5.814652844854747,1.665834424437146,-2.1003831547920977,5.527177520886473,6.510752196169747,4.586122280667331,3.4563263059238176,-1.562713254311859,-6.997095618390929,-6.383306108000105,-12.844708973250356
3.745905106050357,-13.123945669072796,0.2380453154107952,-4.711314577944902,2.216797381096867,0.8522891965255153,6.684059677721557,5.172480360764731,4.243373623075006,3.5569245659936968,-1.6793534645553354,-0.2744869860097028,-10.532171381178562,-10.178577663746632
3.3231318330591884,-12.912101521237568,2.156981060259533,-3.7681641778658914,1.7672682910547726,2.230275378233697,7.185651019343899,3.8386939959479327,1.4468211652589489,2.127391518857456,-2.9357725500813103,2.453035780943914,-14.511549188700164,-9.129119079292726
1.0491445771201189,-9.872959239881949,2.461651076255103,-3.101063779478752,-0.9327923932303348,3.103242338715664,5.785887470101528,3.261757109783704,-2.470687617162673,0.430631560581054,-4.194382072550175,0.018253220784361,-16.021924779976366,-9.971828020850737
-1.317334225259827,-7.325382581519958,2.271859182693164,-2.3011631941342854,-5.273824010403273,0.277679566521525,2.261989898849787,2.841952813622788,-5.403737062032555,-0.5214288447941888,-4.629457099333017,-5.03977939901866,-14.87987828593156,-12.207865607981644
-1.9862612539858755,-4.712296203489725,0.9483003069907808,-1.5917886560933094,-8.595760236722791,-7.375733742016814,-2.0201144183094843,1.8773795265071709,-5.879112228141572,-0.5919308679775357,-3.955345204545418,-8.306098222487122,-12.144833704084238,-14.430937802341322
-1.4454142124124918,-3.055462254688646,0.0124049758629684,-0.9298698205590676,-8.026687824740334,-9.624560655894882,-4.862702496079635,0.7496945669137407,-3.838728583301309,-0.2230719480422616,-2.22432902277834,-6.5993896639972505,-8.519821115330057,-14.761159305843517
-1.1192573286838174,-3.04200636927655,-0.4427163422792216,-0.3288946401887619,-3.025278790625319,-6.906976931337727,-4.793293227047037,0.6941121233261649,-0.4275795237864652,0.2052317341820564,0.3185169448344771,-0.1765028159132051,-4.035164728825078,-11.9978348422184
-0.1611445552631722,-2.079723509722077,-0.2184708720675122,0.9557921691097144,3.6557417884427625,-3.639231075232468,-2.194128010112352,2.4079766762511667,2.766630103397853,0.5910563980416081,3.1168316529904945,7.452897373441575,0.8137317270626427,-6.718460167199437
0.5260373444597297,-0.5549038954046333,1.1563981809752713,2.994964801757492,7.723812235712222,2.294858636703896,0.8985873951929244,4.970682458339554,4.39007322683235,0.8146346753619407,5.225230746738816,11.90025478301822,4.248861110243933,-1.194494642751411
0.6984430474097927,0.1963051301638245,-0.1545215437790757,3.194592659384432,6.577009783873013,2.863013720318609,2.186625701645264,6.232824154513303,3.6981142037231214,0.5377290483789088,5.671608046672965,10.785062015528265,4.242747181820557,2.140098723865849
1.4138450826312483,0.5121738637406997,-4.217309259832811,1.5364638576017555,1.326696220041255,-2.814565562341413,0.6515862339540339,4.429191891119786,0.7909352405179204,-0.431972147893271,4.183578735509847,5.183545845489473,0.7006866306996624,2.5295033134437546
1.007181071329665,0.8016029467591911,-9.611399605652997,-1.0053268035950866,-4.147745024650801,-5.782450542487823,-2.881204233003624,-0.3476564004075024,-3.2314220217249776,-1.5472223439172357,1.6611653694557154,-1.2608881773592744,-3.608394076774197,1.4091122992745335
0.5542707895692348,0.906734533487502,-17.283597890058985,-5.065881841579782,-6.315665507156165,-7.7782251217233345,-6.511560031903515,-6.056110251659371,-6.483570841397992,-1.532677295406278,-0.1864818359222926,-4.8484980955523405,-4.856359695760697,1.024475445614315
0.3564670109348787,1.2413893003834393,-18.68594418671975,-6.401951295062885,-4.615931880883467,-7.397582084766252,-8.702873225322914,-10.086037754927895,-7.1580381312278005,0.6597766525476891,0.0581898689789754,-4.18390736220416,-1.3949234157189156,2.32683790603718
-0.4173154700793151,1.8884842580068677,-13.082815176059714,-4.666365864768372,-1.4444603551147923,-3.013340057555509,-9.240730576851108,-11.02462244438104,-4.737757285301763,4.668232443155599,2.487606048747155,-0.8255694904441144,4.604903870306159,4.056181270175836
-0.1428467398307286,1.8207481155202097,-8.452443314052726,-3.4108015276573287,0.2212382585838641,-1.6863124374189662,-9.001027577260146,-9.447921790692972,-0.6424206047582,8.508697615542959,5.741389171302928,2.0686578170186385,8.847861088699075,3.900425016149473
-0.6380104409799456,1.088645271880362,-2.8403275209565373,-1.6408195977905564,-0.7171548561043377,-2.9009342657047545,-8.83708570113977,-7.189069652858603,2.4757093021927665,9.800815041816508,7.905741763366408,2.0068165553870525,8.50479778433829,0.7247544228884593
-1.1941934843745503,-0.0325447638237786,-0.392442923333375,-1.3217784111265696,-3.0118760639402558,-3.41911887858425,-8.66266827546391,-5.758016742107468,2.5510256685976427,7.562737976656272,7.735409401667872,-1.273721208087533,4.413002831971013,-4.153876748880709
-0.2602148400332007,-1.770282820211901,-2.6267583467181663,-3.0699255464398507,-4.64146772011824,-4.520891569177175,-7.627379529284184,-5.246339637935461,-0.2888624757115567,3.060405973530836,5.292163997305103,-5.904567413494661,-0.0330964237408801,-7.859228904891238
-0.2219204685822693,-4.570393826922302,-1.045719344126448,-4.743614166698129,-4.670508791675656,-3.757612073457352,-5.239065610294242,-4.587885325186235,-3.7196864231003626,-1.0709217965992943,1.6594419416417443,-9.34536296613754,-2.0321376605504637,-8.287060254956375
1.0432035182219637,-8.528893536056982,3.2855773956424623,-6.979869159509314,-3.726149713492528,-0.6745171197821414,-2.298800119506483,-2.835332516785617,-4.9903300596288425,-2.739835298456507,-1.8486420974986912,-9.998814987339475,-1.50030442137805,-5.819695931881116
2.361279609003861,-10.6567891293201,5.057371741718543,-8.124792891704445,-3.0111480651817164,0.1678969886645351,-0.5555200247034336,-0.2116002027708696,-3.1041381642359243,-1.7932871856134054,-4.301284936068699,-7.862061999846133,-0.3871039190355212,-2.873961482302419
1.6620112876793138,-10.836802162879176,5.431400412081417,-7.798574801595697,-3.11392260642491,-0.8118831019770514,-1.1757558523431797,2.060935507249464,0.3938643960558532,0.1539855689676851,-5.279981850222438,-3.997649584980271,-0.2781832729678219,-1.6698009861423029
1.263984222103582,-9.917969520822783,4.310340558100614,-6.187150402224869,-3.727762466967448,-2.1839447125214027,-3.416465108964231,2.9613245543115347,2.70178885304748,1.1553545878417484,-4.749538104265701,0.4659150800681306,-0.8731923763842477,-2.2494548225965865
-0.3393755647347574,-7.086096584110409,0.8071189508814803,-2.65803534947611,-4.219752628330415,-4.821801858287444,-4.94104949690731,2.6928413299662,2.0489757018065498,0.3896349639759147,-3.0193912460113435,4.889541144316314,-0.6921047989310107,-2.5898799447719574
-1.8947892951652672,-5.057945840463904,0.4175348129386821,-0.1180011415352845,-4.204440083539539,-4.6539798056199135,-3.768899633887885,2.478907995006666,-0.9069797079244704,-1.4175101500323604,-0.8031631699006021,8.92042996423583,1.0632766280056076,-0.7330387527260718
-1.83563602555196,-3.881755573545515,3.227469838495125,1.459753225057539,-3.5895663287478574,-1.3389118656384964,-0.1670756426213184,3.283091174563113,-3.667566796786783,-2.7063733682904867,0.9304965998538096,11.999452951265154,3.593612503494464,3.0665779830859425
-2.7772866907516693,-2.443150047903748,4.310858047906843,2.287643069851158,-2.349426586338585,1.2875548776851582,3.3940686670191056,4.696393514741121,-3.888191024993104,-2.236014576212818,1.4673600918798375,13.285509895233876,5.377416656303551,6.269636523554476
-3.6633310810290265,-1.380175280805565,4.711693476695335,1.6158786761082795,-0.5214530410634435,4.128223256209185,4.387368382252871,5.137534929094755,-1.1306270943779548,0.1116994698196554,0.8830815032529893,12.20522962240789,5.7134600712922,6.246028819221407
-3.333463758654835,-0.0651032230079855,3.8352220108403623,1.6484345535471363,1.56182129385291,5.266346177341161,2.575800900152604,3.2903054848863253,2.9256460786427727,3.2525496576784687,0.0458763694035746,9.124665101350647,5.255118286437345,2.7654282306989693
-2.5836583396472954,1.513406220252261,0.8366782118690527,2.2454046298188017,3.253806286948233,3.958382118769311,0.3103697945531842,-0.4989528403066972,5.792790403249185,5.497740473675769,-0.0687905697419717,5.413669355973516,5.12113168600401,-1.5473318381391716
0.4322745182076775,3.17031673280457,-0.7590588841313753,2.935988625033505,4.015107279528549,4.3432704097576345,0.3948850371087755,-4.186932194523521,5.878858065672244,5.531222670541607,0.781727060055065,2.6704291778623386,5.683544784467167,-3.3033614833647764
4.780242169746486,5.039925213679582,-1.1899105586568064,4.176176676458601,3.88654590816292,5.926402153571715,3.4569405625225293,-5.509336697866552,3.382156840339109,3.293453508261033,1.887512750195886,1.6373028098128124,6.281845356570281,-1.180896971731261
6.228020992692899,5.198916330442706,-2.9770937705910723,3.012688169544891,3.431744814761785,5.820569140915,7.265899118214933,-3.765027078446264,-0.0441843656300662,0.2007306265097652,2.226565869089033,1.6804247300115185,5.955816964304669,2.9853601783942727
4.805629856090332,3.4744897219360453,-5.565116301594474,-0.7370022625348426,3.115113115161307,4.574238952608296,8.611541216803595,-0.3899280818102442,-2.405894248257751,-1.637658245503561,1.382966078091561,1.298852349759593,4.273654160571083,5.778568810106407
2.54203333767308,2.703920833133288,-9.464490150520472,-4.173788499089256,2.763218558773446,1.6404200619408056,5.990692993048544,2.17981335072086,-2.484112042871556,-0.8760647089813354,-0.1272208172154787,-0.7006876561601203,1.497485831547246,5.029326478198094
-0.1987205256562702,2.546935789370021,-15.129686902829718,-7.911476420403664,1.7475057138687649,-3.5576747613000266,0.7182753858301345,2.385045137311581,-0.4137095168380598,1.9298404749193043,-1.4386968160224285,-4.290413291346204,-1.7749123689736537,1.4719461551674478
-1.2199882057057063,2.559820808437701,-16.71263787978158,-8.731935993080242,-0.2326002739154553,-5.611781065805919,-4.341309048175493,0.5674810115893427,2.4209341861381044,4.471119201302475,-2.2835211126160724,-8.31226557176848,-4.910183452444354,-2.0913068523918925
0.0659738977735219,3.2914092998129485,-13.988358930049978,-5.848508394816986,-2.5853743381886907,-4.422509278890641,-7.078847085228762,-1.65767305808803,4.076348945664993,4.1853543603164125,-3.3967375450221238,-11.492951995010468,-7.299041810444427,-3.270780664493951
-0.0508844080238461,0.9059649590849824,-11.448814308815022,-5.157219156482081,-4.144967318318432,-3.790315084203221,-7.429219377692815,-2.970041891264084,3.0998132506176623,0.077877151616359,-5.930487728976187,-13.497826115229248,-8.48608672119433,-2.0355437568024763
-1.5278447027317776,-4.81853127465948,-7.807198287958579,-5.941089455112576,-4.140306230046107,-2.557940643993051,-6.762558409468145,-3.324278754696907,-0.4872906783963785,-6.487650796757876,-10.273595718133684,-15.054273415126683,-8.506248646528418,-0.5129182371290923
-2.49816634035953,-6.719923137491852,-4.816022179623215,-5.604411204878193,-2.8791551533693647,-1.7550996619418786,-6.248750079176956,-3.478065275853472,-4.8979458463669525,-12.60577143695476,-15.22063352428583,-16.97766300836943,-8.011491160945976,-0.9243028288907986
-3.3840912073909397,-5.239204768109368,-3.1724711100586043,-5.090124595365427,-1.4572222980541083,-1.8901104653692,-5.787855310150777,-3.717128560548676,-7.440338629524288,-15.624447443874963,-18.27639763888976,-18.98753980782839,-7.762100253549404,-3.520557094172011
-3.471613332785517,-1.5148871813113167,1.981998980658971,-1.8274337851794051,-0.7621215199722233,-0.2643730592816922,-4.355906695631653,-3.271894772413295,-6.253703402169029,-14.648872526240194,-17.12635800725103,-19.536667289557627,-7.818643280468233,-6.324476305172719
-2.558712474209952,6.0847856920749335,10.31705873603343,4.672175526594427,-0.7342233693452368,2.8741296012644626,-1.2754147702328185,-1.1805014053516478,-1.7770993154530892,-10.826397497749522,-11.404385359652387,-17.036903070359088,-7.367987974177677,-6.882422722508625
-1.4587926537540676,9.183645311465469,14.611072080381778,7.886477112626851,-0.5715345569680572,4.37937133680953,2.8296864093948284,2.265240359601677,3.308243336616692,-6.4048087872109605,-3.448495711012705,-11.497401925452406,-5.615833045065679,-4.467703294335271
-0.3071048287485984,7.510258333436944,15.264202483245612,8.10108251552138,0.3776180577056744,4.520304108807272,6.27864166488391,5.161547485703832,5.877668296995181,-3.3060812642222706,2.803271745555836,-4.987609044987552,-2.932254158625523,-0.7890184015443484
1.2613769701706303,6.222045509403664,14.588320027848884,8.194819064724328,1.9340236487890716,4.22161525091418,7.605494378474681,5.433125997553256,4.62082254039365,-2.117911285050328,4.339730293979382,-0.2412416743737049,-0.8930014873595891,1.4330447828476052
3.252946850663938,3.4186340021039583,11.007050988265055,6.818354064662711,3.2440327036948133,2.837268089908715,6.805856993660296,2.915740875894847,0.9241642018406372,-2.0273301744640837,1.3182159794638153,1.558455648728537,-0.858525812585853,0.8133869728683552
3.564227602068032,1.6506862246052785,9.316633833302118,5.482548358402028,3.5470307142150346,2.6413453468772183,5.477606800405448,0.0362040757161747,-2.366855239597516,-1.6214709905882687,-2.818577954301041,1.83994282287907,-2.378380059971951,-1.4155850232370737
2.414392156543117,1.5322851821484895,9.779126022380623,4.3946751841516,2.7806043238510485,3.771430039511766,5.630486305072338,0.1422225851525356,-3.199628934371249,0.016470886509623,-3.748575087036647,3.456884230319228,-3.183759522322413,-2.267069070629156
2.485292805228931,-0.2047888823146314,8.206875948485314,2.5074238551884998,1.505168713065088,4.881101345063482,8.035914231765116,4.681618038724137,-1.6155634468826494,2.64399613187147,0.4589466018483872,8.15638129515095,-1.1123876066857363,0.6616662085120693
2.6707473362014147,-2.918062894112372,5.592263197619171,0.1932906392745946,0.3337869606450567,6.518936165553942,11.44302217039504,11.61274006439866,0.8696273367692622,5.063514303180673,7.7752217967538835,14.877269355469974,3.690746438123565,7.174157384523127
2.932003984920739,-4.056723700570485,2.267908682657248,-1.155355187935825,-0.5309229398687942,6.3279038882642284,13.369089172025662,16.511430330703277,2.9106968724193454,6.027672819310358,13.6903429437229,20.366148553911863,8.470030343462092,14.282316164911846
3.096097463430076,-3.881045970103523,-2.329531181164323,-1.4672307215655171,-1.265890912889262,4.0066041358831335,11.925976638753818,15.624481031402649,4.265764915775883,5.17338228551795,14.612482298672653,21.5739961577257,9.988676333119011,17.99453079833127
-0.1018554139021664,-2.916669255639246,-6.453506834477409,-2.981952921753426,-2.0373985379550428,1.0914639715718066,7.27340138811836,8.543124131283125,5.266086636194284,3.2914063349042024,10.464469171323737,17.812471028981705,7.32159139528062,15.894737829542873
-4.720884039971866,-0.6204841643723444,-10.106508723284524,-5.48137163145411,-2.6787779949863,-3.0677358961650567,1.555834490857329,-1.4812782016034411,5.756917357864878,1.7503330547420646,4.458763160020862,11.0093681697609,2.7886019284433807,8.811709222674615
-7.128145052921605,0.6044930417259549,-12.00799006048493,-6.14838541821719,-2.734378358646943,-4.699852222019684,-2.61549572307538,-9.687702884275886,4.973875874694292,1.5394924718012142,0.4167479227776365,4.1351709912642,0.0828970696965285,0.4326983702148048
-6.921544081997863,0.6611312129087586,-11.563158144870313,-5.194068452065986,-1.836595528524933,-3.370092049507707,-3.9273087295859046,-12.741011714650178,2.632320778476931,2.653765184102518,-0.0472200461731482,-0.7071100099761907,1.1482671029655105,-4.993222006687095
-4.238916862459432,0.5715562240837548,-12.609080421356648,-3.6851729321672377,-0.1407162648919655,-2.611375720754205,-3.0271560438121505,-10.4164936274469,-0.0572519224666385,4.225153205105279,1.7292654108154224,-3.10332072513174,4.508779417307473,-5.406625253656131
-1.143966619355877,-0.2640488327263711,-14.842101745605502,-1.0509886654801674,1.520564736063008,-1.5105918034729722,-1.6951972390448031,-5.152294395062518,-0.8877899628929231,5.197167256123043,3.072046257385507,-3.842838642756252,6.514690550367019,-2.232845901419042
0.6854434148406905,-0.2075103281403823,-13.240204279374783,0.3627016294133074,1.985143038790221,-0.5603064160362811,-1.340936248142251,-0.1715849808869249,1.428727622966205,4.959942684404093,2.304996892498729,-3.957664387931653,4.448584190120825,0.8000490395806583
1.1526882269202845,0.8501749373189058,-8.163120021931194,0.3307533132826595,0.5486740377955952,-0.2622579923928214,-2.082769683894776,2.3411558110071384,5.674366001586929,3.5106790932329184,-0.1594181132303376,-4.13997965871903,-1.1486674897782154,0.5436474858723805
0.550760661039968,2.6511751531403585,0.0314302946187433,2.160262745311844,-2.268847198999349,1.8465079000639908,-3.0287438536140403,1.9559741986128376,8.58710023463626,1.1972645733989795,-2.603705428938228,-4.685268254024125,-6.864052925281705,-3.14413111622102
1.3777422685707643,5.663421187433826,12.52528548088502,5.43093523365567,-4.648764292349776,5.637071294477372,-3.300854031087879,-0.4093491698263434,7.27895616912563,-1.5502862912329989,-3.6547617762119287,-5.571587854850432,-9.108309555134795,-7.319773971559965
2.394495122694084,7.060732584756212,18.386966258879447,7.616981280744902,-4.445391873014356,6.545127344971818,-2.7965842943032904,-3.330269361871108,1.6309924290624511,-4.222124168625621,-3.273079802086815,-6.406679512184578,-6.820748861215474,-8.290746677471585
2.797883745799725,6.751714426916085,17.04834827584342,9.136772177935663,-0.7474307198014452,4.6956966457915,-2.0922779534451483,-5.535980446089329,-5.4247787518898845,-6.130689194053655,-2.4197264383655432,-6.419438583979313,-2.0195214900166825,-4.511113673584234
5.645450951021092,6.560202554612321,18.219417038504933,10.142282198776188,5.111937655196764,2.3429510568228062,-1.7696668477233457,-6.267894288272707,-10.025153263109411,-6.605960232660771,-2.017293862431413,-4.80790833176191,2.0218195748838834,2.220305548899431
7.81751079974349,5.849917413947697,19.56112677347725,10.159352999552432,10.065244446249766,-1.4970732603825805,-1.9183320985232064,-5.4794442556507565,-10.141569747961242,-5.552438180996909,-2.3003902666330243,-1.393006965030085,3.237283016909496,8.08967347354438
7.236345087608371,5.243699060754409,20.228992247054087,9.674771255437175,11.217148935343351,-2.889544765976187,-2.2379389241772256,-3.8635928674029834,-6.78382834783881,-3.852311147046582,-3.0130464917111324,2.928353460577192,1.849054339476548,9.96371394636576
4.524628071846684,4.950577319840126,21.50185769056141,8.530124187650271,7.845877907122658,-1.3520555366443443,-2.471414934365195,-2.510659611288683,-2.867645928565484,-2.968865961131899,-3.935602366364384,6.453318072852733,-0.4917950097243133,7.380957750094013
-1.601606712805215,2.868916792865068,17.811917691734642,5.617347537971222,1.988201441101344,-1.6717072100413195,-2.5978525768765133,-2.2008910591800417,-0.8918482146823938,-3.765534144088002,-4.964778384538401,7.666354380890733,-2.3415176104394826,2.528659383425528
-8.661840073334016,-0.952806015841613,8.970763535750258,0.8468855164257264,-2.8759514702222893,-3.0067258884072574,-2.5861670777960257,-2.781542529655323,-1.3222394344147248,-5.476128538587581,-5.655654886696344,6.317105898739597,-3.3039160557534677,-1.4888707488293011
-11.184439327811972,-2.4833568585245884,4.583387661102177,-1.0159554275962044,-4.086023281683151,-3.0590979786819883,-2.0850203803807457,-3.201534326457365,-2.72618038806156,-5.941902851598898,-4.95098387479731,3.7519872987116463,-3.59295132544974,-2.661971246346466
-8.497963755032693,-1.8605352035406697,4.026737158708696,0.14988824753565,-1.388564452114451,-2.4339123931873745,-0.5419579692402354,-2.295495470626232,-3.2135094053517186,-3.247351618026933,-1.766553846399515,2.1340607481915708,-3.1732914729609645,-1.0247055333379622
-4.6506130358273,-0.0597460798605242,3.4811205355034924,2.2788612602652982,3.174722736121065,0.7931133421337091,2.228120944555297,0.2686710728521619,-1.891297929962596,2.480609346743453,3.865351146581547,3.000878044477514,-1.5734309672633566,1.8282634548636656
-1.0111981002984425,3.873959291047701,4.885818619933661,6.561070299046124,6.815398057783026,7.158801861944977,5.559086615183289,3.6486472232650287,0.6844636531377031,8.748052720464454,10.233875975288257,6.167967683577726,1.481148337134651,4.03599284253364
0.8844936765893108,5.274302140014529,3.2320289239578464,7.784205399657326,7.781240571729818,9.10906859228974,8.097371222404842,6.3517527988647,3.147396973901873,12.35043487659692,14.7911797567091,9.8198439462785,5.459505261325238,4.611562440243407
0.5634111067925233,3.925444688931541,-1.9907594987220865,5.516207204029847,6.199744283953537,6.684908174995693,8.614238652207838,7.1737586476771735,4.366231160569273,11.75569800782374,15.905492164057556,11.790384910757563,9.225950237763314,3.801214231617818
1.2288109565720249,3.1332547451859454,-6.367963932822243,3.789370439970764,3.610245590319233,3.518873444835505,6.846013251316174,5.844056395815155,4.077260013090264,8.204152098789638,14.023683107521842,11.101939660791215,11.85540499571053,2.6325737894236725
4.537950102924835,1.84884870015646,-11.053287316492758,1.3637923822803957,1.7077975203916012,-2.087756312572715,3.659905044007276,3.007258074199608,2.738734128252995,4.565257989544035,11.146648845188476,8.553408429025161,13.139096726525684,2.0612876678634597
6.4157940734846575,1.079618125762111,-12.816719197612969,-0.16728751511844,1.227177029364845,-4.64083857046405,0.3994797265390799,-0.2897268720731532,0.9041510108261646,2.9542167957758,9.045305824421238,5.851557343655068,13.236839657954018,2.2588892579890363
4.910329854684715,1.2491881214302518,-10.76793835884942,-0.23489889286815,1.65281558230751,-3.5220174360417484,-2.0340550019571424,-3.1540385533738657,-1.225334818509193,3.1914099834632648,7.824003665531002,3.9901738814663146,11.990985593914958,2.479071354250916
3.027955228380788,-0.3750143441722456,-9.439065650534516,-2.1737547532927257,1.8093751702194405,-4.385198019864757,-3.602885480997659,-5.103863900548856,-3.640494348197957,3.381345419895164,6.116675387382432,2.3063408068482723,8.88339684368564,1.6383402237122944
-1.6134609339380792,-3.598087940251538,-7.935111494649727,-5.612356367226695,0.808160061020132,-5.995417211637363,-4.776170904860928,-5.991057206086191,-5.991858054620678,1.9446418590424963,2.679897046874382,-0.8498343054390141,3.8710145886360503,-0.716402661182066
-4.9262033263772,-4.966243330404656,-6.95098548775353,-6.9389885715615005,-1.342229141520141,-6.695950677289316,-5.843007915003493,-5.822130384020973,-7.394815547637308,-0.8318852428345735,-2.130230396202613,-6.325829007189712,-1.835256682456877,-3.7905217420467903
-2.957349950397996,-4.760461489843154,-7.2791457208368255,-6.480013615986881,-3.82223169760992,-7.170736247140199,-6.610245250639835,-4.746008322814891,-7.008317384977004,-3.109003660323692,-6.37244822514973,-12.88610956197666,-6.168300066986191,-5.940298587272039
-2.3251863375306,-2.9652911665139405,-5.372421312127352,-4.3183244771202896,-5.606106925948822,-5.67028025904794,-6.741708392090169,-3.233834537256577,-4.962268200384242,-3.26229167120184,-8.027017004447051,-17.763141283218125,-7.721726478187007,-5.987563595778749
-1.1156239164850537,1.2391718968281276,-1.4715778182423145,0.3824368214592658,-6.078918719579976,-1.882667369511692,-6.267498634174396,-2.1261245503741613,-2.6395699379708724,-1.38238727735318,-6.657679181278041,-18.71950547229259,-6.982933085304648,-4.386116841368713
0.8665022528591231,3.0177682147950824,0.5755529494492733,2.383719782335373,-5.268975752538246,-0.4120257855413289,-5.587858561051258,-2.1736959900152844,-1.7647406693481535,0.8527693518484778,-3.7639457480832696,-15.790124425267935,-5.914468058401713,-3.008670785649711
0.3243692916388177,2.3318386343354773,1.194954841695273,1.5850314614007848,-3.673596461084408,-1.0946859901089705,-4.888437047502306,-3.1895866016322625,-2.922108761066676,1.7011136940976446,-1.5150044174670212,-11.04120845966791,-6.082611469733861,-3.434103603656116
1.5134218042029384,1.7289944266707904,2.319343343888415,0.9706435206368624,-1.930969650278556,-1.7734502528042382,-3.6669120083612894,-3.605513699917252,-4.861165577432937,0.7920313419549494,-0.972265459509546,-6.55048573022991,-7.07893064038335,-5.178414568911874
3.759698951648872,0.1297314603466924,3.2993103704165945,-0.6417571996466945,-0.5660558595508807,-3.41112270992157,-1.113553199623162,-1.271634912700872,-5.385933166757116,-0.7867463478344785,-1.3533933120628063,-2.6210827996466044,-6.843599943645797,-5.726345950819974
3.7830060512338095,-0.749186136276564,3.663906921733537,-1.4041857239978393,0.147220658338254,-3.369961251716528,2.804430720672901,4.665813928375854,-3.187808542846456,-1.6540105794213762,-0.9652155135519696,1.914093687310828,-3.6954144950187686,-2.738079296056025
2.2828031296046483,-0.6332996355777359,3.5564557041158147,-0.9675702600832388,0.2618554338704779,-1.3144474420748138,6.65730471382394,12.28374516398237,0.9617896255877004,-1.341958890683479,1.0700367110793163,7.593331125490181,1.8237842158064608,3.384957955057157
0.0545573022884231,-1.9279507142450685,1.0771922186641822,-1.526654702724479,0.1578643860185611,0.4569394641781727,8.252211259099123,17.462828827448217,4.74377437105945,-0.4635281160841256,3.900326052647392,12.749011052274463,7.066801217850058,9.097948407311382
-3.241655671077543,-4.29189266223554,-4.049772361710965,-2.6438517909333297,0.3809117757094888,2.5951894210980404,6.40806692944099,16.649924685642453,6.118673849687408,0.1363414760062138,5.693438062492017,14.44073106259576,9.31171419948258,10.247880048087527
-4.8795129115156834,-5.204949696895728,-6.804642659024123,-3.088334368495984,1.316624861416269,3.6799944995234335,2.245127115144143,9.803215808068405,4.892363501099982,0.288747140287878,5.320263583192631,11.313138499052991,7.90503150844089,5.573091683343765
-3.3028114482277724,-4.875731656965803,-7.354810538300645,-3.0839261814981382,2.87783928248,3.306610625180745,-1.4016574658374932,0.9107816620747632,2.7315293923866037,0.5891060526228582,3.348601353470144,5.535798387734848,4.682364035596898,-1.9138112167695096
-1.5341251502529072,-3.1425128806239737,-7.9171268789546865,-2.148189145483176,4.452562923373053,2.963663625004395,-2.185123185157924,-4.709808837653647,1.7074432353084177,1.665681510164017,1.418276339560833,1.5383848277541183,2.427876876013673,-7.012563490149521
0.8794404970970209,0.6155762662506865,-7.4187009799465935,0.0065466062209649,5.21447583416645,2.204755903015077,-0.1857521777888564,-4.311822908009264,2.662686387924202,3.404233402567259,0.6837149247621159,2.3247186483740983,2.7826227739556337,-6.210594577120119
3.009238543202023,2.400538554316095,-6.907508510735416,0.9646504819862336,4.628949645694746,1.5410146622128742,2.212392421159839,0.4031597205332442,4.729101256212267,4.893523773332353,0.9015956988342212,6.725294570103161,5.263436409990632,-0.1424753270300058
2.680344504622331,2.190762666720725,-6.509562868985332,0.7666872013239024,2.8177621454101907,1.1697474769695255,2.4658628271667435,4.977656641090224,6.253827985082161,5.155583640101428,0.9949261823869442,10.304879456186756,7.912253700465997,7.233596368704726
1.8444611324636804,1.666404087092786,-4.773779750048626,-0.0343406003397198,0.5156592467812349,0.8116534315160756,0.0973141132698565,5.9076515360608735,6.214467874742928,4.013737593609407,0.3502962665668132,9.237335491452388,8.771384368520577,11.750469287291628
1.0585376870025345,-0.1057413828069633,-1.8675173218029617,-2.023296420566689,-1.368808872434184,0.6734718716718291,-3.020324441257632,3.146611760290611,4.9257260338716895,2.332123325311114,-0.6083075486174128,3.601061517766464,6.999441374996724,11.726021959323589
-0.3912352611797882,-1.5539405898565617,-0.2028419700022155,-3.5082494857778013,-2.291349415992082,0.3381348265729184,-4.4935442970919866,-0.5426735786182917,3.583307133756428,1.380056370112256,-1.1423909074172816,-2.9139386406825807,3.0561765951826523,8.304079215762712
-1.5499958089694,-2.5779647648846464,0.2780930101005018,-4.491500366879407,-2.33610167847518,-0.1887103615357453,-3.55564689057958,-2.407071333793077,3.1995907397472867,1.794068905329638,-1.320728324278976,-6.47762832822249,-1.8064123586668348,3.7615517322513625
-2.058360764595374,-4.335381541102555,0.6943146456782822,-5.984310535516054,-2.048387354575868,-1.3202352711566545,-1.5496714667594715,-1.9426422092072533,3.8694824608443503,2.958445600875269,-2.208239421033536,-6.418255356261366,-6.212130960922757,-0.3619640039001321
-3.960851827759664,-6.489863586568251,0.509146922028109,-7.644001574757032,-2.011452361928905,-3.2033231320124846,-0.4764203185676445,-0.73309565043353,4.843831967329764,3.3385833172824064,-4.828013743450834,-5.351657670613405,-9.169639941799224,-3.815868245486661
-4.543364851210929,-7.123142849179456,0.5776073310785522,-8.241193522146713,-2.504943621262351,-3.757331583554356,-1.1605205138195762,-0.5341188829133383,5.145881569965374,1.58462471066305,-8.943984118486632,-6.292044630668058,-10.366183466822632,-6.89696147142574
-2.0633126803169395,-6.16631030687866,0.9984315650863584,-7.737906431871311,-3.4431674947511963,-2.967601492684923,-2.7496313640757952,-1.7246198789504072,4.149560429215644,-2.3970203642453463,-12.920621746467296,-9.676115797661478,-10.211290023812955,-9.526820129351442
-0.2831137379733877,-4.801075118478009,1.153747379818279,-6.264399770554338,-4.518248771073174,-2.352309093301571,-3.780003464961504,-3.439183967895634,1.7967108081824,-7.240640740339343,-14.840861549363732,-13.054543135242724,-9.548643128622889,-11.076536109360855
3.7844993557445625,-2.555774358341877,1.251615052214468,-3.4515263567061663,-5.364754223418033,-1.482008526029864,-3.5575299649552234,-4.754745594334243,-1.4603200957648586,-10.997938880769006,-13.882647097253969,-13.496217764056349,-9.11224856836348,-10.932248748953064
6.685923401356147,-1.994086799705728,0.9252873794777388,-2.35011801849944,-5.682165358475546,-1.3598152300126216,-2.5541285918880376,-5.400919355040726,-4.7959894097084295,-12.467256692908482,-10.813453730436471,-10.27592166283895,-9.081054612681331,-9.139775405090486
4.210357172606315,-3.4394686079880885,0.0867613784900386,-3.098485966029413,-5.37324053938047,-2.269585785873516,-1.7069422349726873,-5.391417308807192,-7.207265588275954,-11.951800936757463,-7.333972736221227,-5.421829000850341,-9.113223280244473,-6.558267306564254
2.740273045831729,-4.645107194478295,-1.4043540558389984,-4.453361364080528,-4.674660882067644,-2.0390720847650528,-1.5309653721797964,-4.429234280573072,-7.850943006334861,-10.838152621384976,-4.931655757558856,-1.8790883956619335,-8.840238212312405,-4.448877224765309
-0.6054921143885232,-6.262231469147574,-3.706088736592725,-7.205151960812536,-4.096047244240918,-0.868429673616294,-1.854414654097236,-2.1490631186946314,-6.459509635096024,-10.332986498184413,-4.105635781899108,-1.1506707497232729,-8.334032973111896,-3.802561488563725
-4.0275073479127,-7.238880081476521,-5.775240680382071,-8.49207437719479,-4.065694082238252,-0.7162939120498784,-2.1666758388046734,0.9607144378301138,-3.577316093574388,-10.41464658826122,-4.357418811153551,-2.45655759911776,-8.059715712449622,-4.801860370876697
-2.7075658756562446,-7.222309500944857,-7.638022075206316,-8.127689305510476,-4.527293790195395,-1.3016557559981985,-2.06144791074239,3.218060658470028,-0.399134823613628,-9.90692153815663,-4.763575695688536,-3.8433072382363473,-8.360972629791922,-6.725778096888907
-2.3107655497686657,-7.255406192775841,-8.86873423379337,-7.209371354093418,-4.936749077520077,-1.6750444854582405,-1.4525492315613158,2.8082532716788737,1.7439335753139495,-7.63481020796117,-4.663278375030047,-3.976176169163101,-9.037809070291022,-8.404937773546534
-0.9818155555110162,-6.978968502271273,-9.152914650797966,-4.976697250812103,-4.788972228936374,-2.137526480164766,-0.6186141491478336,-0.5210050413492873,1.9814177288990693,-3.6594005597646895,-4.022633826352617,-3.018118555389325,-9.478205847873932,-8.984810055004948
1.555166478891135,-5.900220591247099,-9.197558499451691,-3.3680782030995,-4.203859365679618,-1.1875665430560003,-0.1367187104108049,-4.836913895085324,0.300272939312471,0.5200356075511401,-3.2787013582735263,-2.0768327005810923,-9.198533383185644,-8.44613770709706
1.4950990382107374,-4.040124716874471,-8.777786561364673,-2.4488390072319373,-3.9025581491273336,1.437159015030922,-0.5656788870737053,-7.315289798371323,-2.415672002407333,3.0309320597710325,-2.8218854844215926,-2.0018337249850786,-8.217731294856845,-7.43064357900262
1.538759502346743,-2.379020697443381,-9.833326197692402,-1.4828407200226004,-4.474694502654286,2.106236886008773,-1.874110049914802,-6.437351989385467,-4.73387317117215,3.0795838418586854,-2.573420476210366,-2.698896072529747,-6.922304178827889,-6.522696196203395
1.3552694180137403,-0.8749088803261968,-12.619593689929536,-0.9407695325850752,-5.637086166717926,1.0032801472801995,-3.0802129284190425,-3.1295842297614698,-5.3257514653720985,1.5643213211526952,-2.064015469862466,-3.4403341784219226,-5.656566654031818,-5.713169154872485
-0.0639291403033884,-0.5709406313966037,-12.112030438268986,-0.728707713379494,-6.310476427942936,0.4546888110727882,-2.7117922488533903,0.162663980342165,-3.672365462451882,0.3472557633093736,-0.962237778020972,-3.677667577747672,-4.502960219318242,-4.6377861775502325
-0.553198508861726,-1.8267156809241087,-8.473329238663348,-0.9017806830061992,-5.556576351434149,-0.2024754858254576,-0.0334332572099409,1.574031822725523,-0.4355623284115673,0.812559962416179,0.4840389095176967,-3.502867362842541,-3.3698005280786,-3.33387204363746
-0.5945044949219203,-2.3723010581708235,-2.3107367240761314,-1.5298464524691398,-3.4972406464462957,1.5193277588622276,3.9596182108360902,1.1893913843318271,2.807711042051947,2.878501233507889,1.599923175238677,-3.3818264886343883,-2.103675723221869,-2.578961536548201
-1.047679207350499,-2.470058344724046,7.619275741531446,-2.6468210305411897,-1.2804633983061835,6.159598328313477,6.910382853962579,0.5727858799320291,4.41106619068964,5.174437694749315,1.933516368048222,-3.540939054164061,-0.4379259024750013,-3.212741327495644
-0.8212967205027311,-1.535768600468918,12.3443198889818,-1.9469089130825947,-0.0688686799149742,7.081038504464374,6.8571733083607,1.0772109756798542,3.618592860488924,6.132576034481836,1.731966522459116,-3.6849420933404993,1.9855841795364668,-4.987788170039217
-0.4525199969584202,0.9617782476556296,11.472120314320472,0.7657380447206639,0.0085077294586319,4.576001439093863,3.985404715693722,2.5801542134769004,1.0387981633967485,5.10424191106625,1.6843957151091598,-3.3201872221127644,5.215680747432673,-6.219222735243147
-0.9315774263881806,3.075970930106951,11.274993569209023,4.293642457096368,-0.0447466827896327,1.014401603529249,0.7033946227458863,3.7374703941777128,-1.705883248995553,2.7188575894122167,2.130728476073866,-2.3170488925445127,8.441912324964607,-4.897495728632336
-0.890264184445273,5.061350782019938,9.713165977556958,9.27100323083562,0.9684763805548436,-5.031591200988088,-0.2739604624281497,3.3569852465925614,-2.985803885816459,0.3366101333233899,2.560676586298001,-1.1106367177601904,10.029075585230892,-0.4632738735009134
-0.7106762087492182,6.7123520511875086,10.466095453424876,12.063320876347523,3.32138187494126,-6.000119165919491,1.7081715829640205,1.50668779308765,-2.2111906443444624,-0.9212633054518946,2.02207046568585,-0.3064625531472487,8.5491706195306,5.397588160606382
-1.227245149487854,7.630941808174619,14.4919807225609,12.33103020248988,6.05623856737521,-1.2484004202389414,4.567106375876337,-0.6432584563130952,-0.2001154542366947,-0.8451553704067294,0.1705691789644063,-0.0315025062658094,4.189985331542907,9.839615646360455
-0.0962973980550024,8.426075833372664,16.053017429602114,12.052336362058067,7.736298962508087,1.7036079192149494,5.264901688042087,-1.95173115488182,1.4702143042335225,-0.0443701877049456,-2.004579146520172,0.3944787230656104,-0.756064871844579,11.024234036446147
1.016665866696838,8.88742287888987,16.044221630783902,10.246034118865948,7.609591904218877,4.5056663495235245,2.606320731145523,-2.2082805216911154,1.7278323308422046,0.7956440920447427,-2.5506079894911515,2.152539162073097,-3.05369016052493,9.52390017303586
1.123101384891198,8.701987197081012,14.955525456433858,9.27259500726383,6.2280296104899975,5.112130784480214,-1.4340267465837364,-1.946914604482384,0.8984312672475347,1.6522332587972777,0.1422907102785302,6.138937425998016,-0.6457274796477499,7.751593748833475
2.027490906274823,7.870238740185973,11.78108771783873,9.35510443133608,5.034564801534533,2.1718024036380887,-3.170414198632958,-1.5144291166062196,0.3892224555701986,3.1952593042066866,6.086173242636882,12.17431805171756,5.89765615463574,7.9281161059344605
2.380058424807805,7.73907325160715,10.184128251296334,10.055185203289431,5.245564390454025,3.123731207897346,-0.3296411724681007,-0.5294166409501138,1.31042723076321,5.9899013557158085,13.480035519464847,18.71190298057637,13.747430318730476,10.33772752637621
3.716309424230981,8.349852483647235,10.146755457094567,12.0724799513245,6.891062803976801,7.464600770899289,5.816330573457979,1.57572564026988,3.230368192226628,9.56823752450946,19.70790719698843,23.332903754226248,19.67500841203365,13.294785332852328
5.023487414216479,8.316761288016227,8.30723171183492,11.6101215430092,8.746893323340974,8.568364646101685,11.190616167365718,4.467844393288946,4.319129452201018,12.328486114718327,22.797581041269996,23.92273378938162,21.941241463795016,14.71901815963119
3.877270713714644,7.898888612089077,5.291451041619356,8.563516002301622,9.217711630996526,7.492185778115274,11.970926030987323,6.537885093503551,2.945982137180895,12.557571223953689,22.2999270417416,19.954991854418427,20.8940358871933,13.890056069962004
1.2358788858744902,5.79446720461377,-1.833344568696576,3.5431939801199657,7.516087024695224,3.37564151153883,7.465502330759726,5.898931182768255,-0.6382587159312969,9.80841689191022,19.098014285964503,13.04818697028034,18.108083670972636,11.926415956168364
-4.00052404430828,1.6301264164119784,-13.95664216625288,-4.481386630224286,4.267098660243732,-5.15021652356918,0.5180640638150678,2.053985776309773,-4.154452148567671,5.423931102000616,14.540489391486648,6.241557133048719,15.004977807681172,10.716886932687382
-7.842491771752408,0.3326591772473266,-17.229840377338203,-6.975067881211751,1.1078229183735395,-8.011050960037153,-4.736713594238495,-3.267213920704229,-4.9930145006802,1.6852999521042449,9.7330938380175,2.267067761755783,12.086282673997104,11.313021825679762
-7.360464854425002,1.84270792359669,-11.529323809442344,-3.480479171648037,-0.4018253310823816,-5.14357321728134,-5.839880387475343,-7.0237147910233375,-2.3667232745345217,0.25619192861231,5.45662306937944,1.9203899014625565,9.198207383196436,13.110497901033996
-6.137867603892702,4.11315503548849,-2.271246031909556,0.1062267013020749,0.2408581703177006,-2.33937965745692,-3.401266030469735,-6.975933241357499,1.945372902937116,1.172002794560072,2.4204819129891746,3.715605862451355,6.3215642949853255,14.366578789584342
-3.5136006672743725,8.265384378639546,13.904278879280756,5.787719799314977,2.2844229404747622,2.606739450928868,-0.1047495868829315,-3.3623871446687232,4.911591789224438,3.078395439813427,1.2254247516458283,5.1151819316966165,4.011958301451617,13.508663482477848
-0.3907696698548623,10.169141405134834,20.74376611057012,8.907776270324149,4.39056264597701,4.207308811994449,1.5831101010005284,1.233061469121871,4.51255898469967,4.349273575913745,1.8672402791864329,4.410990315033576,3.0395944360182696,10.192453165827189
0.6073679743737844,9.461426153341938,16.975654117443607,8.495092887355515,5.629541891536436,1.5322031908812923,1.1227184741699665,3.793729128673956,1.1280791965500772,4.119414228645704,3.344278873865996,1.811808905934832,3.579347612557118,5.441047405881372
1.9981988904718584,9.463796645827692,15.494258810078394,11.352256747446596,6.048588647972721,0.5435013671569376,-0.106189742023373,3.1057652094287,-2.9388500946852183,2.558203143888683,4.040287075129061,-1.0407055508257148,4.7621439464528486,0.954678872368376
4.636974084180375,9.203189871372718,12.493223655424789,16.410457948612972,6.388636469489718,-0.1146810605455503,-0.2292129293434488,0.5523278741891886,-5.251676576398923,0.4301206013742877,2.804096960462997,-2.5982258277339216,5.098355969164743,-1.827606511588046
5.004437865809584,7.479313178660562,10.1464400522367,16.42071759182948,7.18990709380451,-0.5885940835217924,1.5371133027569623,-1.178233774040134,-4.891060583480226,-1.5601280620137796,-0.1914688096827834,-2.628491347722504,3.492283418698072,-2.370541375267676
3.7240549060580737,4.529429761481993,10.068178732150397,11.89235722210196,8.054090673085522,-0.0356160519736656,4.29113457994027,-0.4146345541057208,-2.8281887141405706,-3.192479080651151,-3.672368134515258,-2.162169302857384,0.0073544830697898,-1.1829982218473951
3.7468143649636017,0.8426164288614711,5.950751392083438,4.94351664838401,7.77123462021702,-0.3882991581040019,6.119263938601801,2.0884878913991667,-0.960470565182966,-4.766549199612234,-6.424322145313333,-2.3940428122558988,-4.258839415913526,0.464281181629822
2.074185431299374,-3.77719207298876,-1.4992342762605677,-6.001508626573734,5.319087248303505,-1.468417327249587,5.425304317130127,3.850393167636756,-0.6837167631187766,-6.79915482623561,-8.305932273711125,-3.671100505194036,-8.058685264155987,1.0752706487331365
0.2509640461132978,-6.3087858690201175,-6.180736063645688,-10.861147182790926,0.9295993215715336,-1.5069786766197053,1.989813076959072,2.8581540785723654,-2.0433969119602136,-9.54071696746562,-10.14685748152289,-5.468966407465037,-10.861015997463262,-0.4457102885844932
0.316979897400871,-6.404794493843813,-8.759298009870502,-8.878298375807216,-3.760895514967438,-0.7240252499930246,-2.8398224146426987,-0.6524687121072188,-3.931913094253403,-12.558336587425522,-12.640176221998662,-7.162185251131686,-12.96974413432217,-4.2637901435237495
-2.3217944408896045,-7.823930047511599,-11.584597697659456,-8.87165021155194,-6.733420472321082,0.174145886595191,-6.835599105617689,-4.335135853440683,-4.9876916112443,-14.686243318749115,-15.290685564725536,-8.57909030761353,-14.829042599808156,-9.399201689925736
-4.437935530787909,-9.915823853988678,-13.532789846947788,-8.559352046904387,-6.995621838618117,1.4941544261515691,-8.023706403345221,-5.578870598115907,-4.423357343930757,-14.509665803039471,-16.413123166334806,-9.673678960135032,-16.15556993430502,-13.99863402368562
-3.139950434716374,-9.416383868601416,-14.403235035709612,-8.373003621923676,-5.214730925846084,1.6463405873804584,-5.720411259529467,-3.435427397290132,-2.249621282625688,-11.211546318400508,-14.240772632153444,-9.792411204393332,-15.729748083616483,-16.07123548004948
-1.4744452212478305,-6.657930168744596,-14.224567989865688,-9.496507034446791,-3.0799388860620223,0.4335490753375774,-1.010146480925835,0.8738508493979538,1.0094909769814464,-5.281591134410133,-8.300332967648268,-7.670581403605917,-12.193253257078435,-14.408848895434526
0.6329907573323366,-2.1573113287013954,-13.084757790481188,-7.897481172921367,-2.0033000708636948,-0.9040915825184496,3.616396283983207,5.003543524633798,4.616324817462207,1.447897320675274,-0.0420446162629648,-2.5985848589832123,-5.369682997083752,-9.24224728425626
2.163847182450468,4.7890029030644845,-10.90116696557577,-3.852285457077393,-2.26059978736847,-2.783546584470676,5.444274837438698,7.009922908300652,7.650660937715706,6.60667245952272,7.725079756365398,4.227559236409903,2.942818925768462,-2.247355708216268
0.956425399997902,6.413577834355995,-9.9236686478437,-2.6957863353903635,-3.150180262146982,-3.79529991625462,3.0632466028720278,6.241101338887358,9.024323887259278,8.528969940040202,12.251049755904493,9.732064337907566,9.547461404559725,4.162526815488761
-1.0912210725744198,2.157761905021839,-10.362727985379628,-4.05715375014986,-3.799382581821785,-3.6929981362854414,-2.6229671787044677,3.3081027321185204,7.900070906217625,7.148079819668496,12.242876230084878,10.81303475636784,11.642585661986589,7.907018529617144
-0.2989059452337936,-0.4884568100782929,-8.843634895612897,-5.102913184070403,-3.810203816116747,-3.474624124376473,-8.693805437624917,-0.4471434315628073,4.432574101940922,3.905501514485877,8.384971262036764,6.645408294749991,8.609045485185767,8.081405367961342
2.1141119435492968,-3.220971860480634,-5.76687846418636,-6.840312929988869,-3.3082490388698678,-2.7258775894010983,-11.857912116640636,-3.53854003778973,0.1119327135781418,0.7004058827568542,2.705478976870264,-0.5987837250334351,2.3813689205621245,5.126199669374103
3.239941628494062,-4.435050510071615,-3.707037517094608,-7.428084446504374,-2.610924310755138,-2.33538478816079,-10.49403110478908,-4.840438953535397,-2.9338905874220984,-1.35762184142677,-2.6829929941121407,-7.316765448704089,-3.955849515397034,0.3349179408442566
2.1017096585606967,-2.855732169635389,-2.219810104249309,-6.438655206375555,-1.976200462324556,-2.4271611052725564,-5.683545822892995,-3.9956478250718983,-3.3896043686745045,-2.444631028981924,-6.5319448365019,-10.964830018860006,-8.22743625157333,-4.863070671679985
-2.425734666878977,-4.9172446529015685,-2.227721736409142,-6.697174716050586,-1.6063656101201076,-2.724154345793754,-0.44335034921626,-1.5864592896551812,-1.7630338666645144,-3.424363983647737,-8.548924849309273,-11.365170127938704,-10.21211506439073,-9.362796863125476
-8.747273246256018,-10.18222643731113,-4.313527340670285,-7.780005283260195,-1.7079866297310249,-3.498988209513559,2.321990271887394,1.1112578513115494,0.0570816196943155,-4.758344829503258,-8.930482327333038,-10.005887346866691,-10.966922165764728,-12.455708555336884
-10.559940763758275,-11.270893721180435,-4.343984649467547,-7.553924551238478,-2.383882721828776,-3.335460046295889,1.6505144720888012,2.743014974305673,0.4351775454931683,-5.949452750248611,-8.059987889337023,-8.412880329026109,-11.307731068434409,-13.759120294278958
-5.945872131431132,-8.921860165968914,-2.464564920039568,-6.331193442290521,-3.4131689618659777,-2.1712106487634637,-1.163640002557962,2.5381236112469097,-0.626985776120776,-6.017893823511969,-6.63869997670534,-7.242536723426582,-10.981296663524644,-13.267620543493004
0.1677014012946001,-4.580844930613377,0.6266542971805031,-4.498295036388028,-4.191641762225231,-0.5519164015630723,-3.830289822407991,0.6622837045013839,-1.6379666589165822,-4.500163137728279,-5.745735470910134,-6.576672168487868,-9.200948108810245,-11.467446584039664
7.221617446047391,3.273971768848212,5.908392595250292,-1.654744818195953,-4.006016509150491,1.8868584854809995,-4.725251114941628,-1.8893056951567857,-1.1384762325185065,-1.9619385237986648,-6.252571224464873,-6.49073092009057,-5.788872159924125,-9.215089739726182
10.669645094818453,6.305592791175932,7.918290839775092,-0.0933193748344184,-2.5098913597664563,3.331557324494657,-3.631852978678367,-3.76566068394704,0.8853239742528984,0.4798354973441121,-7.863510296724442,-6.923276572870492,-1.659098252085769,-7.271379361656912
7.499581354634513,4.083981733783707,6.449629546167132,0.055528387735698,-0.0619894037961046,3.65303560883338,-1.24507534117771,-3.878661264395888,3.056709365133188,2.124350826429918,-8.842100886257413,-7.099131402184199,1.8004657008204106,-5.821767610839885
5.093865437595919,2.709024483491495,4.278129486759545,1.019084741136846,2.344619569385486,4.851817543912316,1.7207901001845585,-1.9108334616053355,4.013039596898793,3.165798273324569,-7.123663936002828,-5.623896690912517,3.7283476737238033,-4.462407628602136
3.332265142366248,0.2928407053030983,0.0831441817366029,2.326964656824908,3.565995542494278,6.567799132964168,4.796594996656182,1.506131675604209,3.703187703485455,4.235897086861044,-2.1594852613093707,-1.7047775402810856,4.189701973481121,-2.722632851213163
1.0841875956490317,-1.1169242352159434,-2.8487557018650675,2.253619985736784,2.936156204574445,6.680006334272632,7.296952561837983,5.032128000023207,3.269579374348453,5.529445352271324,4.1298197035169295,3.5489943709545173,3.751072885707004,-0.6362032514890217
0.352422923213068,-0.6935511296104218,-4.162752720294312,0.9724387472227785,0.6756395339610037,5.320422339404983,8.013826471864675,7.1729082257321295,3.687277008315135,6.444238581792661,8.352135057203725,7.317759717800328,2.830709565806089,1.2011974656347064
-1.3962594559041237,-1.3183679002569646,-7.604371186746436,-1.8161054400438048,-2.172678674635278,1.6735391611114252,5.860978121154915,6.899961704357253,4.611913814709226,6.111048420304982,7.97005865307888,7.056770315839486,1.4667195392751609,2.118404090256462
-5.114050235509651,-2.3284447388518617,-12.494872395998456,-6.550014644088801,-4.274594832071074,-4.881307684840042,1.1183151887613576,4.093632433233225,4.653934969800588,4.269316898444899,3.118322715033898,2.703671781467719,-0.4455952366218696,1.881902613085941
-6.535603381934776,-3.402902728316753,-13.94430605043294,-7.863234489505489,-4.724892268198573,-7.452612380353338,-4.039677436498735,-0.3413507005287641,2.8073374211313364,1.6047469792620888,-3.511303244388841,-2.940680521380557,-2.838191098890448,0.7777762299799065
-5.033962839176766,-4.9014842956338045,-12.09741501765556,-5.529347854383424,-3.5477689210487284,-5.907878169203096,-6.664955370619268,-4.763149647526987,-0.4336714663382111,-0.7685640298402205,-8.521945356449578,-6.1654547719659405,-5.348475781392367,-0.6486367803237414
-4.441808676222424,-7.427139459267503,-8.443526454350446,-2.947546067347126,-1.6693505148582943,-3.0071124882391533,-5.199645493117487,-7.467991100692103,-3.400870298003639,-2.144114446860556,-9.881969987116506,-5.036203064795771,-7.348092870560393,-1.779356769467583
-2.219301626372161,-11.126526809620618,-1.814486248326544,1.1477137124786754,-0.3560084517224879,2.9472995640860757,-0.8724456491482044,-7.5287107284269155,-4.669513875579895,-2.5765135187928365,-7.759894439470898,-0.5913452575044289,-8.054902149672131,-1.9193038733043293
0.5987941121082064,-11.18190837126604,2.745403294199228,3.2533268142775653,-0.4443054412233778,5.142250831615685,3.057099716365244,-5.326125487833892,-4.154184316871913,-2.517561396731168,-3.850479882327392,4.2687387594260855,-6.838413687688103,-0.4511446744104148
1.559300419936652,-7.366849072304444,4.95839635100554,2.786636016811592,-1.83733122361415,3.075926789227966,3.780070837478249,-2.316391103502859,-2.905988558827296,-2.249295978957221,-0.0438168587227352,7.023982737875215,-3.746433516474625,2.6052975950215256
3.96946154125565,-3.27089952613612,8.269119634786328,2.9917683663053323,-3.592288533003263,0.7408457041118973,1.1523518395985235,-0.0480287806651418,-2.0123068011259804,-1.7539466104071906,2.530817458615104,7.011595358850599,0.1467001506141088,6.069714694104761
5.876621964249969,2.21136936345477,11.511346859838604,2.9451075117123917,-4.543695126381508,-3.5728281497277097,-2.211929364267057,0.9076396422913646,-1.8050700693857848,-1.058808340943358,3.703625111044943,5.248401391230473,3.1481314537889773,7.939547192285403
4.029948585485021,2.9556152656341834,13.072785661206863,2.9903688849530945,-4.043331721957998,-4.575390602537001,-3.065112504036648,1.24000193060742,-2.0247112385777086,-0.4813752418557797,3.990117597825375,3.231249199632188,4.115373229019717,6.78264912079581
0.5345057561897298,-2.0353848484544743,13.076595546491289,3.5201019122447583,-2.318750305378046,-1.5997823829891735,-0.1301732985782848,2.0915524245219785,-2.43489415713411,-0.3161814874571007,4.225730285909052,1.9359133909250656,3.470399140115049,3.1827705534544464
-2.0529894943116838,-4.150434642300341,13.63344551220216,4.418036814805125,-0.2356240348564426,1.5883914159435335,4.910499305274918,3.811816278568614,-3.003953075472431,-0.2594811513894157,5.182345262275064,1.6115405544286148,2.9529355410498823,-0.2194627110876226
-4.670112167223521,-4.74039015949035,14.524557652203043,5.950096315563868,1.3093931275398063,6.388332189948219,8.769218907376505,5.410829308781359,-3.517774823928434,0.6309374690857368,7.1052380633652845,2.070901815433558,4.059217834194072,-0.5248635853470702
-3.9037590209089066,-3.4500042262537165,14.390495801322276,6.856422331733873,1.8893127736137885,7.040722599476354,9.083441748716204,5.320623557027382,-3.3501673807814427,3.091553827637036,9.381781537689047,2.9364062131644677,6.514939612484838,3.0594960504351185
-0.0259041981392762,1.3584471744454945,13.564759861798354,7.144416560984139,1.615344707332255,2.7243042342188293,6.086545498352127,2.895974608831125,-1.9670032972877465,6.612602183015294,10.791666438316618,3.718560866935679,8.35546324226901,8.314630697532216
0.8742454102192493,3.8218249407297535,9.912890582767176,6.556097644688321,0.8428658417072441,-1.3124923347015918,2.173426904019614,-0.7058203580798263,0.2651019715119673,9.363772997346612,10.429657461233433,3.9591462725668194,7.738053234993313,11.516636182914066
2.5950968870031823,4.308266428573523,3.013685177536027,4.727678267122653,-0.1378856877183896,-6.5503101968112,-0.1621094808720098,-3.221768375749221,1.980464704901932,9.466285277127994,8.598333001057092,3.514495970477281,4.813042646074432,10.25839186155955
3.0574394886354224,4.476403598854045,-2.29471125783368,2.7604490556202776,-1.1694852785027503,-8.547162570215788,-0.2920741371294002,-3.138333281438019,1.7962598944507655,6.60303384932072,6.656347899956423,2.686435154340067,1.7286617839124423,5.277629757749596
0.0095502010181396,3.136267299831848,-6.338404430042723,0.4882035566861643,-2.1157117262719813,-6.254646230648939,0.2298275798589486,-1.1237214305922985,-0.4729647978699773,2.424169650901208,5.646610988553991,1.9259037029587684,0.6015370204343231,-0.2458674619858118
0.3088048396977185,0.6735394371980842,-10.683943988460554,-2.867859987337236,-2.817170917427635,-5.310159249857223,-0.827358737742685,0.3582416274737028,-3.5831527249808826,-0.7630379159563301,4.918074131797312,1.3168095333452785,1.384945591953432,-3.322143256044235
-1.3596462715179485,-3.068188695966555,-14.339702626123826,-7.190260761678788,-3.213404040604136,-4.517115064266493,-4.324992528276358,-0.8783681881723737,-5.857229281975361,-1.8561265661732411,2.375118389088602,0.4203074735426888,1.8305174609802783,-3.4554776752573417
-3.503662274121166,-6.071886913264479,-16.781160314894063,-9.94543142899954,-3.4548198357499658,-4.225435377060849,-8.83491786769773,-4.692249020634009,-6.40710242895296,-1.603852030198162,-3.3832161309125723,-1.2225452676891138,-0.2538034119805132,-2.664505788398273
-0.8632953504848708,-8.165608460591406,-17.843556576719113,-11.031867724011532,-3.780745748242026,-5.323076156979264,-11.597765489175288,-8.45601467218836,-5.439861324598795,-1.4616144987792978,-10.854522415119716,-3.362728002263438,-4.583201907283794,-3.296322305384763
-1.4905078573677617,-7.696591930888293,-19.020062930498025,-10.760865325985144,-4.218443382099984,-5.413981016563334,-10.633079130179368,-9.0944873081,-3.5885471385521868,-1.9055842700694896,-15.784572311630448,-4.913438950487148,-8.255972034228762,-5.700776342139143
-0.0133464447440678,-3.8375921895814864,-20.177539091643258,-8.389908859311172,-4.437649429533451,-4.801143207491138,-6.36559084532017,-5.673520563771838,-1.234934412947155,-2.013239026391624,-14.223043955694138,-4.749905272101827,-8.210337818734757,-7.950838791046678
3.314128206866738,-1.111798120453229,-18.76234165309723,-6.435223855894522,-4.004186954134767,-3.6460666530503656,-1.4664182322950126,-0.308602453989252,1.3945380415696604,-0.763294116385751,-6.160893307433582,-2.804382740157564,-4.0644914814110535,-7.866741234531787
1.4831543578346136,0.9589151734146426,-14.847293176848591,-4.815050668248947,-2.843907818113948,-1.5063703491149252,1.04894083807919,3.4525264485277347,3.670796188343232,1.3749246398687944,3.604984151809205,-0.3808746124277036,1.3230240965681477,-5.379965565584854
1.6495456457487885,0.9100969600191596,-8.595640175406585,-3.919788527946981,-1.4190508889246587,0.7185511568960679,0.0568340920749221,3.44949937291679,4.508493390565576,2.402724198896948,8.616361691267286,0.7502811498443265,4.14219414305785,-2.8791653814488427
0.0907453391114406,-2.368066524646591,0.6573037107651413,-4.415229489927536,-0.3317381734398026,3.129148728357228,-2.8564659341408287,0.5613582553528715,3.192119891163074,0.576010435723191,5.600049782057297,-0.2384249620681942,2.7173148826248337,-3.0749321974348334
-3.1078212240616816,-2.256625726206817,5.551087369830491,-3.4785951921612424,0.3392926354607226,4.2876081820405965,-4.706311497778273,-2.183397408499133,0.3146346672133688,-3.682319746644012,-2.9894280966565105,-2.564883207824636,-1.3323546425759218,-6.339648139277813
-2.21195482210538,0.903624850322072,5.658002255417983,-1.3048939765122085,1.2934675500761728,3.871081251795895,-3.5576960114700853,-2.2437490210239446,-2.278278558986372,-7.729388472872401,-10.904163480023769,-4.503858046612336,-4.736983222321925,-10.083703934318308
-2.0388295197791475,5.657656516793103,7.992930436200175,2.9322913771794745,3.47423991964584,4.81403374826978,-0.1143643313892539,0.3204544177043971,-2.730771159504755,-8.751012112289104,-12.901033816057575,-4.766613176004569,-5.378645500437074,-10.877793362692556
-0.7663695015301418,13.468456845509388,10.998224006355402,9.968632962535612,7.112307431553518,6.835358935658244,2.906668680924099,3.053547389870573,-0.5903615716215995,-6.088934313717914,-8.437549564369448,-3.391853335817018,-3.740864423094536,-7.461032575587723
1.4424682364132049,16.17529704496692,13.271289951069791,12.712139588175836,11.200746619881045,7.540460369652306,3.108518567200349,3.4097657350118027,2.8482407736124173,-1.7178084184106126,-1.412137448026698,-1.4897003811809952,-1.9371262047369555,-1.911545534450397
1.7279450654267223,13.348416530402538,15.729030698211956,11.075434317922658,13.96962434313562,7.331491740996748,0.4436975131063718,1.1162844078069156,5.537199288857323,1.512235039886292,3.44208753293924,-0.2287976002041603,-1.486641589352388,2.0999181019557795
3.542677608873273,11.089917085837715,15.317714168458968,8.850755630422466,14.071417173790024,5.019380871812662,-2.8253727227960894,-1.513901570270633,6.117765421050592,2.1905275659226504,4.226808011878973,0.00860896779389,-1.9563402955439528,2.4466295508014184
5.543577435768061,7.559082255319915,11.78054534844094,4.421478031738113,11.53353334632402,0.0259172813140595,-4.154608536675681,-1.6373460501736474,4.6706538509355084,1.1471851271389824,2.661761072425122,-0.2807430136915627,-1.5729164464007397,0.3335783969245653
5.052378744563213,5.6688112952413645,9.892549327822165,2.8339799674504853,7.6996959359052255,-1.5652616825463628,-2.8826086642333166,1.485010772383049,2.373897669160584,0.224595500867025,1.8079167561241436,-0.2639822951121573,0.9396076491576366,-0.8046523091225026
2.7091814840797555,6.362419166681352,9.183654648413237,4.746274234176292,4.242493123138331,0.226953713990456,-0.6118583738816596,5.620650889789033,0.5620439927233747,0.39799000832366,3.140359852861934,0.5521469633878837,5.021457086241583,1.6561838034212428
-0.9330104644812942,4.777543798215253,7.051770155514732,4.585304124869418,2.1016297675415103,1.4567921081063189,0.4311026047820405,7.294952054879843,-0.0476498254278112,1.0584099210144586,5.57449987438801,1.9477974866321968,8.57533359223524,7.14492047426765
-4.938605924607252,1.684779587948842,4.289667665520256,3.495045377407708,1.1845902941338124,3.388630524573455,-0.5260948964977672,4.673951251399643,0.4367852365911915,0.9691170499432928,6.972174768354108,3.1178629747923594,9.592035194531803,12.209354334303953
-5.943898267550621,0.5663736999279623,1.8556006211028029,3.012934854875573,0.908307033738879,3.028996556255798,-2.153990065042961,-0.8431058856261586,1.3628458082684176,-0.2397304984093295,6.388932614210404,3.278508529375415,7.753493492409945,13.32535825466283
-3.814962282737639,0.8986096244237376,-0.4517751583595475,2.4153844250752226,0.906171625318592,-0.3177032659580279,-2.2684678942593166,-5.63223979115844,2.018946484695334,-1.5823003660778738,4.890676144863477,2.4425034293902854,4.7571586440791975,9.898441347961892
-2.852668140166992,1.6853090771833812,-1.8415712352225768,3.1761924732872453,1.1967587833692337,-1.0344315090115943,0.2515042161032284,-6.561639910299704,2.0605813769688552,-1.6764298128329358,4.344853064548886,1.7567244380323643,3.120450846531241,4.934097530362408
-2.760797023034054,3.5382787621790524,-2.041730229826212,5.518609095114547,1.7840201812910834,0.2780496122082194,4.547379310354216,-3.2068545951499345,1.6700412275534404,-0.1477180092602736,5.536634953778901,2.8830355036795368,4.347663645807131,2.7457826388771025
-2.384105668792836,4.48324659786861,-1.567145187437358,6.621716188651174,2.291926191262576,1.726973416371338,8.503820110295663,2.065071299103977,1.3462329573827958,1.9283759506175784,7.466337936998514,6.624597852929924,7.813373735774007,5.553253739812817
-1.362291287516556,4.362177803417731,-0.1028829567736203,6.7029416690112855,2.155722457102456,4.319784228639156,10.330938684434727,5.977763649811976,1.4545964262688074,2.9907161403359623,8.417738012704945,11.869217716373782,11.214302728138364,11.79021410271227
1.5892332668496,5.002297730361892,1.414735349117745,6.83938302501339,1.2087514221846334,4.313682556621996,9.683180520827593,6.611857721402828,1.9079624010112752,2.4509250930101985,7.665712516368558,15.976497800210836,12.295996655696058,17.485706070512293
5.698130555623831,5.975447976490848,2.9369155080177296,6.4842516501035,-0.0096084186967857,1.3389933982846325,7.610902359506412,4.437269027689808,2.28714032925555,1.2534096715251906,6.142979657239238,16.602654554935242,10.552931958936227,19.428809111697177
6.439735910114004,5.70889787872737,4.431286497946965,6.1214525011080045,-0.6497907034131458,0.0845422951483148,5.661963377565058,1.6014633650435428,2.289972643727026,0.9676392328504164,5.444656326546095,13.533411980481276,7.545277180960227,17.338103922266555
2.820922530827729,4.302268377018792,5.618315802473277,5.80132420476199,-0.3179696690940261,-0.1822747464504865,4.94693334774675,0.2159249549636968,2.019464574293977,2.206594392421124,6.144828705594733,8.843443985238508,5.522776613560609,13.304904589564783
-0.387011215198068,3.0833978435874285,7.517034297536486,4.782720424307523,0.5590556605920796,0.9862797416451364,5.702714391493288,0.9236033802819464,1.7607053427970385,3.831405969879512,7.036432438398194,5.098742446755452,5.4494502554503015,9.361634139057683
-3.59216585320352,1.7845631977863032,10.061573501217897,3.128760587347021,1.152559141471599,4.517778246640791,7.336728513734315,2.659927377363573,1.488466757103268,3.7603443630843856,6.049174044352384,3.1621200526215034,6.105013053525454,5.681974800693396
-4.029978722807769,0.93673558084878,10.56921472158724,2.193955592794466,1.0054060368465656,4.94732322915953,8.706172474878969,3.614381081413285,0.7358546054228725,0.7810329907539568,2.073919667076339,1.640485240983864,5.108241726179941,1.0915651685189118
-0.6721639809895266,0.8192312038884506,8.99947432977484,1.9479758890413368,0.3731950863034114,2.333425763406205,8.547590989362249,2.5968070015796485,-0.8874719163861187,-4.188277569375572,-3.887122205574599,-1.4706512238307,1.0793329113997745,-4.856149582619523
-0.4905332001476991,-0.3483586478251498,8.391849831021778,2.578935346899465,-0.1719301507971096,-0.227670290851573,6.107450682335795,-0.1722404129407024,-3.0209472148279914,-8.552135769411287,-9.244296073579584,-6.484705976742887,-4.884968124793772,-10.554973992023534
-1.2756502743342186,-2.453243712949582,8.279947899491164,4.472061577548171,-0.381293848468843,-3.875415153945428,1.798120781231276,-3.3140874391574187,-4.535081679108778,-9.917519063335348,-11.60518225931206,-11.28267929129738,-9.759359420167286,-13.26790129420705
-1.323901228589172,-2.853098663090984,8.559172741793665,4.67848399742679,-0.4859293205620627,-4.373220018744906,-2.64555002320591,-5.265603898745965,-4.371247709441709,-7.844725817708658,-10.39334322923802,-12.91364436622624,-10.819265882133,-11.470241211209348
-1.3494835682236737,-1.6985922736335166,9.804191085754097,3.1657940539467484,-0.7282138572497758,-1.0629556390841135,-4.948864661290631,-5.209497187618499,-2.487768930455041,-3.996804554761229,-7.077711634865261,-10.11662677537981,-7.760447526216607,-6.33223306067891
2.716362633885858,0.2896011334505168,8.56704986145899,0.9380535095273036,-0.8903847896788086,1.3721595180139634,-3.7554432603623056,-3.383691959157765,0.056024685697178,-0.6314873667896634,-3.9537524002734585,-4.47503779590679,-2.9532503806314274,-0.90054283343461
7.956141207379568,3.6983528377197694,4.769779636985649,-2.7300037092890275,-0.4977304347039748,3.962373435276068,0.2584236588453521,-0.7397763569829294,1.995720899817421,1.1410996444608728,-2.532102665993051,0.8011718007396951,0.3948968852084036,2.234439380291356
8.945035039249829,3.715758897138523,1.0943424930550345,-5.007833731858827,0.4033513548034904,3.773896137970367,4.61173251319245,1.672037850497432,2.822415743398736,1.771539072236877,-2.7623769511858,3.3058586989755554,0.6590919518399119,2.6355506430155917
5.631996409254149,-0.0280146692185048,-3.1691996670057248,-5.737342704832048,0.7859339258841374,-0.1921387296081182,6.605349899017227,3.188750097854424,2.838206754109663,2.157512264492709,-3.5125271659951807,2.9381050023968243,-1.1801954769606766,1.7058195352284289
-0.8756660218081652,-4.185764897011304,-6.993615191854864,-7.330680358305102,-0.7337683668141892,-3.729262334097749,5.13227641426019,3.6946463525008255,2.3661464884734187,2.347505602431568,-3.6943695639908753,1.3742209815776505,-2.676528632083801,0.9894001650048948
-8.547972984623438,-9.947763566216066,-9.92873550269127,-9.184695038110236,-4.498642962295065,-7.750410324866099,1.3249512964871144,3.469271670234832,1.146734932986334,1.539293015025919,-3.03833643852758,0.3192195430137019,-2.145338975092585,0.8751827720518008
-11.003711555998336,-11.473086420468126,-13.26575099332309,-10.362876284364145,-8.93504885757119,-9.101899804294664,-2.4215956043323104,2.8697218153392043,-1.2584682661761235,-0.6127546589675603,-2.007410533908825,0.243967490941884,-0.0340650820952248,0.777927932951826
-6.813769689628934,-7.916703592632498,-16.625096714927942,-11.094733991711514,-11.29270697233784,-6.844837877986939,-4.215836040982907,2.0722418029987466,-4.456571198973052,-2.920755822768882,-1.1654380796580313,0.4930404844067766,1.669261678681977,0.2199615746350787
-1.521151004435043,-4.080623205528924,-20.61240077348492,-10.152671466608068,-9.697898566180356,-4.378271463818527,-3.855318734286868,1.061634754594991,-6.862729653166525,-3.2784734590732683,-0.7065255849214509,0.19949893862929,1.3192068044045868,-0.5521718660106103
4.193380101032837,1.60782713839265,-25.415298069257947,-7.250570706979968,-4.872349478330023,-0.6732325022272696,-2.663444955749128,-0.1505788254306139,-6.709349084314624,-0.6610212560315745,-0.5266838659844666,-1.0887268444656684,-0.970766777193262,-0.9987978845687168
6.880331656497861,4.0508721358961735,-25.595193096716127,-5.655412026804457,0.0840636693554301,1.2675829629297122,-2.313676737408514,-1.3366135313440282,-3.682978812519593,3.4613888344162547,-0.591720781465142,-3.4384743541087346,-3.586070121505429,-1.0414593595596102
4.00170618238087,2.311514717181318,-20.851858759643,-5.206215610636279,1.8893880767196836,0.8109136107708517,-3.625906058970827,-2.141693941360529,0.4057885149218236,5.963177667139746,-1.0830644701671872,-6.6893753621240535,-4.941506355872946,-1.1119829000415962
1.6844469422059274,0.435084342998754,-15.214936227064593,-5.570811824263704,-0.4359992645315742,-0.2247997437034993,-6.11486519239196,-2.3897360697041563,2.773757850644984,4.6745608017393465,-2.122687763698991,-10.259769321365413,-4.765454940047732,-1.447304862136832
0.329748965431976,-3.0552106569276005,-7.409797754423929,-7.527193559855407,-4.820473262476298,-2.8091826667284714,-8.389390003382346,-2.2588358636924117,1.8089877554713207,0.4048397561415413,-3.4065868623258666,-12.92339827424064,-4.009336038780248,-1.6142181778642453
-1.4313413522220466,-4.860910261168342,-3.5043501728245903,-8.020074328835811,-7.748255092072895,-3.687204568262695,-8.985034865574221,-2.086839021793935,-1.6216610453793692,-3.610083626530013,-4.229778707699779,-13.256298190078835,-3.676947349581269,-1.0428962325032671
-1.6759150123503588,-4.392196672992237,-4.513662528574414,-7.078027078918434,-6.913337490191907,-2.5954590461531657,-7.150103426898113,-1.9905436810078072,-4.855826318979325,-4.438398398631989,-4.002805143895785,-10.758008127519249,-3.8697665722104375,-0.0772956490576461
-2.0892959002441245,-3.3210145469634598,-2.7602620147377244,-4.900966130330222,-2.816084708639892,0.0991551015056326,-3.2956609659304377,-1.7347233778972395,-5.535403918549946,-1.88920809671572,-2.832427397042352,-6.640569529989534,-3.9733740443384704,-0.2033256681605735
-4.396421205179356,-0.6250050227016426,0.3223342017630179,-0.7038256041539711,1.8481440872598116,5.378301371562068,1.0419235690844744,-1.0370501226857414,-3.357072536208875,1.5364769696308258,-1.6050179729957108,-3.257354351342883,-3.631481298285962,-2.817675144793384
-4.535274658821036,0.4627158850529297,2.6134732647555814,1.3269409888383878,4.353080182398685,6.901350899755612,3.8151086641837537,0.0002417019778704,-0.0870789800808324,3.018456319164784,-1.406102875806596,-2.369283244186932,-3.3344986716915628,-7.541209383691466
-1.6670637832375366,-0.2497987315910755,5.185936552544314,1.1507273342990023,3.868102305953016,4.484643623789936,3.538346155038539,0.8158070183109203,2.013483143966596,1.840122944215068,-2.6774670622586427,-3.709689843261458,-3.9195903841417694,-11.876209154764751
0.0945854671764749,-1.4182803118406315,6.620490507902912,0.4223405624041074,1.7302212068424296,0.8243834804835084,0.2983710824075842,0.796361638374151,1.924813807854889,-0.2924211023423595,-4.765347124012578,-5.209224558772803,-5.511584048812551,-12.91431920428829
4.244392774527765,-3.8744565900222514,6.721609564427367,-1.850219456296601,0.0726112639163147,-5.641535267160675,-4.0738362128566905,-0.2055915581064482,0.3654248162870317,-1.0949102318501218,-6.253515632731592,-4.767186497139278,-7.100929415981568,-9.771998089992508
6.859032551272436,-4.897260309414426,6.75917439042784,-2.334135005271734,0.074540768540146,-7.573664368373951,-7.068585447083251,-1.7184936201553,-1.1647138940118111,0.1768002333270715,-5.91116245733906,-2.0289062294964424,-7.336100934959973,-4.525122614461907
3.685601877758916,-4.31241547733366,6.403299900719463,-0.7894294759064971,1.2284717530772014,-4.358992302783625,-7.23328577568418,-2.9729289228300786,-1.7791044815244277,2.241712096534457,-3.621309430797055,1.363589450192194,-5.830691577036305,-0.6685966468467086
1.9296856346352775,-4.870529910112241,3.6659789071759614,-0.516767001155964,2.0500902044293525,-2.2942645038908847,-5.243748843041203,-3.390135109297717,-1.7820737606052717,3.14895264758934,-0.6037671966266771,3.187375517711871,-3.666378164243497,-0.3947651920284443
-2.304067398919342,-6.029691951835773,-1.498055151872114,-0.8290153218622472,1.471226054835881,0.3105925756628729,-3.297215754521858,-2.8621514186373247,-2.024783210022349,2.040344377281599,1.3240624995093526,2.4384314908996885,-2.4904529530820128,-3.061238185157208
-6.271632926715604,-6.739865665817995,-4.526986125404015,-1.6460363605017296,-0.2897758140935593,0.6571421696837307,-3.2055069793847224,-1.7111339426397765,-2.7686035389032213,-0.2216729138938262,1.025608124234168,0.0337109522813534,-2.978347772693269,-6.067123794623797
-3.995140930672625,-7.348075591280223,-5.550355332420153,-3.483261653137882,-2.0184719230817336,-2.318279317041235,-4.828844491654081,-0.473985354889578,-3.203900308181914,-1.8674359304986865,-1.0395210176627645,-2.015445321643256,-4.10678913337506,-7.148058769488671
-2.626503092642777,-6.032557951954211,-6.054473765934646,-3.7816824117644376,-2.573096172746773,-3.419260567251217,-6.297558595883174,0.3206801399617234,-2.1425956846910594,-1.5646964316640606,-3.011435779911835,-2.1425240171886344,-3.9797936568743353,-5.977697043779472
0.3570184513536902,-2.4840051431470886,-4.98763010804084,-2.517757912293397,-1.7612094982127928,-3.425446499261994,-5.821845313398967,0.3543489685384884,0.7169823314965242,0.7819670615807581,-2.889445292613118,-0.2473846041747265,-1.512718815915946,-3.873309333055204
3.880780809838941,-0.7027163001632697,-3.985422042550582,-1.3565056350275635,-0.3321631985517115,-2.7184117794819067,-3.331265745448036,-0.2745256647447149,4.167788650858029,4.142706946150724,0.0677103041008422,2.4479695805467827,2.5295938471914496,-2.263582626994093
2.984435925682805,-0.4285693354000208,-3.039597508795472,0.2388123080573132,0.783806518540132,-0.3722014675561293,-0.345483455773433,-0.9320638627950756,6.24164432975806,7.053343670780919,4.894326876397258,4.420758726780946,6.071288381745262,-1.526001210152799
3.165305644942761,-0.7975150732442902,-1.134327599879883,1.358907133060994,1.240226017641703,2.2181619742793024,1.72027076074869,-0.644778590233841,5.82122808460781,8.386825679006392,9.72987537423228,4.899342677418531,7.350465413849747,-1.1154784577371402
3.679546333300904,-2.6810570060018457,1.4288634709035533,1.7499571703759782,1.3861148540406705,5.294204173805412,2.981551419874336,1.2788314566591907,3.7034036218444726,7.873813188061717,13.10392602416448,4.221861642981594,6.199661412359433,-0.5288151470356297
2.721851531667685,-3.866429098962387,2.9883322916876094,1.7464644248001282,1.714240308727426,6.358985701175023,4.69543921324771,4.494836803581393,2.029433626468972,6.1655564557567,14.551737832242113,3.359398345601221,3.9237230595394976,-0.0005899393530626
2.419580784608152,-4.368380369088842,3.4866330070340203,1.0075172236973098,2.237009749287949,4.9442046719262525,7.463551557594769,7.387876524304033,2.411815479623783,4.337586354915516,14.185374257767762,3.0564413260439096,2.0261657913335966,-0.3248756756336206
0.1578557515655622,-5.928357344653494,3.852412713207763,-0.9169718096694056,2.4107094856016147,1.8029369373788733,10.017291683331903,7.848203088960759,4.377239721201136,3.0584197882965327,11.971092773527516,3.2667498228730665,1.0301688896562382,-2.098443494176081
-4.127632564927762,-8.152908951680699,3.6681428307931214,-4.185533260168811,1.686245544660892,-3.944259483315233,10.059273817247115,4.783269083991854,5.64078197036838,2.0506174177487537,7.736812762720433,3.296111437748891,0.4153478645310997,-5.089571325692759
-6.037649782891206,-9.086774423915784,4.012054458331336,-5.383535522073568,0.1484661781355498,-6.064031508170491,6.490165507762868,-0.7367660423561802,4.148063849941764,0.4259538752824028,2.007576276611303,2.504564212029777,-0.4741646648245705,-8.186221527657608
-4.933429086632437,-8.79386195891205,5.015062844787785,-4.391958159160179,-1.4068388771817697,-4.226472455851829,0.7956525577991442,-5.823585818282538,0.128724459606019,-2.2569692759281565,-3.3751907533932126,0.9831102365142784,-1.6163381205367386,-9.919021750761772
-2.638708498321911,-7.0845517803269695,6.467327339553437,-1.377845610813886,-2.0935620925513376,-1.5271562917883414,-3.928330633202222,-7.652574035327461,-3.7765371567991215,-5.178979414233709,-5.931613818259393,-0.358201442641473,-2.434165134023999,-9.255721981998818
0.4839955037715185,-3.4087652141924525,8.705405344000521,4.66080495769819,-1.6981452431312505,3.612910325661188,-5.522286505784166,-5.5471207969177385,-4.609807160880109,-6.621627963038975,-4.320515455289922,-0.3819660326014968,-2.60620700843117,-6.245893871107114
1.847041202309911,-1.4396142368428295,9.560579912915532,7.354746313040247,-0.8460887584268448,5.428844051061734,-4.4836602858616175,-1.5391704772798676,-1.6619049206556156,-5.377408302613048,0.3071072834662232,1.4538241154742764,-2.542292769125879,-2.099288283743988
0.3467394369049431,-1.1911565062039398,8.948683979683409,6.578437289849898,-0.3824274260787206,3.3739472646610134,-3.212099689182708,1.180162955456865,2.7640909602411625,-1.9835255533470215,4.808992097706721,4.661051838433593,-2.9012747450547067,1.4687936543406863
0.3347564335885991,-1.1458025057862218,8.516413468573193,5.393278619761857,-0.558268662106741,1.9260876699458416,-3.5230013205322166,0.7258691031065325,5.134069586537635,1.424449289186839,6.242857280210103,7.968993680479855,-3.6780531992023953,3.2767259527391843
3.0275149176647966,-2.1612310758524784,7.791907949264838,2.3008033589959824,-0.8308447968913981,-0.3113940588655128,-4.8659587258928525,-2.103747223822751,3.523012355146193,2.623943952221964,3.981623969714122,10.033903572813044,-3.997110825678192,3.3361536824618554
5.119775044073241,-1.8443062451188577,5.514915157131412,1.369744677191832,-0.4764110261975531,-0.8963857896759209,-4.99600889778867,-4.621694202409628,-0.8746870315365243,0.9175751936877532,-0.0368389159801836,10.102732216824876,-3.0442412362215805,2.566019676554987
4.847373432183437,-0.012466989131514,1.7450121038579292,3.0179469921775626,0.6127044410239932,0.8578698590620643,-2.4374731273536554,-4.482236137369057,-4.762817302218082,-2.477467899510458,-3.082277253252528,8.249023390165803,-1.226394083908815,1.8004780894476935
1.0810755732106745,1.0814910260411426,-5.214853472415436,2.831946420238844,1.76006592548201,1.63350745897156,1.7043156132920814,-1.5032800263756343,-5.342640801478567,-5.463795804010744,-3.826302214771033,5.152570003533938,-0.1694938338034006,1.0308217130867092
-7.1944916851310605,1.9421895399934876,-15.880886049090508,1.6690769923674822,2.1244238493081866,2.102035534773156,4.436608932182068,2.279786666050469,-2.3455933370760675,-6.549105019594521,-3.0968408436689145,1.6657449696677702,-1.24663854283817,-0.3519407258785492
-12.261023149075564,2.879965023444239,-19.653947257668893,0.8138099745815529,1.4682825183290973,2.3933828769211765,3.520846607130565,4.200901751315875,1.9947120649278036,-5.637817634117837,-2.7324799703083755,-1.5462095812794845,-3.9682285494345706,-2.527863289876436
-8.599409303381398,3.590521528940391,-16.211142640051605,-0.3324710739072887,0.3362146273188919,2.004055196143343,-0.402717766858121,2.8897791435099656,4.762767602093152,-3.766757933632381,-3.769247434666536,-4.131103605438934,-5.986419925336914,-4.503784116824669
-1.408691494202927,6.018595446612247,-10.505320636300358,0.3678393445322652,-0.4504460736963662,1.8312017046236684,-4.221770854645461,-0.811574400414337,4.40516657942432,-2.258016105433072,-5.627585803595487,-5.950930705725933,-5.01687307219126,-4.550397942816355
8.783761605483784,10.301146464340825,0.089680390082523,3.1933914997523645,-0.4211968809070558,1.7473729810096783,-4.934317129449507,-4.437562104571278,1.5263441790469727,-1.957816612743967,-6.870149627422061,-6.897292681574671,-0.9976866630034796,-1.6024799408314934
14.484464200803163,12.704002294868042,5.528843653388882,5.198443191225684,0.3506420437279445,1.1467614559427604,-2.051980857424155,-5.504506400744866,-1.8777785402211575,-2.8918692538290287,-6.61688651788203,-6.811240221926113,3.6498033532284992,3.602056323251908
9.177679678958858,13.452870447735362,4.900420317621832,6.811273442763846,1.497526234456295,0.1230226419551314,2.264850758451793,-3.11829287164349,-3.92470234891681,-4.339346468937862,-5.238630472636501,-5.621752086641152,6.071141188351611,8.769515908858494
1.8247870210642,12.967924521929072,5.579861614153958,8.373217460828894,2.643531112344704,-0.3161441936497205,5.2373203658629,1.3748719638299036,-3.9595767479511608,-5.255383678350938,-3.8250580642716727,-3.611983438651137,5.4661330315949215,11.62266471802218
-5.672880255935938,10.379127700937648,5.107144742731194,9.349514739266734,3.457369039433757,-0.189534581754748,5.639562223087893,5.127085855704365,-2.669648761545446,-4.931552514543938,-3.15235448124713,-1.531839558910974,3.6159332887478826,11.533442400619208
-9.275615043488768,9.776689109352624,5.330436447617916,9.544825747531094,3.6119076463505735,-0.0119571635999649,4.244971967350949,5.570214686628091,-1.35275116780916,-3.569822192599588,-3.216499196022724,-0.305697714887998,2.9398503953218835,9.84742123650804
-4.785958641153788,11.213749550886671,7.065549172308186,8.749578112975087,2.915202277465226,0.4400833922896645,2.56175070719668,2.194390583867289,-0.9566958566757648,-2.276461756992944,-3.607447066714855,-0.4026115215539221,4.045934059279276,8.659294613986361
0.3085997296486186,12.119364373648994,8.8716063279989,7.014074481780341,1.576672386242251,-0.1353625424804372,1.4409993441344398,-2.8861190264678958,-1.5013126298692328,-2.2591614439220398,-4.037887197901057,-1.3123614160545287,5.281443423561342,9.141244005810703
3.807055196850224,13.367455261795437,11.471265703614431,4.144528780600781,0.2652086075510453,-1.8902294472973369,0.8794346326923517,-6.143356404076002,-2.181509569060154,-3.7058024928937527,-4.303294921799363,-1.6412521535742712,4.759187973215205,10.856956865228796
4.239270234726089,12.812225807985689,11.313992805853184,2.1714333989225123,-0.2713232128383822,-2.314034972482003,0.7774798967855645,-4.991957884437994,-2.0379654921496524,-5.308401245712133,-3.8334451717065576,0.051101430340168,2.7546434787916496,12.521006593200042
0.3309892145489823,10.011921556090783,8.079503738239888,1.197748733504575,0.2049505103356637,-1.5902472795912683,1.3953024104845326,0.2848392890574303,-0.7410277858487575,-5.046798273908109,-1.6899695932004306,4.152383455754006,1.8805454850562453,13.327580264086237
-3.050356048750821,7.8782613061149025,3.0909319289463557,0.227753641125031,1.1579341463018125,-0.1422259635298716,2.850602513162869,6.514255456008442,1.0727125285281431,-1.7878231267640956,2.564500114684506,9.437149249051288,4.637282775206415,13.539635096788372
-4.721357737240281,5.896804848396815,-4.661717538552599,-0.2212042271929327,1.6451222741793572,2.57960636979157,4.373542301608325,9.726052175950656,2.2102014069044174,3.583707847724668,7.854287130450587,13.561181615570549,10.638617574673106,13.860638277551487
-3.9221424432153578,4.656063756612624,-8.298440902814265,-0.5712387886481552,1.049639750200896,3.095413383225494,4.489489407823584,7.949018521156773,1.836594241674504,8.54187083359625,11.688047030113722,14.390057005343664,16.304006075126694,14.340152316650432
-0.3335704875462195,4.720314099287292,-7.33038520451761,-0.8455364565103813,-0.449609256893126,1.2331608670347245,2.269863354549443,2.6132162702781443,0.2014265472803913,10.62170246977064,11.728312724827134,11.293647343544023,17.54276845846252,13.983680216357698
1.5374784111108315,3.791935599433044,-8.202682642426144,-0.7607251953429869,-2.0634230877518576,-0.4396451539663962,-1.54252104671923,-2.59462536548466,-1.4519173679670416,9.135241816467726,7.6819511223730785,5.5104246675466015,13.131122681044276,11.505636780662712
2.385866791368067,2.0978077941111697,-9.414930261010374,-0.3955653710990568,-3.0213643141900945,-2.7084770278946104,-4.792168494462601,-4.571207026853614,-1.7917825289066798,5.574104983717689,1.8181654227209665,-0.658031397068072,5.815881384594462,6.560739646492607
2.524106908958459,0.7411306277529273,-9.27795950432508,-0.2977229574795926,-3.051798533791981,-3.2377728225618387,-5.472180280354337,-3.0285782442988136,-0.4161645782865264,2.460382788408168,-2.494060530168525,-5.210116951128441,0.2257289938712574,0.3542891280332298
1.0909000591849525,-0.6542116964426461,-8.549062206912764,-0.4900036647226337,-2.348247999652898,-1.5222341140683524,-3.1929854160325988,-0.2625036275023547,1.851506862486474,1.601063479097064,-3.129168619634612,-7.392184852636433,-0.5801234446698516,-4.923815854068579
2.0033224264767826,-1.5502996110563911,-4.082243433820096,-0.5611176461356957,-1.2292330377908058,-0.332442430846788,0.7228681860327697,1.2689271964125908,3.617069555042832,3.0099377198040718,-0.6068470421492123,-7.675556928832805,2.8595213279611755,-7.444470157843142
3.489028281054574,-1.7861316937989071,4.557638403491541,-0.639109308427261,0.0276316259071052,0.954153712437674,4.425320722863887,1.2873302893965786,3.94088410562145,5.097201857022014,2.430765089096724,-7.021498656062676,7.140014358911458,-6.895455092929495
3.414472146607736,-2.08722474714077,8.876394882176063,-0.7155078036732695,1.0339895799154988,1.3557801332386108,6.763102030078926,1.7178065936207076,2.881098778328038,5.8155200986443845,3.1368072241913865,-6.175683380566369,8.559957140627006,-4.635387658793434
2.687161690694928,-2.3027211494183684,9.096238941732548,-0.7480545908371543,1.2075668386457323,0.3718863468441578,7.538368348512336,4.3394067828407685,1.2030840841846668,3.985211869517258,0.3571634389757321,-5.496263580729732,5.493508735105593,-2.7266738467901632
-0.5874877048678232,-2.883292664635064,8.513111146281302,-1.868734507130718,0.1575903437055785,-0.6409833978497157,6.96198885938847,8.375896038449895,-0.3290766127723259,0.0911298420415107,-4.670650403098222,-5.168673773804329,-0.8560991756138776,-2.502319604208793
-4.835042348857436,-3.9855607292146913,5.228399744669826,-4.173474982229176,-1.688525561647083,-2.0756598126503176,5.241570176183927,10.576613750424857,-1.374912772873472,-3.84956303688233,-9.112191928246489,-5.307663214771594,-7.393348347471431,-3.694756702118383
-6.537540045199081,-4.629985552386189,3.979261594054622,-5.299383462116082,-2.990310547045283,-2.582751527785886,2.7968694993391523,8.030437544936476,-1.8816931694830716,-5.377629084589387,-10.27674435590106,-5.740495765836641,-10.923797260112876,-4.807736741218292
-5.648715148024822,-4.9246480891800894,5.105967542659504,-5.373798847317467,-2.3800422560941854,-1.8896033164605768,0.6006099492925614,1.204677738273233,-1.771770596215248,-3.1811224354887315,-7.297261258080383,-5.825462614801864,-9.839974391983104,-4.472596930018739
-3.1791502142974664,-3.755995695583105,6.426129018780591,-2.869837667770682,0.2589449322467345,-0.5277179188438428,-0.1545458345090651,-5.801189132045238,-0.9861283252500072,1.760301245743193,-1.7454011458373202,-4.783780794327413,-4.974488518091306,-2.673215822120796
-0.2004658171391836,-0.8032639422513346,9.151728704169864,2.955973898856435,3.363624840308532,1.9644522956425063,0.9430344873101576,-8.366808554187884,0.1050247051681623,6.43491700164995,3.304181575248606,-2.472181208813112,0.7971209463779587,-0.7500667518870188
1.6079311612761231,0.1899964777650428,10.304175437309024,5.365268943440981,4.754017944586707,3.205992640605807,2.852282084331904,-5.215648435506537,0.5259809042652535,7.616583392434734,5.298949536554105,0.1500752926639563,4.1437194929659285,-0.131478019559708
1.3430982601994204,-0.6709591808626172,9.67109076793496,4.511277688221577,3.414073168678001,3.0783983742098924,3.687027113544232,0.4716887041753921,-0.7080702222846895,4.165765177082918,3.9981529375191087,1.5691189336520637,3.292117963931844,-0.9322045627489216
0.5493136274530822,-2.436961722660977,7.076828991832073,1.1295453372712412,0.4077041934091454,2.355266022095201,2.3359185662193624,3.804420172516302,-3.501180190662822,-1.896819294608136,1.6671281530398403,1.0833129875406655,-0.7990943620438173,-1.752857824545444
0.5178483484541424,-5.986473369315829,1.601739419795818,-6.474323637997531,-1.9458433278657596,0.4014599632914117,-0.3572010652348041,2.366351539150955,-6.145960079216707,-6.548825915958048,1.3755842653813914,-0.1936002308043782,-5.042742825912754,-0.9391522869600096
0.4915265906339892,-6.981324461893089,-1.9100569514681771,-9.48993652539856,-1.9217607004702373,-0.3997223431161247,-2.124039990056559,-1.9171928958060749,-6.197061028439414,-6.498843406307309,4.580747619713812,0.1357181886693865,-6.34612192301514,1.8116831947351315
1.4190668544846363,-5.204689540200717,-3.543534068282668,-7.763253944342914,0.3545318347770347,0.046521394791535,-1.2433253587578363,-4.817774658193429,-2.3762028900950227,-1.5374345051327225,9.868242862700612,3.7674356379983536,-3.790815190448996,4.969477120836039
4.546239730231478,-3.732399083746844,-3.871774424901426,-5.022689015012206,3.224499114499196,0.8636208230183825,1.7739885993604505,-3.7194025375692448,4.010208206651065,5.251932714402607,13.916243666212068,9.80979170359705,0.7467411773658483,6.281668934012259
7.791559061096588,-1.579921559017106,-1.6846172742687318,0.8312880235127799,4.886024185413078,2.655277888906919,4.387469269844704,0.228117696792971,9.524527498953203,9.585858070869556,13.972042935469576,14.790012763709342,3.9911370099079377,4.514201989767223
8.720468893925146,-2.0862589317869085,-3.473467011660358,1.5031920793745763,4.525291051967741,2.234460588753862,4.02556773244892,3.494603163150142,10.821176227505164,8.817791877303598,9.840955105969908,14.901362133331691,3.579144454672548,0.330207162469506
6.182876263928929,-5.887109470043491,-9.381092332817955,-3.7030242719669055,2.384208535095551,-0.6242893389937567,0.1269429369245269,3.469097165764703,6.986587918636683,3.483514885531928,3.7631877138984535,8.851896907021178,-0.4674143698687132,-4.383356244118316
-0.4452944773084021,-9.112433539136706,-16.876400283887282,-9.361829698938216,-0.8765768778657677,-4.080857516472598,-5.531632785892736,0.4632612510211906,0.1768870572986731,-3.3922741800108094,-1.622685235778122,-1.0248698157933038,-6.079974782121443,-8.058434840635163
-8.992360779578378,-12.618529537585896,-27.54698716538361,-17.544003092156117,-4.609060055885548,-8.941367004874309,-10.342412192626997,-3.1707227849084405,-5.879340375725709,-8.476502261248337,-5.336062423865592,-10.372211756434472,-10.776183501193998,-10.47566627384334
-13.091218975541064,-13.75223341395362,-29.57022946604952,-19.290334832843165,-8.025052451077643,-9.885684628091411,-12.702474395825687,-5.442381725548585,-8.276758712775308,-10.097190838325696,-8.268207878606313,-15.81374095446658,-13.17240496765754,-12.448101609171562
-10.760895293473604,-11.671611162707462,-21.930665381452734,-13.368552968406624,-9.969873870011812,-6.3197455185440585,-12.616532042305954,-6.06448434584223,-6.487376664588341,-8.747606542713207,-11.506722469573646,-16.90562789115459,-13.34384781604949,-14.602865798372015
-6.191788028729103,-10.56082061674348,-13.66013270961842,-7.410008735584458,-9.312227583668438,-2.746219441273833,-10.91859466463616,-5.705435770368176,-2.241104603265022,-6.15683777540476,-14.603952857029173,-15.621677354775072,-12.152705121544876,-16.52982149657454
-1.2793271495073468,-9.664913261148156,-1.863140740383199,0.922508507442692,-5.889199265867422,2.166710092897369,-8.266250778710663,-4.52496326668653,1.8047252296305736,-3.937659221470959,-15.663834521236854,-14.1538336895558,-10.437062965488575,-17.16723418229066
1.603379850796805,-8.37837367931771,3.892215496689862,4.279069539409503,-1.1016159959062648,4.159971172052027,-4.954969442183412,-1.9509087473130364,3.5653501811186885,-2.804069156384813,-13.21794002104475,-13.115655210138655,-8.723067336752287,-16.015240557640738
1.108686480917889,-7.344215584995134,1.7836259715407374,1.1504174001916447,2.676594840503874,2.3180181171486587,-1.4221839926492237,2.0582108965017056,2.4399945011708724,-2.6108277492532324,-7.949551563269807,-11.554681163690963,-7.34574620100463,-13.844099190705492
0.7575293392780948,-4.863366720642143,3.32811836245732,-0.2191869415830268,3.6583084164808497,1.6534191249188634,1.4937551361424397,5.951326614291574,-0.5907863971827112,-2.820145374407673,-2.431920734218181,-8.365879257621238,-6.473414859750463,-11.995155436933707
3.465123396408309,-0.9229536367129224,6.118923413970815,-1.7978021734504088,1.9333609011993855,1.0255506521422293,3.0398673665879627,7.320689005130973,-3.6033981943363775,-2.931987512621589,0.9139033769950444,-3.5558582809294137,-5.898744150160049,-10.846941483131124
6.032069681463272,1.843599321417397,8.546024569635438,-1.0765550106178912,-0.6598678837538614,1.1269484505100855,3.2460880407006343,5.008021032446557,-4.845133590209983,-2.7130422197408564,1.6347291850464245,1.732210108545999,-4.997366186826,-9.074449623429295
6.757336528603667,3.619983132127779,12.220451967227572,3.3253781058496883,-2.009245423933549,2.743451387240029,2.960436959053766,0.4695136268092881,-3.78015672285629,-2.255064816052908,1.1671018337085428,6.182687774189915,-3.185359559792936,-4.745790566106621
7.76254457037066,5.66376980084772,14.170273756275485,6.128273317294989,-1.2782334037862313,3.451496835061552,3.097623252732234,-3.1590349045807216,-1.3633290374971878,-1.853460466062536,1.218775300229531,9.20389664062884,-0.5517049003755901,2.531967768372162
5.409814294102365,7.470464739922608,14.445707861057524,8.190008769245654,0.7522539813944178,3.591764247485873,3.88798465296275,-3.5857482132818888,0.7671292071783,-1.6928088171535478,2.40268451981305,11.034979898552251,2.059105517662374,10.483707008172471
1.0359559289698463,7.921705401665974,13.516734638131556,8.538539362391223,2.661767086981925,3.540029510160226,4.898915685386768,-1.1541086913167362,1.6119292426524083,-1.5332890520883922,4.2975179170165205,12.217369237243991,3.7597069790927975,15.406074940901988
-1.5937687047990188,6.9761420021916205,10.700151746159603,6.144399658022029,3.6357163375817407,2.8850412611110885,5.682118257516379,1.7030760705773105,1.5247017424434972,-0.7587424742005169,6.3457053712318015,13.047350068532223,4.454737953125402,14.936863029270086
-4.106932600391826,5.678995604843671,5.912803580249557,4.685089642118959,3.870050513774231,3.0444750391573905,6.18865833173632,2.684496315823324,1.656086712230021,1.0793745924314777,8.226693898709186,13.39701464280121,4.863258590548568,9.9586573705472
-5.469808550938921,3.777098418313073,-1.1092718420645702,3.718576733354849,3.99491563470211,4.050868977695391,6.439126815807242,1.3636183866176737,2.655495132955707,3.6251807157356666,9.355506762031226,12.855428932887705,5.632064067179755,3.926641840297052
-4.288762505688284,3.3377473598436294,-4.768655297091254,3.4003654608074125,4.278365466638093,4.396560353529777,5.93694329654663,-0.9869518543367805,3.917971352329943,5.662408569866258,8.550912992153357,10.996323627598612,6.511611246456283,0.2339963293784706
-2.926220038290821,4.720870935041869,-4.694514429802176,4.479405449382821,4.3720796750216095,4.32399493791984,3.762048162418139,-2.920637178506169,4.161529476469411,5.89765846838894,4.86018404482391,7.694543893118322,6.604274838918997,-0.0551862117418693
-3.766543762515621,4.749281487355911,-5.353817849820879,3.77925802045488,3.6785058184854895,2.446513480453292,-0.4362634371741762,-3.953234654716709,2.787086751638725,4.032591331151721,-0.9944609717568796,3.432165642006993,5.523018299643496,1.7020938192725763
-4.36106434410925,3.869943235105079,-5.435607675094351,1.4234403805360052,1.890335748924386,-1.6620976998271868,-5.483666150205551,-4.336748999187861,0.6445336116588294,1.176480595620589,-6.232873157494097,-0.6312105663770495,4.168404492812528,3.4965307380302875
-3.6676310932684175,4.0818413126874455,-4.309726888883789,1.5633059283158883,-0.7014780367787239,-3.5388959981547714,-8.967628712176975,-4.149747179488188,-0.6284423492185454,-0.8623584645315958,-7.632764206007735,-3.0854306400921843,4.087573337739002,4.410605275566809
-1.7627634797646985,4.970260231176373,-2.400608061161805,3.8393184154493385,-3.2312262178930524,-3.345719685325807,-8.89431067588555,-3.034317883343789,-0.1169079142583626,-0.8886959765007987,-4.0493307618281165,-3.1050635091686445,5.885060855236389,4.860543004305896
2.4412881982973698,6.365820426313145,1.3501277205730895,7.508995347615441,-4.582768545176492,-1.9112169398524028,-5.402480757955246,-0.9223445141346928,1.4667224913510497,0.836556111196316,2.424645441230439,-1.1088394955646947,8.324738512616022,5.581680576710411
6.445497310190204,8.596307859635068,7.046564677496949,13.461970350696316,-3.966426195920306,1.8203168371137584,-0.9200083677727378,1.2709385518969754,2.3968666715293523,2.902441255688764,7.890449262276206,1.4096619640999108,9.240923037740105,6.738509382591772
7.0685371688996055,9.040215914446978,9.341694444447851,15.194451257547644,-1.5122961580411172,2.5867986202139197,1.5743014758919711,2.093740675082444,1.5340192378540607,3.906698971039496,9.578803295787466,2.927225727703572,7.573075416226217,8.042089172802697
4.967102871193704,7.548028363084174,8.022104700611218,12.319400617460673,1.610284923018547,0.2086220427298826,0.7886745204352934,0.9318363207146448,-0.5878646292687435,3.490537533900664,7.819408418044034,3.0413811010914387,4.576991938307039,9.405805814241084
2.9404256454758486,7.049699072728746,7.750879165081996,9.738254352209148,3.873612147400969,-1.97570497693054,-2.0534628196610853,-1.1184093293491344,-2.219992599560385,2.455155217758765,5.430384439107058,2.72980682013457,2.908162969480159,11.081935148101628
1.0909958775248023,7.040666883125741,7.389973022280111,5.949862593621502,4.493619621591833,-5.153670976687382,-4.462351128953969,-1.9695133268495368,-1.993135339654167,1.9766645956048592,5.163809908725618,3.415838560978401,4.2720613091244175,12.999069640335314
-0.0818143421449844,6.079663121707619,5.522691108752204,3.4052438821015456,3.99172671848374,-5.665833250743248,-4.82425854424536,-0.3525507290985885,-0.1678376090818645,2.63443604768311,7.423153096513047,5.591059479804152,7.762810759543868,14.172423255594625
-0.2567369940884461,4.546232124508722,2.653422276774117,2.858732940876049,3.5869053631148877,-2.883808213376868,-3.540265206631652,2.944890421618318,1.6190215410728612,4.009572485495482,10.068005875906104,8.185817387312824,10.453932528398331,13.167008913832625
-1.477145200190607,1.803217429933142,-1.5337896292297712,1.1147088665153433,3.901583687908051,-1.444381670778418,-2.3157012410920075,5.576516844373479,1.862806594319906,5.066532544027609,10.25968777154226,9.247852461665076,9.767077603753537,9.443648749655914
-3.094085310495337,-2.426322831415291,-7.233863564165089,-1.106501649913911,4.239218274531339,-0.4937263210648654,-2.480530716164637,5.425002393470571,0.5326585621381383,4.935276497547051,6.68714864156253,7.348597631041265,5.536386932438731,4.248572367500508
-3.192741287546095,-5.682174204485182,-10.135068008165328,-3.6657609766671104,3.208465015044503,-0.9084145163795332,-3.948182833213906,2.1465885749639284,-1.0053823055872115,3.5069866151873086,0.4266153576507463,2.555510538430738,-0.0134606788370845,-0.1055184634652164
-2.7910034165413014,-8.030465564449306,-9.970256891517858,-7.000345978299197,0.1276211315276043,-3.5645116875488982,-5.578667219045684,-2.6745344619927067,-1.377209341154369,1.4820206618855636,-6.013595994720184,-3.7090671862554734,-4.258494340441615,-2.190648064837412
-3.579714772106352,-11.270588475770202,-12.082528868350542,-11.705509646514392,-4.176066163903972,-4.187814424226376,-6.301875910078532,-6.642014288434506,-0.5324539711356095,-0.0990927464948185,-10.475766168298826,-9.589794003565668,-6.287091515932374,-2.8742203808085023
-4.507195175249341,-14.947542426774715,-15.668005250132678,-18.019719709550017,-7.969736686832938,-3.044830410069265,-5.823529729789765,-7.951390448439174,0.2910097291673743,-0.517536043790841,-12.33951424377123,-13.63726593671812,-7.272085243227355,-4.653880041483738
-4.289467022041553,-15.137636426008088,-15.579177267198038,-19.10416713787159,-10.01584310584452,-2.602771633858869,-4.442922710901449,-6.216510082858171,-0.0653909715084886,0.1821340555725967,-12.39508066486976,-15.071296872873305,-8.890394110574253,-9.224433232526463
-2.0698741601812904,-11.685692252973055,-12.315434080730885,-14.578152555275546,-10.399813996011105,-2.107968727267289,-2.5031773982074306,-2.477830598425502,-1.36022292464596,1.2711132580577598,-11.767238417607292,-13.685885794911956,-11.341103261535029,-15.37684404184609
1.628913056945619,-7.426264006064106,-6.777997691444106,-8.293561842490618,-10.038967293095112,-3.2489543962719525,-0.1880497927677211,1.4240259695147337,-2.0595846363059174,1.9169176975213416,-10.847460495641442,-9.825875231418085,-12.811474407946982,-19.298565381867597
5.092653483349899,-1.4401641053211147,2.1376163169534457,1.479176602081358,-9.471277910670882,-6.474582552499142,2.2583106338793435,3.81101344468798,-0.8613558672504631,1.8518622340466384,-9.015827716833291,-4.451776432946218,-10.890563543158075,-17.33866502232133
5.83710118218814,2.2395398236531894,6.229024417519925,6.001014156444836,-8.212605989993696,-6.5955609568724505,4.379753170766002,4.067964177693515,1.827277140820428,1.5481557790879243,-5.299844748860892,1.0649984709688525,-4.71776702848824,-9.064170235510552
4.053603756145083,2.9333395439942054,5.005890064852617,4.295010606753759,-5.351104932424552,-3.773106345802229,5.73660679024484,2.9419384656965093,3.9676789068528464,1.6547169478356976,0.5072910521406788,5.524382559547156,3.923155510839108,1.9681406679394584
4.159158238671966,7.329155273521679,7.040920063741418,5.702744752413404,-0.7823757666766937,-0.0139288538193251,6.235777845227203,1.8921172965415969,3.569229129592495,2.142020131317264,7.07209957012165,8.394148782832788,11.422946807711412,10.430925083055316
6.416328100251333,14.637896321782229,10.68496739549783,8.254777752269483,4.17726983754335,5.819641564065655,6.113448282398329,1.841773063052516,0.4478188872576913,2.021744208670404,11.777106887247164,9.677453623309084,14.435451992472055,12.67034273055073
7.503784001612196,16.937313817676063,11.831051637090116,8.849546793622807,7.497524516108537,8.180458908167067,5.60082479734709,2.35980956510803,-3.57256398571489,0.1106388410453602,12.100402138213258,9.294451573001076,11.774621733523194,8.734080625194167
4.885616006578369,14.80819325895738,11.499979361151928,8.622140391811163,7.923864414922637,6.575627300955363,4.768171021536862,2.1321199608276817,-6.173458477269585,-3.695104425422276,7.363936157379315,6.808515576280059,4.977494940434738,1.721409478657861
-0.5930114565271052,9.055830811950992,7.744278387211819,4.849755579025003,5.965236940806044,5.3408669534943565,3.8126093561005696,0.4508079113782157,-6.319904591727011,-7.830477941964276,-0.4231491481211913,2.060031903847875,-2.645092950092325,-4.598120357213117
-8.298381931948239,-2.165996350186916,-0.2831437227226184,-3.0618043708752007,3.5122291674737944,3.1363976704400227,3.357120897657893,-1.675905323476563,-4.707810894899277,-9.899619896963085,-7.496670810767471,-3.856114632631737,-7.810093858629034,-7.910248668366221
-12.558474866946051,-6.718490059047691,-3.501253762420632,-6.587769055695125,2.398532148718651,1.9706295121742137,4.1127243234204585,-2.085839043283782,-2.690079160968544,-8.409752813814068,-10.644659346184778,-8.563996421206925,-8.923345557654375,-7.992445740216596
-9.471557834796922,-4.152356178499582,-1.9582195022189968,-5.9017342887995206,3.089545562939783,2.480687351722402,5.969576214540263,0.5136781741389829,-0.970696811913342,-3.977146713364738,-9.293798764281634,-9.909221102200531,-6.751979181975322,-6.077182730552478
-6.244910230319517,-2.7176734849853137,-2.7188888561790248,-6.368471387501935,4.504833257955395,2.2187231640745537,7.488796988198171,4.858201385719857,0.6021084902484048,1.0190673280401406,-5.773499929261142,-7.901830681492861,-3.7622982241416594,-3.855440066699458
-3.5652454238329443,0.3154768446075881,-4.027527257345808,-6.273319580089639,4.986778224226798,1.7983515048315308,6.6922854140261805,7.596314512736793,2.160536577500089,4.017048801442495,-3.5106367209026708,-5.144439128400695,-2.495043950538424,-2.6985380779721027
-1.1689635432963787,0.2117199165014373,-4.73115435406222,-6.559080066403849,3.549800462092985,1.2689200541492445,2.790203237563606,5.902582281251,3.099388820997607,3.781535906644947,-4.535797595179474,-4.902423441327226,-3.9703729800415033,-3.1413113589561448
-0.4380777709174293,-4.254822646297522,-5.695307761966116,-7.858936060023741,0.489955409502091,0.3275829688636438,-2.7102577891787654,0.0983492925117381,2.5184653908043337,0.7959557717422392,-8.179157392181644,-8.228083040851633,-7.163900408097927,-4.63318813487885
1.6503193859314276,-6.805131109659055,-3.367074495983631,-6.887309193921623,-2.9119164262276094,-1.483648375308848,-6.8011113330935125,-6.164057580379598,0.412420457030592,-3.407692690129817,-11.7946847057234,-12.737513640990628,-9.881200747018344,-5.800883746135053
6.348463721909935,-8.695866534048223,2.5300538203767773,-3.852938420161721,-5.192683720815321,-4.342558427068587,-7.243140263327273,-8.582171671867759,-1.805014277371086,-7.158880398654478,-12.749763087160304,-14.374842413307295,-10.338453779701442,-5.312809489341731
8.839105097049764,-9.123624049299924,3.755205864197292,-2.5624167499050454,-5.447419083707079,-5.45425362069264,-4.353980470562018,-5.588071230804729,-2.2768245781742635,-9.181168337599512,-10.113652096910576,-10.789182670666804,-8.258356427750105,-2.8566027049104967
6.799717258859221,-7.016070390993063,0.5754521303548561,-2.6333613629050943,-3.6948981409656634,-4.774952319062088,-0.6504575809237707,0.4411920018220705,-0.4088862413722154,-8.81767398183413,-4.985490470389145,-3.3642909954883464,-4.756087701106594,0.5740609557325058
5.076870469949294,-5.393972381467711,-2.391723112902286,-2.714183807123685,-0.8333133550559779,-2.9828454873365944,1.3512999801541348,5.129915338254104,2.378110065501673,-6.268140449315961,0.4429601704752031,3.906906880241728,-1.3092432396507157,3.4006135933666464
2.186837212986314,-3.788937326373657,-6.8195014720066025,-3.525925122972576,1.748388229480753,0.6536773580477218,1.1281173441000192,5.446029437448566,3.713925639938392,-2.760937784136328,4.2048419779093855,7.635323497446652,1.2169470863950345,4.597868724577392
-0.2014777012662533,-3.47285392490474,-8.035672512041716,-3.79974210996691,2.794368375719838,2.041617631898823,0.1208967425519986,1.6412408160053822,2.253013093390294,-0.2115068532762514,5.406284575722676,7.416036465072242,2.7353287465146927,4.25861364129316
0.2887595091862815,-5.108208643168242,-5.205012564681147,-3.419235907576315,1.803369621830317,0.9885602125811476,-0.1148422032770781,-3.512419724640207,-1.255297259172071,-0.2126622905663815,4.314420016319115,5.398019760268891,3.377664071496408,3.1470209208152617
-1.9984873567871944,-7.337287759679179,-5.505491494930141,-4.84398348623467,-0.6857226109100161,-0.291658542208923,0.4050453078736353,-7.076238142242971,-4.71063458513952,-2.9282766470455,1.9205179745926024,3.824661295940853,2.96555493012077,1.7699469679819089
-6.357799776430468,-10.73369578702462,-7.964904265200539,-7.937725351889945,-3.3504873496981844,-2.7963014653869718,0.3105424118903421,-7.738919576277297,-6.367494249074674,-6.777265044269679,-0.6021171108265655,3.135002821814858,1.1683560385591498,-0.07340375944392
-8.531166168496917,-11.959019894285296,-8.145011904375433,-8.654944994383456,-4.765550131902288,-3.284385567052319,-1.283652426194159,-5.921609929357999,-5.85469959751579,-9.259849995455776,-2.2634929885563366,2.338198167518698,-1.7556678725044677,-2.8158895528411385
-7.538170951868129,-10.646093938575198,-7.0111894541652005,-7.186654172264658,-4.126886577456435,-1.3784323199255577,-3.337255553458519,-2.779926543507002,-3.7858839374480766,-8.38943351039454,-2.432731702743073,0.8395622791763238,-4.468005393009147,-6.237961050775702
-3.0725695492488145,-6.698420749745302,-2.030276042619046,-2.6274202277072174,-1.6472759575884697,1.7543300890223714,-3.5275465612410883,0.6432385618570109,-0.7854447708462509,-3.799491060667979,-0.9800905325318324,-0.5695414244447932,-5.109437515049635,-9.173925432559994
4.616979318418382,1.0141641634096792,7.798577623220365,6.149001874988378,1.537845963709071,7.0730301819222685,-0.5473278546684988,3.560132103726353,2.798357991728817,3.045871513298195,1.543837083680323,-0.7341204411983213,-2.7959454202887457,-10.311015473644789
9.363026374157098,4.560260992844657,11.206677026356266,9.66053612644622,3.895893871624555,9.074332115588213,4.172516361198802,5.288404520405688,6.29536685929792,9.497588366032904,3.882851164284524,0.0669024956477706,1.1389096659688605,-9.482601901130248
7.0983280670416695,3.8120289031238497,8.27167674150434,7.818913514285423,4.246713758301231,7.42847370814378,7.188322152081357,5.377411603633849,8.297041387350811,12.871572788694984,4.511074527226118,-0.1926698748904556,3.5101214790596984,-8.171709799841498
1.712912715650388,0.4738602688153845,4.1124954149764426,3.8864856675459305,2.411789875190239,3.499445853392392,5.835546263311228,3.9874605070641778,7.391586345384219,11.710716250792826,2.532643206679424,-3.4137862253615925,1.433521113538955,-8.455915952753166
-5.591267330344039,-7.526358461383123,-3.817162846772646,-4.461438851143432,-0.6130144499165198,-4.261289495772607,0.6785072532414507,2.024099567324344,3.598886674547217,6.668243306440665,-1.505123046927599,-9.094324887468954,-5.239070477588932,-11.072136758484609
-9.652484965193084,-9.972100986343584,-5.75582142614174,-6.7383952221808,-3.1656840744859736,-7.028681174246841,-4.6385728639893085,0.7109412046485151,-1.0562344646113129,0.387572357342977,-5.652445482221658,-14.118533577218026,-13.309275779782944,-14.351600763955233
-5.51321448954923,-6.520957108138364,-0.7103195440675799,-2.279046886180285,-3.8900079316120753,-4.409784373240036,-6.15353934617514,0.8381648999460047,-3.7924346128136968,-3.9211872435216506,-7.686236363234993,-15.134842061217164,-18.254698402782687,-15.27098177883246
2.314073680449061,-2.86774872386135,3.1482471418572726,1.991670383013644,-2.559827559171282,-0.2662425994881556,-2.676958267702989,2.241557476011323,-3.26798356762333,-4.550816317445783,-6.609812275042085,-11.416732745808602,-17.438261502926743,-11.983991289096451
11.193100515126432,3.369459106606961,8.168510542466308,8.577412330960678,-0.1666986008837554,7.634840555695424,3.354081454196905,3.9042715509903614,-0.710276578743386,-2.497697643665738,-3.3287817742415857,-5.51000364913758,-11.899008724658817,-5.640813813421968
15.075808808966844,4.92828276621901,8.517833260856955,9.9687822381719,1.8012121749074286,10.186698505889929,7.891671555835339,4.642264361207811,1.187266470192938,-0.5995318990518363,0.1176415202994398,-1.0351161168699274,-5.25970338251279,0.2929979178127038
9.439764615216722,0.8367029272149766,2.6871248399378147,4.907274822729754,2.350307241328986,6.659427995588151,8.403431164479745,3.942584600482128,0.6853338847517536,-1.0553455224894108,2.170633759041211,0.331557619393898,-0.7714743096677976,2.801558663258387
-0.2713477880886643,-1.375086138635445,-2.3386893189693985,0.8849030031795232,1.5313279295286106,3.267614937137247,5.5573422936170935,2.368914446953756,-1.4525672519121535,-3.3872303571932143,2.859281328392737,0.0002268190344141,0.9420865273067882,1.7834813546263977
-11.037630602867026,-3.41560425138131,-8.23071525336925,-4.037921654153816,0.2228906156660537,-2.2192306859348694,2.268629958604082,1.1426688390245507,-2.6915569568830517,-4.797179097460085,3.490454625192596,0.8734101148587943,1.6803213865929472,0.0387476200345879
-15.938661036472144,-2.15975442103005,-9.457523707610058,-4.7259628649995005,-0.5862780900143645,-3.78103997960664,1.1249799213200675,1.074058868410654,-1.0780418856590974,-2.819754420035986,5.270233213046066,4.612502738286284,3.529884694244987,0.8332177365135589
-11.051568329322318,3.808988461819385,-4.511345523771659,0.2885278135038626,-0.4494082219423752,-0.3592014206474108,2.391057232548347,1.6596514924237646,2.869571744415309,2.071331366643356,8.133604602346482,10.187579818268166,6.908445327618948,5.230086693982296
-4.144295396456511,8.086682572972697,-0.1113056446457597,4.251538471742737,0.3730560760110111,1.2527356338535485,4.106140572128729,1.2691272708874448,6.380329152517128,6.446938235478963,10.812809017978926,14.789430461842764,10.43531552023661,11.426248315105337
2.148008226166278,11.620785050653474,5.386914078509785,8.657395532756327,1.2677121842162091,2.546706053618688,3.967363809077924,-1.444648523702062,6.5946306108185535,6.778213707494653,12.01294984054946,16.11879682739898,12.444256451935887,16.40922530318879
5.078111088120012,13.79047659802464,8.832018153023306,10.68322849848582,1.8322267858913128,1.7231614793913514,1.300051521647852,-5.974556206017031,2.906619439236021,2.706969070139412,11.568031904976383,14.09462419849471,12.573803146310038,18.28347282495129
2.019186177791746,13.339568272004149,9.020508938414077,9.062164809033844,2.222364634159368,-2.410722463006357,-2.4812290116099405,-9.748825847222935,-2.409145651065721,-2.312391694909881,10.523064705186584,10.738434311894094,12.052032620850522,17.342991431749734
-0.2850935848118204,14.318905553081704,10.661460427238309,8.935830255124495,2.998761453356695,-4.242534019157051,-5.141293124073506,-9.829915294745156,-5.812640207238143,-3.7679335756507752,10.12396201379626,8.541908909473506,12.592892392464814,15.342578411108542
0.8278458538817661,16.298299148344345,12.744148676082286,9.387180187989872,4.543569690580967,-4.311454236682273,-5.414073139586715,-5.326437686030123,-5.117004680964965,0.098375711394794,10.7038617817331,8.694510162097567,14.950979271391803,13.948866077465649
2.5460891630911924,17.0380574281083,13.078650658306398,9.57188049377343,6.494588851482508,-3.147736750878143,-3.798261005030304,1.573496945583441,-1.0734994388315866,6.800498972672208,11.49981478244147,10.461976803294323,18.30043546488722,13.725539000866856
4.888130422382609,17.14172554456782,12.129748104124085,10.265162127083745,7.740528167457137,0.4072587642481839,-1.834862193171995,7.037299778235,3.313315645840982,11.757707435642413,11.501008868699316,12.016459945042596,20.842753670840345,14.210088078224048
6.872668216722698,15.913025017579988,10.862614502996228,9.446346624797185,7.141589313957239,1.8065863253255556,-0.6886597474125074,8.422472490514098,5.163520452454888,12.131856435106483,10.4418972978989,11.941551247441712,21.111600238690706,14.644569572150932
5.828752798695161,12.97595900477592,8.980394537422658,7.070363675042191,4.495334662614518,1.0693694428525318,-0.3577637425468154,6.105509041715384,3.842548942828365,8.939645297809136,8.964530914919381,10.215085784856232,18.976890855557187,14.58265436689844
3.0114894300778774,10.377953549501674,7.099127439498556,5.018781064981382,0.9202782244531712,0.158664271104457,-0.1077148623663601,2.741696660022125,1.125533406758528,5.688674483809573,7.835655472160532,7.953445970920649,15.60589866751516,13.96369741722075
0.4496737832496451,7.947602947853819,5.405255075991184,2.9279509172165925,-1.8001560248147142,-1.9357534529876852,0.4699117078071255,0.7183031051586539,-0.5878571149978944,4.967310383983274,7.033085680716596,6.21019647496537,12.4323372288899,12.807805664013744
-2.778549331631224,5.57385692180836,1.9004290221391051,1.3808932841276649,-2.500702003836845,-1.834231710755704,0.8853049830038655,0.1925290109200172,-0.336328781356725,6.165023041817842,5.611404174164715,4.895818410910741,9.973317493494424,10.94980259581735
-5.706923767471155,3.705015738016163,-3.355421077816916,0.7563684336599358,-1.5177624637930105,0.7869170098297584,0.1894772738618435,-0.5355795989334418,0.855131835023256,6.294772984928268,2.4800499583263704,2.803029449890324,7.496749403951743,8.105389806125016
-5.615943869766669,2.764897169961777,-5.45630911461273,-0.0538875042954193,-0.4011543319355706,1.7055616006358,-2.071172205991152,-2.8570214216231484,1.239486698767445,2.9836790582487662,-2.600105760514918,-1.2008285359386264,3.861361481743697,4.240390743101177
-4.139829370664849,3.013745408222194,-4.415505678580149,-0.8009837519051156,-0.6419004712236251,1.5740391811414705,-5.313018956773521,-6.139947802058991,0.0692677289813126,-3.1793077830247665,-8.604287875273943,-6.792807721214934,-1.167747069909037,-0.0493128256154289
-4.271386605044421,1.858855280743625,-3.356251339628234,-2.875111435252178,-2.447390876933504,0.0405396439034979,-8.229486772953416,-8.172729145276573,-1.836982539927778,-8.994062560205846,-13.64135555013581,-11.87477000731,-6.295859862262045,-3.498417144957612
-4.367781513602216,-0.6786158390910653,-1.2275536019895588,-6.5711203117455295,-4.570754288285679,-3.7295121591680616,-9.60215259988374,-7.271645116500564,-3.036563517548652,-11.237384101746889,-15.804554357494847,-13.762308474622618,-9.388274503223286,-4.641013930079888
-4.004825756063468,-1.3379840962978262,-0.8997273416739001,-7.082822633405101,-5.329738091950556,-4.3854233067768735,-8.919809117044288,-3.9301537045679016,-2.826623910482313,-9.129017551201263,-14.011891774812588,-11.07227573940737,-8.97899150685072,-2.617104334987061
-2.7893340350187725,-0.487448681023269,-2.946217423045318,-4.462499812717834,-3.9754964495020246,-1.9211827490659132,-6.451911710792757,-0.4121356381906782,-1.7127009700144065,-4.634085645137185,-8.571049474767971,-4.846411132221696,-5.399111498364236,2.1636825710298844
1.5270381141905345,2.188544613114689,-3.574656287392702,-0.199544496624315,-1.301237440465627,0.6539147150430034,-2.9402978376830244,1.241556891412845,-0.699256394191794,-0.6009689334596136,-1.2786074733705313,2.01289551108737,-0.6314520775531403,8.015885359027049
