AF3,F7,F3,FC5,T7,P7,O1,O2,P8,T8,FC6,F4,F8,AF4
0.3254094326388059,15.874407971555604,10.364084841621333,-1.7651285882479597,-0.1942610925835985,-1.523623159653947,0.2478482766305157,-3.867870743118048,2.312565508389934,4.166872650761119,10.249043332222229,3.2984125388630585,-0.1613995961989116,3.955534886912545
-5.127638787459287,11.045605466802463,9.966103900153191,0.7643979473410747,-0.7824631903365111,-1.2912506366654082,-2.2923195844627284,-6.291525668635003,0.0638689470676041,5.083268468974828,3.4824251727340094,-0.4748364537692229,1.123084706499876,16.25192759515715
-14.143363204627724,5.42994467727142,5.51084543615989,4.050608185720381,-1.7677585878423556,-2.126201512904653,-4.795865429985531,-9.192711193778091,-2.7943714786042744,4.50669766586771,-8.259495961567946,-6.291047720745873,7.311047839761241,24.037859042678846
-16.447785281074314,1.127410914302125,-0.6103308328560888,4.932317732418699,-2.3689389721445004,-3.2787896463264645,-8.215868373588107,-9.47820263387409,-4.881860573661447,2.240710141567315,-11.19629472024002,-5.251372720481263,8.655772800418791,20.331054749703124
-8.617079549395918,-0.4952834886544872,-4.705830426945038,2.1040590933124133,-2.1017071675166785,-3.4992598095314515,-7.927138328281629,-6.364821755500346,-5.13074722818302,-0.7306906078865731,-4.186677306598049,2.654492994420101,2.1910563385927144,7.363720107784452
0.5144060931177259,0.1648031547243134,-4.141538911738234,-2.672400474755632,-1.2135001182849137,-2.303155976533853,-6.6695361892782055,-3.5251583199761907,-3.5582048595074784,-2.8274422558272256,3.2342552866964427,11.50363813687575,-0.2573801245073055,-3.9248067059298783
10.95572647117622,0.983160940394172,0.8742520555804649,-6.027767144461724,-0.5613995157006961,-0.5430302784818368,-4.103754646716912,-0.0618852701042842,-1.249119430960743,-2.982154225415853,14.49438855940474,27.345500883516205,-8.794489691505287,-3.196327574908995
13.784391120218045,-0.284712938091531,7.442562367527509,-5.718327895206794,-0.9884409003056018,0.3759347602980494,-0.0725330489225497,1.4514035684321664,0.5747603637379672,-1.2621910559822842,17.242670658698515,30.52369265065465,-13.063494012303073,9.194785704425568
6.696248241277567,-3.8549931239347135,11.871956134306815,-2.1839981443354497,-2.6459302012691266,-0.1193890979518341,-1.5588879500088813,0.26657973867439,1.5462604901725152,1.426405221622534,9.538484447435843,21.217093363366665,-8.259273604628273,21.16290819444699
5.912901091669122,-7.241263898140866,11.80398245627998,2.209443813679736,-4.773949129592365,-1.207642661850537,-6.108058874305711,0.341832374677884,2.2023370885625653,4.039547158271011,3.625904650755996,14.226477954651877,-8.835106126561108,18.94351935627776
7.649083918725231,-7.136277746244748,7.123948941062495,5.153361126389395,-6.157408008742145,-1.5317735011015992,-10.855245475657142,0.9766795699957224,3.0521673216766656,5.741560421205158,-3.651260797590158,-6.092103774771543,-3.465264654014966,-0.2095861357651678
7.649508511431352,-2.5796034210066523,-0.5582052662075165,5.645837767255724,-6.004005378778968,-0.605721926892195,-13.940377965533756,1.1753993159503808,3.697289670701058,5.790503672970061,-7.1862547386433535,-15.341481477188784,0.2132225641865395,-24.25399123393012
7.037610851874621,3.428108475890775,-9.001669058055803,3.746801669177629,-4.630097043289901,0.6755896531513272,-10.32967309108678,1.5127825268997817,3.0214070352989357,3.53845781535241,-4.905434343160701,-12.272646643399431,-6.002941130319785,-35.49234846301143
-4.860027905222544,5.707240237217228,-16.136094970089854,-0.1999857343635636,-3.374577069115996,0.9416396348462256,-3.81132117284912,0.0270216411950405,0.3420296088239292,-1.0402612358767902,-6.339304970664102,-19.768129975555983,-6.501088363243639,-25.053648247403697
-21.632900987143003,0.9772823478650912,-20.417924777171745,-5.623524732189673,-3.6694164499717417,-0.268858252296545,0.3694450111419786,-3.4677495885866705,-3.6129476200379873,-6.710773351913872,-9.997726230819149,-14.697266298259215,-10.223234178548598,-0.2780020584802414
-23.90465508801496,-9.12064872154324,-21.063673463918818,-11.113454226290829,-5.881546305940381,-2.048730046709377,0.902014024805077,-4.091735507761452,-6.902828279240482,-11.12160282808536,-10.562756444663428,-11.57903151367674,-15.56463382116402,21.24950073594387
-11.04342809364085,-18.79138461097045,-18.27308781334268,-14.381344165134973,-8.844374649821962,-3.0198604681284484,-1.7635421430663183,-1.972965622229198,-7.630543327052909,-12.04717648818461,-9.21729862389234,-11.824730821415615,-11.21860079185088,25.70743685735219
7.459831601754618,-22.27465917304016,-13.15988973702467,-13.569755254938787,-10.54987637191337,-2.641502036893896,-2.873662463191925,0.9592920658409224,-5.210750460518025,-8.919283954775077,-5.269140350822027,3.459579771275368,-9.987669004621823,13.178450870137056
29.047230463886518,-18.174345781943828,-7.192067486862482,-9.000177004186687,-9.548537568878777,-1.6147544323841707,0.7529891100101842,5.794817405108674,-0.6928589185759796,-3.3537289825972287,2.239801537463578,12.686537510608389,-9.274087650548076,-4.112050545362493
32.70735218523519,-10.46189516153335,-1.487771854259655,-3.5122001459464336,-5.98254078444964,-1.0382107863577883,6.005081417148994,7.241907733960682,3.958111276060293,1.8658001691069028,3.89090337890613,16.050617625731842,-5.376768510976568,-13.060792738652689
12.764251994478544,-5.387409180138448,3.389613057122581,-0.6071359741928153,-1.4509894920147886,-1.2393629501922927,9.02338738928849,4.829914346014393,6.969638057667721,4.566021343432061,-0.5989664279689063,12.930689511827818,-9.732740474285526,-10.38039062313856
-2.2323293713261303,-6.809818030480994,6.948056541447589,-1.756494965410301,2.131806648241521,-1.4889440865005792,7.90525000571966,3.2841231633351997,7.522932198933831,4.311643774727454,-4.709082773649734,-2.606530004135346,-15.234090847569666,-3.97202302942369
-17.79731369941424,-13.596855858810525,8.236191655177068,-5.262524613592518,3.7296914011103377,-0.8624847700733171,3.907796497364057,1.387049907858658,5.858045428523394,2.1157972826210667,-10.529806571897408,-17.014795146460827,-17.664125113327973,-4.678500694293624
-25.292332291802197,-20.90816802732169,6.142138091061288,-7.778455767245097,3.550206170478953,0.6674072352818496,1.5135915888261566,1.109225016224357,2.8750487321881866,-0.7618450393059213,-13.733439461313628,-25.69976862891272,-22.89062738929366,-16.07948974507088
-13.097595421406034,-24.03063348872232,0.5803958967400833,-7.158008986971607,2.505315346006319,2.054564887940863,2.266258506190618,3.264012023681806,-0.4157464517646947,-3.735577709689818,-13.249152221983827,-27.31070189401831,-23.729183053041247,-31.036126072991088
-10.130484470956194,-21.623878714118003,-6.540294621600679,-4.079192880374654,1.4213244890646148,2.134417343847006,6.455805945399192,3.5437729450063307,-3.2897686409086813,-6.814305453228442,-14.339956425964065,-23.95528376683425,-21.032686271277598,-37.64974610778437
-6.736724743347965,-16.092029821169277,-11.880535926722112,-1.096599159980553,0.665544269988986,0.7821705720169874,10.20897630172803,2.4661975837734347,-5.422070572660475,-9.879861186478852,-15.8180709554128,-21.67615342832712,-22.17770607794729,-29.56754401402372
1.575614021507015,-11.312500857043869,-12.81562341375411,-0.220990505019921,0.2796197566802862,-0.8754509968675801,10.04314204981683,2.32511765237646,-6.773522996932487,-12.259455118259751,-15.5807402586983,-20.46576665340267,-21.6144795959769,-12.19696968348884
1.895798129521842,-9.857016720958368,-9.52981084892712,-1.3862494482918208,0.2248317746411983,-1.422215633536305,8.865604468302221,2.480004375593732,-7.4013340360152835,-13.089397602252683,-14.162349469446198,-18.663691769331425,-19.49924283089766,0.3997599883646749
7.365128517895084,-11.71510903520975,-5.076130224556286,-3.06099697007795,0.4193289595508886,-0.369757060371644,4.562827957834434,3.5348940963181548,-7.323063618808919,-12.048376447237086,-12.245731352108162,-16.486656577148462,-20.13751782425599,-3.9998273104018622
12.15024767433968,-14.938421277290036,-3.0416883413428977,-4.031869502397258,0.6600647063287006,1.517098508211261,0.2939937750250161,5.854420128874429,-6.484500122250546,-9.641808024773606,-9.5609923073794,-11.859266771860431,-17.68955232345015,-25.717241813387755
8.026749836281509,-17.22832310747365,-4.696449976918863,-4.38033280352962,0.6987550330180476,3.024338612052721,0.0066244568747138,5.347693406083242,-4.8444164135102845,-6.756277589790687,-8.698011594952591,-8.784828323101308,-14.74568184045317,-51.6048010386953
3.51817981722911,-17.29540865758505,-8.153366383950347,-4.8323844677398045,0.4724041334761772,3.54948456629078,-0.8653962241711132,1.9417050644648712,-2.5649617624264884,-4.03427419661249,-9.985717240765297,-12.238200904043191,-16.292041864019854,-63.97580877388818
0.6718938082688993,-15.434218012501091,-10.318722187847918,-5.568781278430082,0.1713785777876395,3.3777370581648305,1.0237066168661348,-0.4369404381836364,-0.2016154434567081,-1.7798113977747771,-9.867407563622416,-16.820467066779322,-16.57019888329854,-53.752100869135845
-1.3290612844972127,-13.26648828368387,-9.823352631524669,-6.062237722485901,-0.0511165485299538,3.040974735064894,3.8468627844742262,-2.557395611735099,1.3413971202260768,-0.381293759582328,-8.879240239153528,-22.98060120190162,-16.879268376487325,-27.55174304574416
0.3651703756368659,-12.762825906797714,-8.195285705588688,-6.084562253041509,-0.4351850574939391,2.610895498210937,3.2569187705700937,-2.43970417981129,1.26289911880188,-0.490289442849364,-7.178614703107271,-26.326031488934177,-16.941282271191117,-2.715366603799569
2.825564143616384,-14.887125408207588,-8.20334280277939,-6.448769142454454,-1.5113565859520564,1.7555729770157074,2.597797557356963,0.7802392784062857,-0.4588351317571091,-2.391972172515075,-4.104159222101747,-22.120911109307897,-11.766926007392644,5.938711313168806
-1.0107227724719208,-18.661115039461663,-10.977982919235346,-8.255112059076238,-3.4530311538270637,0.4239540198684888,-1.0757795632835911,1.2537725786899732,-2.71706220870027,-5.063836853477211,-2.432205367533688,-17.017703998275,-5.016589016411296,-3.238486742730184
-7.272488264668537,-21.52405586039608,-14.644785950679898,-11.253115290317073,-5.511514894701923,-0.7594703770336757,-5.750482218106888,-0.6078251431306243,-3.7299105796864898,-6.150218634345472,-2.1401738694030072,-10.023970714004593,2.012787680988329,-19.270042833648223
-10.248770889855908,-21.03013403964555,-15.76317298116256,-13.273719865795904,-6.298352238370471,-0.9819404572684328,-6.377247584724674,-1.2957725507736153,-2.1614651574833794,-3.460573285769781,-1.2171124806862117,-4.583067487748355,6.735274862420429,-28.939285922911598
-8.615862284196592,-16.69713856730692,-12.2747042507989,-11.817226994496496,-4.916875144718908,-0.1345974763263562,-4.354258636473825,-1.81651733875794,1.8602123135180024,2.9792253168931007,-0.1921447005767996,-1.812421343896241,7.58389565529584,-27.203944377990524
-0.4496538025388841,-10.446149936938362,-5.336150575008215,-6.559125522693416,-1.976275810551576,0.9270588688637472,0.3867699702256933,0.4412346100589765,6.633825765419201,10.224231997039734,2.79599886563498,2.9686826763528016,7.779519258586989,-18.74498782235469
10.869352154158484,-5.151629968041595,1.5468973408204834,-0.2462927750843051,0.5957962094009597,1.1485387669117677,5.828297445194244,6.176215526359309,9.837312055693063,14.085878170037276,8.202709076860216,6.505233337197326,5.840681767267806,-10.834454992909553
15.448999340340237,-2.4614880703308977,5.305721712164107,3.247357583111766,1.0155777441181923,0.315367681608274,7.442120174056932,7.744919012522965,9.917826596211617,12.145591371343786,10.585173934449376,10.367021847512872,6.912629929564649,-5.749700599924101
9.40133612505323,-1.6831271761709008,5.646114356632479,2.200648639342722,-0.7837082604112037,-0.7354883240014148,4.844900669081887,5.4458837446008665,7.011867187372903,5.711197040338224,10.141065688151173,12.031999029673573,10.553890144852357,-0.2451891568144357
-0.4030231521193053,-0.566109630540621,5.034107288395576,-1.3037622192644482,-2.878628318165944,-0.9668252402401822,1.1126828241684534,2.7674611727523355,2.834435216276453,-0.9585978743447956,8.366299737405072,10.011345970648144,11.604377770785153,8.454360481544667
-11.24937565101252,2.809037602431289,6.430688184509715,-2.9791615684289257,-2.7421828020731627,-0.1639484379070257,-2.447668154972616,-1.8746824426475983,-0.3695907522324875,-3.616359438421332,4.020549676296476,9.382297366718412,15.622087859711106,17.435638434340913
-15.351743259110563,8.626523366844461,10.719262482544815,0.1139790032516256,0.7690412154645454,0.910038618929532,-4.1616429278486144,-2.652303600487464,-1.1650574015276225,-0.8720239064310396,4.617422500307062,9.047146258883846,19.9264181161285,19.749732435987347
-7.0493497996607015,15.40982140441161,15.957044170632924,7.131215020278874,6.418209058252486,1.3107951968843927,-2.331453155954329,1.1239463767476323,0.2867386976762049,5.177428423768876,10.651955303180054,11.68514702125844,23.494548115609657,11.62450216559436
3.2394778337401373,21.278376136221905,19.01397150504359,14.183633587465373,11.372318064846349,0.7763346079728316,0.2412076295191238,2.739443359168272,2.5380345629846546,10.776622084756047,15.395679095447862,17.760408220248767,31.32075221595884,-1.9877137136066685
12.712827305834844,25.24020750450999,18.16237479941598,17.515740062588016,13.15247913746888,-0.1866565343821542,2.0935048158206127,3.459514394874951,4.063938290447293,13.190493772930598,20.490639184035324,21.912465259078104,38.70976503538123,-9.50411612430879
15.604501545685617,27.539761932060134,14.418806698994404,16.340206965560185,11.280439293870383,-0.9323399340911324,2.9154707715215644,2.2506083035245776,4.431506826256672,12.2375294861174,20.69542819195341,23.404762496454577,41.06383479671939,-1.4722353403979405
7.548242246038594,28.969815077234536,10.555350427812664,13.015458623643193,7.456146981829537,-1.2566509801523091,0.6833763192059037,-2.125324992887764,4.425168981882093,9.818071073302749,14.54090490191238,22.575916273047568,40.57347825369215,21.14167538099188
-0.6678144058477022,29.902274276421487,8.716623020691902,10.667067119474952,4.229343377207847,-1.377181479998676,-2.5697181336180885,-3.833649285700373,5.004402571263741,8.12718899792063,11.1306307075969,18.523924962786392,37.957537642520215,46.3038185492031
-7.350476529560946,29.95395413668424,8.734721322929255,10.507461823657668,3.1962701422292423,-1.5065939251564584,-4.6447773195936,-3.2118468654819288,6.098812968164462,8.022551495926468,9.167834458945809,13.379304290574908,31.35482729604144,59.04879163640153
-9.943990235634509,28.58461161647667,8.546674003475799,11.164694936140249,4.023550215202123,-1.5967484702457744,-5.156280160526314,-2.061981166866558,6.492749506262427,8.6544222118195,8.98024551402493,13.447609183664545,28.67996305266663,52.43593910346574
-6.461582743980802,26.047839943157,6.252783212087645,10.412305485970794,4.95532930583441,-1.4859584183838868,-2.9849715056385406,0.8190202095716179,5.013050447914652,8.432864621080327,12.3501178774699,15.437927260354948,30.546425320791727,32.86014414056594
-6.080770585870604,23.74424280730121,1.9911302167317624,7.591191502558015,4.382705275213568,-1.142166194195735,-1.219662070863857,1.7467312446946994,1.8734529953607184,6.484819363268783,13.03488697861183,17.250473001134168,29.062571357145384,15.451325216677686
-8.613276919811685,23.520659076437276,-1.9309536201070097,4.530026505366987,2.28106563111771,-0.6368674964280379,-1.598840095593712,0.5066330646429311,-1.219347858059793,3.492042616224952,11.440828248340337,23.657737306907364,30.334301227879315,13.02840768939479
-8.705373311093355,26.389684358435677,-2.681386487260152,4.176230278283569,0.3875247528413457,0.0779141801952851,-2.812241564188791,0.1060428895259921,-2.393714544458044,1.2962793791189329,11.874948397394002,25.028342646959093,31.608019292064867,27.1505178575262
-5.985639770617029,31.664577081967103,1.0356726130311458,8.114746796233606,0.891697623620332,1.1949475074928797,-4.623657546228953,-0.2468463547751878,-1.1343205796477602,1.5564878544724312,13.341761040985904,24.2137373291462,26.952100622160007,47.96622577781704
0.9143065671585195,37.16282276251148,8.038662471178226,15.031388772484371,4.559794886727186,2.7239538029120998,-4.645338872288965,0.4989663639755716,1.4186663344457964,4.440316484963292,15.097343146428177,28.31149367485565,24.756499387524556,62.28781021076014
11.581477454519792,40.301140081466514,15.403561921300293,21.366174858848595,9.765776543133397,4.167257628917546,-2.9282287260149005,2.8344610956775056,3.5604114219412484,8.337245781982183,17.725181035912005,26.901104005639645,22.865217166071425,62.881176132232966
15.768210502653549,39.34074012645067,20.22104633981317,23.66783264079275,13.343057198420498,4.688665042496587,-2.044676968160441,3.007632909220736,4.341529071584391,10.848617525409484,16.060897216718768,25.064120820053315,16.95943964239631,51.84877464983681
11.116379662432228,34.115603093884104,21.147443750900464,20.882171172648015,12.789017959137755,3.7771918539750335,-2.3093300735154094,1.1709345112330245,3.911214633177983,10.3601973593888,9.65105809969437,24.058858285312382,13.991170840934748,36.801490593531646
7.061789011625319,26.017930854251222,18.81793732426728,14.897720801868031,8.184677395312963,1.807032743376074,-3.154639719698266,-0.5522031148696159,2.832369443592894,7.0647069026513645,4.677779680541296,15.59141885274146,11.90895249134063,24.504739542123403
2.404679364394241,17.36775088826205,15.010071139457862,8.997569717827293,2.254840878291075,-0.1187498449401973,-3.270753853432227,-2.886998886125389,1.3489510283813937,2.721580095778843,0.0958048503763319,8.260452361034712,5.816109474694825,17.505616325125146
-0.0046958372517745,10.43059861637538,11.254117437542568,5.436210380679581,-1.5975002168753123,-0.9916560014285858,-1.7298082897206362,-3.0299376650103707,-0.5689954785259503,-0.60134192010905,-1.5916462006681216,5.452513844767917,2.178667623239474,15.092512854189966
2.7017009560848955,6.428264929998679,7.915414159661304,4.006432616856933,-1.7782390935330756,-0.6652284154505262,0.2997873688256702,-0.5029305631686452,-2.616290776661687,-1.83362483119004,0.991623174711361,1.08531574271298,0.3421015646746077,15.709960344394553
-1.1351698157161974,4.97261981593423,4.413907994231492,2.6682664543442245,0.4792248412971966,0.1351509419526688,0.7987202534075323,0.8124438518985099,-3.88858074139716,-1.3415603424833906,1.464428412563366,-0.6317184067658903,-4.890446821632897,17.762281131595316
-9.160327588248997,4.287528199935245,0.3552786744889076,-0.3532388982717105,2.346511219922034,0.5373231928546633,-0.8377067315458403,1.5430047073193915,-3.4674944930166363,-0.3352308662454393,0.6094957293673219,0.1712385747572558,-7.434858419370611,18.846939515334796
-12.151277151948792,2.2198070774100174,-3.4649970093436195,-4.813105289215024,1.7709332558070383,0.2669648738879902,-2.919402666669383,1.519931613514879,-1.34141831292975,0.1280524470818216,-0.4280788311301476,-4.409063283642558,-8.497173675610348,15.773013346197118
-11.022281454817026,-2.4539475446834125,-5.252195567300991,-8.56644262334472,-1.0312332259224828,-0.2673497064305756,-2.7025634922139474,0.0156387194193494,1.337499376974855,-0.2758035094764997,-2.812133742678678,-6.490899190064223,-14.126960411930916,6.636990641360812
-5.209984781312687,-9.191432137753743,-3.707493457536872,-9.48240512237738,-4.096353115907134,-0.5317522571198652,0.6211890398439267,0.2925330055277652,3.0565635934779247,-1.295564753704989,-3.798668535983711,-5.720736173243051,-18.37635843732569,-6.719915272561746
3.860763742654029,-15.89476401904898,0.3326259881766376,-7.479460284227123,-5.584277036501572,-0.4332715130524961,5.95310779975252,2.252892540168716,3.115304926957017,-2.6420033020396825,-3.411540101141336,-9.722618061209593,-21.11654275598839,-18.798720055213884
8.056394601955773,-20.14371020859711,3.709071774241615,-4.841228386716381,-5.265506862099244,-0.3332163077301102,9.7989139784551,2.268170459404102,2.0342382415072007,-4.296361248833411,-4.748163219256047,-9.858111062270511,-26.00443832824472,-23.95376918848124
5.582578708785098,-20.747766667010204,2.802098756774031,-4.436277597391074,-4.440047969353728,-0.5790582421403496,8.474472247502339,0.791545245681301,0.78434604748622,-6.34299744075882,-7.424164267998773,-12.051920476331103,-27.008700687701044,-20.834619682522288
2.903440871764543,-18.586448578569208,-3.728002043194304,-7.312908847084159,-4.599341322733843,-1.1082403180423526,4.0398362682890525,-2.9011133637765525,-0.3764019854097405,-8.620490855308852,-10.945122580951995,-19.43866276317382,-25.19570027141881,-13.91427993498153
1.0182555028250593,-16.05825680340242,-13.50548677995686,-11.75266293511967,-6.143695961251468,-1.5301952203615232,-1.2762823840286313,-9.649035462766848,-2.201181381740048,-10.64988719584464,-15.911577276244117,-21.200803773041105,-25.64547383830243,-10.38666306646093
-1.1495543930122232,-15.413077079419264,-21.700043913169655,-14.665600446598347,-8.18654122663791,-1.543794622416327,-4.794689140513315,-12.02416965585279,-5.458739225628328,-11.949701905740472,-17.853956846863767,-24.41433609194188,-25.271750014319093,-14.586054453803625
-1.4522759342741676,-17.159462704962483,-24.260238181713675,-14.194419210767602,-9.398890235118207,-1.219654975455244,-2.563516743103857,-9.923018947525728,-9.605083221076615,-12.404063647881586,-16.498226291238712,-25.77486324844054,-24.396996076472533,-24.38380162177964
-0.6839007906588833,-19.8108441760706,-20.70956503921548,-11.3021644851351,-9.04633462918233,-0.8839485486467358,1.0973318148356022,-6.234987887801614,-12.609594747639584,-12.30699755736484,-14.188230775048767,-21.11372515100946,-25.56261771651503,-32.67491364507815
-1.713070449636002,-21.22581941331465,-14.334143633074104,-8.942549830671435,-7.429202885642326,-0.7892769037661527,3.45054402166964,0.8482531879331612,-12.416959966146958,-12.071575228529651,-9.781792295303086,-20.66548444910264,-25.17026369666225,-33.00733910421805
-0.852646454910577,-20.458220533282823,-9.6372107410077,-9.488885192833628,-5.5602277947949865,-0.9314742196650144,4.744886391864324,3.0112310115568124,-8.859569233576016,-11.926682644247691,-9.18862899376493,-18.77196199954527,-23.143306378873596,-24.907144965777903
1.710712664317605,-18.55697246543285,-9.0902559031496,-12.6397401952513,-4.449485099995448,-1.1379620036528744,1.1286860218598769,-0.3770257853498018,-4.183679537946203,-11.857626406598262,-13.011009929604894,-17.00564383528204,-23.493003195111857,-14.540517636773473
0.4784305478224085,-17.6380576405041,-11.67907965952399,-15.637570238022612,-4.484221853117022,-1.2455799961718683,-2.4778253695055543,-4.218139403219754,-1.4954553201782166,-11.721203539240822,-16.753921714347253,-19.591533253302263,-23.59501248866097,-10.115481755930777
1.2078501026569792,-19.033298478316667,-14.198562136041676,-15.613943115400724,-5.218283842855037,-1.1640174469203668,-3.782767434027048,-10.598454733246683,-2.3677376084182806,-11.32459811011444,-21.90470687578987,-17.51255977515139,-22.38607792618724,-15.743537980458589
2.33570998569926,-22.083931806218573,-14.041506865385102,-12.006333518337192,-5.657227471961518,-0.8404232911464722,-4.688013535270252,-12.706999969215666,-5.690401380590065,-10.44607720740241,-22.368041424590828,-17.29022412315586,-22.236635413198037,-28.614847716047244
0.4480606215622824,-24.546079221206096,-11.170484519456355,-6.965073410245282,-4.900712977024054,-0.2746088596980524,-0.621394287837134,-9.63035235812181,-8.732528916325837,-8.958282001456858,-17.13059996533813,-18.981142538993684,-19.924455879221995,-41.377555689979104
1.3192541610427724,-24.22254298802701,-7.807178120145849,-3.4993929824150545,-2.783784028884136,0.3923282268562009,3.0244085792569,-6.4885653810718855,-9.38279537360824,-7.063705795303705,-13.45358789922266,-16.38832668450674,-15.537116221367654,-47.31190849941544
-3.1852955586009744,-20.52319559630229,-6.298698152288615,-3.0872451013803914,-0.0694784373848111,0.8790044657510134,5.263156075903627,-1.4715895270811166,-7.560470227823619,-5.3343710466795455,-9.863723431027363,-18.394053599578704,-12.50279677618841,-44.08909490053543
-10.214990859146509,-14.838093118925642,-7.035711956354943,-4.794881265181537,2.0257546519517198,0.9631391395371942,7.911763113329768,1.8292399380923576,-4.716921771005035,-4.289228431318071,-7.359761153206727,-17.413685594373412,-9.484694143472852,-33.85569670124549
-9.78723052477297,-9.575631441938397,-8.134024233720949,-6.439093503041705,2.6883304021758376,0.7238199307319126,5.282099972639871,2.6812295270331217,-2.1722353708464794,-3.772499880512163,-7.196107803240134,-10.384535363728126,-6.334329956233799,-20.791578061661586
-5.950488616016199,-6.6329911487391335,-7.081395172090888,-6.510777952719455,2.082927810573965,0.5311423112324771,2.165796461593012,4.110971538957362,0.0145136479107188,-2.8408548598220977,-2.843910533517234,-6.873189712885827,-4.442387913799615,-8.841266688122154
8.019335779068394,-6.327262007346093,-2.9385358951845184,-5.125035763584308,1.1478074582452784,0.7063130815613401,-0.6397395000030983,5.087165722609223,2.6601300463201647,-0.5454283079288582,5.440810947262223,1.5893993566711893,-2.0729536230002306,-0.9955587804487748
22.650587642312285,-7.391734651911921,2.7509683879444324,-3.401114832924029,0.7708764175099265,1.1577371432970387,-4.8063679804182025,5.3476678657927526,6.132431862319879,2.959225426713995,10.082653263119967,9.38858593813573,1.1994025147369765,0.7348378695470004
20.78073370061592,-7.911777378469551,7.109558838369612,-2.142842997566011,1.088496476524904,1.3979569095884927,-5.778701374800085,5.093278286120036,9.529917031985454,6.142503591589996,11.931029958247263,10.208005876335944,3.3077754456601203,-3.928098477533158
8.584409526358455,-6.515936092454464,8.188301255766977,-1.1298421326843933,1.5526730540598166,0.996270019296834,-4.690268556570105,5.301586459769629,11.24725703148472,7.229574166660326,11.735102526757675,14.687600452129304,5.330454975716089,-12.222701875616185
-13.01136053379551,-3.0733883334651573,6.470970770637026,0.4576712362392676,1.6612727736520556,0.0488986909584483,-4.072076983374083,6.066707084053228,10.428788977904098,5.915202061770198,7.917970689729732,17.32774309635555,7.841740784013981,-18.38198421248299
-28.501002237674648,1.4290820273224778,4.387478234187855,3.0463265140362648,1.5612953645351482,-0.8286682922380937,-3.162238128040478,6.136999021378626,7.917654069957539,4.025088211064688,6.793497048031283,15.599194107568453,8.88059111480092,-16.47001073547614
-20.823590368379616,5.58112642316587,4.285155143875921,6.072201813714323,1.845504100574169,-1.042467769339093,-3.069965695269072,5.72098655198185,5.712768969828845,4.241177032862479,8.361607919492915,14.85103904697105,10.124784940932146,-4.808341030134752
-1.5417838458651572,8.272548417985009,6.580305899957141,8.268659000742817,2.7189841253299285,-0.6088901662233586,-6.435612129782408,3.182436996783025,5.30247012098887,7.780019720171855,8.175620775934743,10.90642388621457,11.5520703113266,11.638092193808102
19.48043553758761,9.059809104964618,9.58829928181982,8.557399164204007,3.449350875779632,-0.213119699265051,-8.956235469402795,-1.8751919732715872,6.331533088826996,13.044724397935065,7.477777390213425,3.27578665816668,11.24676830250069,23.86676676234742
26.01555746241121,8.153599024872854,11.052121101063577,6.841389895023204,2.8165793312952743,-0.6319360589454543,-7.35074969210012,-3.4696466966430024,6.861910096086329,16.58730439830419,6.239774692338217,0.805430168452743,11.034190084755984,25.3847185843491
9.906727508874615,6.209554629729144,9.989021275669325,4.138732454881634,0.2650223590504392,-2.0132620979251823,-3.1429770625485784,-1.6610824476285049,5.084800627703973,15.728447340811163,3.918846082479981,3.5939090232890787,9.47132920405999,17.580819916043104
-10.271412017891205,4.048624016202051,7.344673916032166,1.9797353343146316,-3.344342657710349,-3.6603249934873694,4.229342861602211,1.408682136823511,0.9771082431026796,10.673179924154075,2.324109177112732,5.725502242916696,5.885697560280303,8.851712323491313
-24.605033703680423,2.339649223776422,5.080618251868945,1.4707231845543878,-6.192949186725336,-4.52889588650026,11.214729878176112,7.146067579779958,-3.6195660693985854,4.340036003988595,1.3814190177262102,11.54516184628336,2.718201455220097,7.457473551986622
-23.097136670352526,1.3365443341271912,4.622704836887323,2.637636282486719,-6.835479429850507,-4.018145396807917,12.059885403100068,8.110548431727475,-6.576855478497177,0.0771796993342022,1.0441598950013835,14.758726368554562,0.1254939531322765,14.040492143261972
-5.275113741408625,0.8575863267203427,5.956818794675702,4.4990443927589485,-5.197753005018535,-2.392798541437584,9.191336788242982,3.7343368071552856,-7.230930481899345,-0.7711523633326984,1.7481623854984714,10.582539336437156,-0.6218307319135182,20.78312207766686
6.014145403933724,0.5844950004971681,7.922923941931085,5.83254440467947,-2.374069510182889,-0.5147290725249052,6.934760931824172,-0.964678401354672,-6.677191510031719,0.543224773730703,2.219780712004812,8.07871571071314,0.2881315652932805,18.52268469957317
10.524503665986986,0.4482731359117267,9.225144940187018,6.081687122094498,0.4418111101973565,0.8323418343986655,6.204169737572592,-7.817950301751333,-6.426966794956863,1.7127259635259071,2.559987815017968,4.073221881881938,0.969522273415718,5.607508759235987
9.66596248857687,0.7100207823805338,9.252346923827016,5.692291588564883,2.748256713125904,1.430576174477641,7.722937491802872,-9.50356309104134,-6.842413453278836,1.4889797873271218,2.929571819378713,0.9492542377194348,0.6722820307809323,-9.829267587852536
2.968249408679961,1.61031870465877,8.199011168855275,5.581455484290109,4.530953131392926,1.5676864586597594,7.850479588632236,-4.929818244602472,-6.901012447623796,0.4873637260755461,3.065161823202196,3.485345062854776,-0.4018016126199611,-16.657296267432464
6.874023034717352,2.940043997609642,6.654949364534048,6.183998865988369,5.524090307903244,1.5982796202263498,4.841389829443385,-0.8574207435386135,-5.414170789129153,0.1848248192716045,3.610251535700995,5.456978354883346,-1.839029858364464,-10.561477257202604
13.983332077798543,4.048824232266075,5.141012913555446,6.95623705382491,5.022988769021846,1.602956125493519,-1.0263860343432134,4.611645912949343,-2.3505314445405427,1.312389988342635,4.530651300423232,8.320981725532151,-3.3806609348490184,2.1338225670931585
13.19375531717967,4.394165487346411,3.868000102305458,6.861490827939416,2.671013209268749,1.4437603837182325,-6.3795535095358,6.552443779369479,1.0951491717174089,3.2357147637887307,4.899793614532121,8.513403265733096,-1.8395072919929087,10.109048149292164
7.111616751526771,4.120974883017098,2.6764774771336075,5.432154866655779,-0.6020206666707764,1.066782016059244,-5.576920715460318,3.692791818451448,3.665950777809484,4.753662390279148,4.771342422915173,4.234825696207343,2.133546139484181,6.913241606685531
-5.591637864684287,4.025479952598795,1.0832818682286651,3.3601271639917725,-2.730981577825818,0.6674100436108645,-3.2258004822333293,3.1383828844076382,5.156394414594099,5.302477042738769,5.607065810194197,0.3067463349243121,6.365939117748303,-3.816237081780578
-19.739504239755014,4.828901398298223,-1.461264760050966,1.940361877672819,-1.9950395402232992,0.5328657460263293,0.0978634387402617,3.599754020744429,6.3442154116481895,5.297697559251907,7.326338990584637,-6.754748537056173,13.688684087403272,-12.027707528667053
-21.775022617846027,6.434256369202362,-5.031558103367097,1.83514465062112,1.402215694878639,0.7617425216351661,3.625016374884388,4.3117222125563375,7.921014895619777,5.415650106753707,8.313565335301437,-8.461208470569673,17.03913679375718,-10.002064082080787
-11.54388778741208,7.964868016913979,-8.719951832013425,2.4191020614716656,5.234074117201264,1.1899997757041747,1.129246334956013,6.396402155699354,9.630025356942912,5.767105005559462,8.769304763414809,-4.0691595411685935,14.492847045441213,1.6064681604279605
-0.5070078330544348,8.644526769342558,-10.798541279200537,2.4798657850802863,6.940048819760523,1.5899409529365074,-3.046408349930906,6.294141396442593,10.516854644739034,5.911730998526071,8.128741478713076,-1.956807364688825,13.296146516841056,15.024932867809058
12.800295801028248,8.655487171209938,-9.81762844359606,1.6442616366957838,5.681382055525097,1.8809479967389653,-6.390271018635579,4.004389220238225,9.974077686850835,5.594118258231636,5.990860107507716,6.216973439162611,8.196673200647103,21.885292655224152
18.995743553953822,8.984450920011298,-5.957164606692804,0.9951637857874784,2.905307966196011,2.0900157437985065,-8.98090938933914,2.6728211455305573,8.43237528835068,5.212901234623958,4.327146258465572,9.620846438979854,4.169308383647151,19.11502651801693
11.511209371019897,10.225261849679722,-1.363103733341548,2.0254414021012206,0.9217540682876164,2.1352766299326964,-7.127726103810064,1.6752089201875873,6.95562299538144,5.354528854613044,2.9624775471765865,4.208219482162731,5.949737328549078,9.915109026804508
5.168335894913404,11.499494327886172,1.1602667289627142,4.806960933145636,0.85204053311291,1.7610332772650892,-2.065543283846629,0.6033966157537505,6.1593625837614825,5.861190299204377,1.007957904369312,3.653736069346028,4.779383065820243,0.2489326400060569
-3.0029180428956157,10.805679858545265,0.2145559935444563,7.286285588669943,1.8390615757142263,0.7958420828386836,1.7170199904345522,-0.0575685496217552,5.57327582690677,5.550491387977264,-1.1927669980914382,-2.3852665938208,4.366982599004308,-5.455521754601174
-10.435114668860232,6.829857254365436,-3.176801498817218,6.72616769699649,2.122915400147797,-0.5122944203442383,2.351778088975269,-1.1408143611460604,4.110306285580858,3.099940783423928,-3.790965179054002,-8.931287383612819,4.926123465163416,-6.148924978880039
-8.502844748187215,0.6419172514755811,-6.600652881385754,2.2075782863822377,0.8041182397631874,-1.511963343690992,1.02231466617143,-2.598755870997425,1.1864998469865915,-1.6390284818933027,-6.863814698446599,-8.003728071696225,2.045981122133476,-3.191866906450649
-7.614600975615959,-4.555875481890122,-8.409331335708876,-4.144526662518331,-1.4104963678694382,-1.6318820741042304,-2.371926569393618,-2.862404372130897,-2.602785798648001,-7.191660346680367,-9.633631222481688,-12.195590879712608,0.1262953616435091,1.5080655436425516
-9.538028675816802,-5.824484538254254,-8.939898690301128,-8.561697943421704,-3.043160210213291,-0.930325414268168,-3.3959588301447043,-1.9546985378462631,-5.8947844970758885,-11.412660177615424,-12.0910422994847,-16.076378399767403,-1.2815881268945948,6.416092086710551
-8.220805885760013,-3.0784890267829206,-9.648726931421148,-8.596762385895055,-3.267530801995604,-0.1518873097667765,-0.2595986268960564,-1.5422349591108309,-7.648443820718173,-13.050660863417113,-12.97821047458141,-13.948737661448328,-3.1109589826927624,10.20541088836475
-4.847761898184855,0.5770245328957211,-11.130046410581556,-5.051257266304024,-2.508907703710521,-0.1465776026354711,0.9105401027823972,-1.3669819322623575,-7.893872694408169,-12.550491732024351,-11.945545895178505,-12.036471106195648,-4.034782402575687,11.603310035457945
1.0361404141593036,1.3320083560461995,-12.143661568099596,-1.1516178868605031,-1.8053420248862655,-1.1194566793032594,2.621837343077773,-2.6913019112535697,-7.521268689056705,-11.44103083766806,-11.043098049989348,-7.815478574420704,-4.734456894884817,9.94041210525671
15.29894312733076,-2.0796958309623,-10.737199232148257,0.2251420582817567,-1.7659534899579907,-2.385775513218165,2.176590633042752,-5.966895659845355,-7.420451245812932,-10.95629383295249,-9.928948271572306,1.2038069907627662,-5.102338187368926,5.816145842036672
23.50624944205288,-7.268959744087781,-6.366803828634795,-1.2646424264210838,-2.200152691462101,-2.887542145727974,-2.6131171719548787,-7.540895523385426,-7.816749269674892,-11.165190019747929,-10.032765845026756,3.436184052305707,-5.958817087129404,0.8225743556203753
15.464021061353655,-10.241236846916904,-0.8492265394956617,-3.690991443106705,-2.623082321100662,-2.063112456673574,-2.9814121285393287,-7.637446644328541,-8.32928499356342,-11.300593860034772,-11.866141643123804,-1.938140792302212,-5.8259856742842455,-3.725244586505245
3.841335383139948,-8.769482941691914,2.881571032842727,-5.019899706184947,-2.90812978039154,-0.3442218734088584,-3.24576046176796,-6.804838247456145,-8.534897265983659,-10.810155425976134,-13.141012755203318,-6.216341485033543,-4.4865080652478335,-7.785785907397463
-16.30353468851651,-4.11283878841669,3.079222204645249,-4.943835184954004,-3.331458691327272,1.1349773376679912,-3.601010931745322,-4.222632790455964,-8.409205686505496,-10.021846416474691,-14.299273156542284,-15.837748927612065,-4.08349523106533,-12.090063234295275
-28.303363620969108,0.2782053135893179,0.4328501449096644,-4.699214546290913,-4.045633537639643,1.3857534678643604,-0.4820979789216457,-3.1474235138912245,-8.258448121787609,-9.77874184538017,-13.410277352482602,-20.879200780319373,-2.5115359348459174,-16.50857102863003
-16.38353646162195,1.690922588684642,-2.7542418272911955,-5.350929366479378,-4.6818701004834455,0.298381546158649,-1.4424495047734187,-3.610728729255078,-8.293182982708084,-10.44243422030061,-9.908520719164946,-15.112857373422692,-0.8326109474490395,-19.098143677314287
-3.219076459817518,0.0739977002431588,-4.481835411223297,-6.505688449265676,-4.604926408263507,-1.29349715347174,-3.5557512683594483,-3.356475155802864,-8.295499455505077,-11.284779865846954,-5.392327424713791,-11.569502193202243,-0.659426319603471,-17.197777677093605
13.31209401887071,-2.461470275716827,-4.232598670831999,-6.778593331332209,-3.576673229007944,-2.234978037072985,-4.052410625763954,-3.0469186840114078,-7.694487817457019,-10.914956110873687,0.8179840331238745,-4.200203599641453,1.3772061189516327,-9.870803616402108
22.352886006589877,-3.685604187766939,-2.56774252172291,-5.381934803327904,-2.094465865729766,-1.8613594644210631,-4.970651410188864,-2.2021979126324127,-6.000597751110707,-8.411588145353324,3.7424999084002426,2.978394751744703,3.0163990693620875,0.5875101168668984
10.2903899377004,-2.8299759513846148,0.0296560183839424,-3.04416941140061,-0.991177552383952,-0.4097383684351423,-2.393561676843122,-0.5187164854817586,-3.2725286742924915,-4.172357536901928,2.833582081243239,4.257056141545594,2.432187689128596,9.70665273692181
1.2528429999329578,-0.5710333293137229,3.618858362000013,-1.2665276286391174,-0.6637610772427962,1.213860901754792,1.941190118628033,0.3568117433172599,-0.2525804882564593,0.2550048637490196,1.6631471232823662,9.448390651648236,3.0037874896346,13.777297081184274
-6.236394498915554,2.0233880384613347,8.10657561482255,-0.7407104560655418,-0.703377961935955,2.0805457644501555,5.508968883990491,0.5322893501915259,1.993043609627683,3.2078673011226044,-1.080251230830776,14.281068367947563,2.6950931229758206,12.27331105892417
-10.46894029103056,4.272304831057688,12.357200623350728,-0.6239889481970664,-0.3101778557838897,1.8244898566285117,7.807533677384265,0.9794007790503388,2.7526006021249083,3.963248995919464,-0.907233552020834,16.18078273256161,1.7675950823481927,7.862190448185011
-3.249608410556008,5.80894654982513,14.404072671356564,0.5686121809375271,0.9139810316019428,0.8094943720047816,6.959238288596626,1.411377872783636,2.2057701556196543,3.050499238528104,2.873909770735268,17.155991066266985,3.429041778216334,4.207226765373756
-1.3388884943095682,6.23670965523775,12.917522383335408,3.3865188074500114,2.584216510347624,-0.1638695158145213,5.171948313058172,2.135581017395153,1.383113833650082,1.752176568343095,5.995967943345115,14.756129630107232,5.095694106663953,3.4561055833046783
-2.290840240627136,5.3128508468538245,8.64465379792387,6.782021256019112,3.9398722367712047,-0.3763130923886431,2.857544644721693,3.2978437275210606,1.5026162464418409,1.314373692585674,9.61421667781736,10.654871758558372,6.138445698309017,5.235397557379401
-0.8956389264946613,3.5753600503735754,4.30624398531763,9.004456959141388,4.624007967779784,0.3923290048672028,0.4048095965053205,4.013036269212653,3.1336247016888974,2.4039216324264245,11.54002004116153,8.945044438904974,6.9857079911348015,7.532017702902472
-0.4921329182111553,2.483811265720251,2.7440822920315115,9.146269606993666,5.040066241970131,1.7761168612051952,0.9372170750076104,4.3463201766519655,5.807425334328393,4.943232802264968,11.040851724864352,9.762732315563673,6.320996726683834,8.454413665742335
5.210479791691601,3.451019708755956,4.754895603713196,7.856166052463303,5.9067397120857015,3.09374210833302,3.129600747021533,4.986349106155571,8.358387812433948,8.169635183391417,10.821622382259203,10.676456225576064,4.617591932714654,7.5299846376579715
13.1243822139087,6.39827732703494,8.450647168295674,6.594880357269187,7.430987413282125,3.7875477402430513,6.346749467693695,5.799392043112845,9.723556257889474,10.85819107053353,10.18168369742821,12.154658976855458,2.6766840943880004,5.817148022341109
13.576242978146404,9.291184748245488,10.723504202099576,6.189533223362164,8.917272534804967,3.7330090697786567,9.568298764156715,6.579282015357752,9.617534968325092,11.823990565357672,9.965790180505255,11.395827464374864,2.568491120804574,4.988387024863744
7.239748740589947,9.451573030711424,9.601474475501092,6.045978820140274,9.236063665047968,3.216133336422084,8.152203940267134,7.424853667387149,8.642509414156397,10.65949320939943,10.586958833085134,7.717985462961773,3.144336778109005,6.083482339005116
-2.18041994378076,5.773812510420564,5.57233254722519,4.728979829084019,7.764806886553682,2.6347839202782155,2.9832437724210967,7.915772431134664,7.806256639784707,8.220444336719472,11.092472623919653,4.318724005488489,3.4467289956010383,8.688433096178063
-12.778409134570769,-0.0648403324497124,0.9180414717901612,1.3795997597072818,4.96735246247168,2.195237801769352,-2.554796519327704,8.001111286378606,7.778925174317443,6.247615901383618,11.824746828463798,-0.7088745128095825,5.649811896645712,10.990317198341277
-14.96316080836614,-4.599271861667221,-2.1964982068893093,-3.286667202196069,2.103036278707012,1.8490285740211247,-5.700765184546797,6.862876997615304,8.354302056830015,6.110455102688799,10.836004210478237,-4.250488621277051,4.506516242152773,10.697425810057702
-8.444307382652447,-5.088327367781131,-3.215879142773055,-7.290549061823544,0.3296114726186951,1.4661832785960551,-3.53526594924519,4.27437053961197,8.484619597553758,7.583149065900713,7.872585274300059,-4.8194241319690905,0.6026560505280959,6.375708757767196
-4.9996163805131415,-1.5381997989556258,-3.16528109898824,-8.792905929080726,-0.0403076543167832,1.0273888131308575,1.3989905207539477,0.8083817967308786,6.9580582552233565,8.82689355247717,4.007540928439936,-6.472023544798391,-1.7769972167303243,-1.489975208426895
-3.3604166138539133,3.339948110833733,-3.382611708785761,-7.468877471528206,0.4298168599238021,0.6508474551091723,4.362030389402104,-3.8374073864879454,3.3584354634199487,7.844056218480574,-1.3244074432906694,-6.555576164852213,-7.808412831261635,-10.346092674079276
-3.559940256843066,6.095612610309834,-4.2407490116967335,-4.757128959642252,0.894401225740582,0.4860982247705481,3.631009882165105,-6.2932779333250775,-1.3658286230750312,4.277119131281306,-3.4046664050695035,-4.543391217147941,-10.112676095558184,-16.57563566038634
-5.98620347127826,4.846011611425176,-4.894543557597437,-2.7989544092459617,0.8837260148163013,0.6307576989246071,0.1902156196025557,-6.2344274220681655,-5.26164293611714,-0.074173899690134,-1.78036610036374,-1.808301793015641,-5.661700320580751,-17.28494600295464
-0.3431077560382328,0.3072338964163048,-4.10942486861107,-2.9088726915807896,0.5374327248694701,1.1238155783032453,-4.408627507534513,-6.276477083740674,-6.562978683462148,-2.605242521216743,-0.6671390147989015,3.4311226741080776,-3.1679701588681284,-11.942769953648742
9.742138808868413,-4.915213742795408,-1.3764152034854185,-4.732315627549308,0.3661126670005994,1.9178165182836748,-7.0414278116991325,-5.571318259595311,-4.906884610081353,-2.005043556253405,1.05805368718648,10.793109095682738,3.485965815385627,-2.8503841507489414
14.607458654451596,-8.014297382380873,2.5811095996118167,-6.653629338280052,0.8407793817066789,2.77239477752116,-6.896899883143455,-5.170812015294658,-1.6284721752470237,0.7569923382086183,1.7776039778574884,14.13677160712347,8.098657384783598,5.978451904726562
13.932078977509592,-7.4814234544182305,6.22905947089468,-7.058128023474392,2.0980259822489598,3.211122149220161,-7.023333290140128,-5.418880274784365,1.1537075732205877,3.401364378119622,0.8028697530310683,12.32605430262426,4.4013739238687615,10.928999448679829
8.149588687092514,-3.694875364304013,8.176606913080425,-5.484390223953152,3.826816890207085,2.732743926884831,-4.945864194836351,-4.424768855249496,1.9846413508845595,4.29790503022004,2.035948312684577,10.26028903312197,3.109579795230284,10.580477547521
1.1043358464871382,1.4336137911001563,7.933898210143059,-2.879529190589511,5.286953818650534,1.206324854923571,-1.7174921324753551,-2.446291233220967,0.9300577621266056,3.5880248588598604,5.083273021485123,5.038705466913075,-0.3369768717218944,6.092578019069492
-1.8514889472376532,5.376757546058331,5.972444628709095,-0.8585847619790705,5.484833446222762,-0.9236075024228818,-0.2850395359223979,-1.535037763821656,-0.7872795246199424,2.5496397868620706,5.5397264822896375,-0.0206538995380752,-4.495747829182404,0.1254171598768607
-0.5543339534959477,6.067366944770561,3.161635084586789,-0.5444242641302148,3.599300557207247,-2.914977656132537,1.342603872928212,-1.534239950464774,-1.9762967512468648,2.021787939342972,3.791198788528122,-1.4415588088141036,-3.2682051088128845,-4.747443937117792
0.1731457144130669,2.812552024620202,0.1293776500605565,-1.8047885665221008,-0.4215085202457214,-4.297257973775495,-2.1449553301706525,-2.0220086377510897,-2.422694977284449,1.5485000526933297,0.2967593978002851,-5.472494137710108,-4.109880121342619,-7.031474920103472
-3.638464076792853,-3.2701161357518336,-2.9130001678853645,-3.3931720561991883,-5.489389123760194,-5.166717339103865,-9.030103160647084,-3.453321472963405,-2.7907774543197563,0.0687671432931398,-5.931029821826189,-10.465025460258396,-5.482447594227535,-6.377892842581645
-7.323697296594089,-9.6119894061125,-5.836055472290424,-3.857969877366188,-9.705132817259866,-5.879405745021411,-12.109558163097,-3.544733584687858,-3.6665505114432553,-2.6353546076866388,-8.29906322739363,-11.605146304711567,-5.619802058314407,-3.266797286970202
-8.486407095339189,-13.40786855722275,-8.2239806047956,-2.541162812405988,-11.426517942999524,-6.4833815079151,-11.546939639131804,-2.1950447509267863,-4.738987452573761,-5.293636799967214,-6.545243138851267,-10.750157369027905,-7.568051153970394,1.055502879213117
-9.58343679848385,-13.177227132380844,-9.463702905750363,0.0488669884944892,-10.414043880978811,-6.587471246767114,-3.016612546023297,0.2454197692874426,-4.980253324876989,-6.055737141305652,-3.279370194490224,-8.97673714500554,-9.082035727624705,4.465474332761495
-6.5439547734041845,-9.690135575548656,-9.247371722020503,2.6952453173013318,-8.093039206722096,-5.908753680013518,9.02666385096014,4.41843318738289,-3.695576993379812,-4.139737039699948,3.184904068593021,-3.5527561949923494,-10.009795297639776,4.414236628724403
-1.97299058514361,-5.472192766074656,-7.913933344499911,4.327474712790184,-6.525572355833494,-4.899690225046383,14.000327522925884,6.298133287605137,-1.3905746809601212,-0.646570898896035,5.860943013837473,-0.0440704172509109,-9.997909713088063,-0.6387063179699055
-0.2053276705995763,-3.0692064906302896,-6.161701787195185,4.615961234666143,-6.783600311676361,-4.597518473769903,11.960341867259949,5.742463019890349,0.4944199268952041,2.258292891384171,4.270774874307577,-0.9143698914466653,-8.542181301780916,-9.575462198340167
4.547994903607401,-3.2858965679985386,-4.35502964896097,3.982061946917238,-8.076326142024495,-5.599750149099982,2.493202306855235,4.011158721270142,0.830770242808057,3.0505425261001484,1.7657680494737036,0.5471498649241808,-6.602488313075858,-18.35735383437332
10.277793806983084,-4.748579323877836,-2.1829542226170764,3.197093289426338,-8.461625057038955,-7.133115083755522,-8.041264410229001,0.0521865299380827,-0.1604824341415565,1.894717441144908,-3.465543516434649,1.1311101102911896,-3.067908374990985,-22.06994066202743
10.01670204675039,-5.12336170100578,0.8573807182468784,2.929500427620581,-6.595848562420107,-7.351616061134537,-10.094089062583013,-1.278087085427069,-1.1344329415050596,0.1767482791099035,-5.546082807311057,-1.2200044710023994,-1.1209535712410843,-18.22859041661978
5.739155758662419,-2.991682370085193,4.556916904219096,3.4361096610653914,-2.982575114144169,-4.902332867635704,-5.2789406403136665,0.2673192863006345,-0.9242944407894867,-0.8811659572968473,-3.985191242139129,-1.9776710857024709,-0.9717938094732044,-8.796733995834376
0.435439228596218,1.0879406509660707,7.625576473744831,4.4256102748275,0.4091549519650244,-0.4233716400241929,4.301524817727308,1.4011318086069815,0.3665029328974767,-1.1545718289229578,-3.9672008333988416,-4.518044718356863,0.3682028742140095,0.9777362395212776
-7.275493877058238,5.039354799764656,8.38973720768562,5.160107221991663,1.7945452052843394,3.558369864192459,12.376742554163227,3.2408086669625407,1.5483036622280817,-1.3415124250318589,-4.17932761586515,-10.305882967983475,0.0111119563972719,6.226059654242288
-9.41597473759271,6.725454864247937,6.071915752319551,4.885400458612948,0.9672445076441842,4.506685295136356,12.321254388667157,3.069209532002936,1.547920444152284,-1.9937757404550327,-5.460741689507196,-10.426118290658684,-0.364462933093245,5.700936893054015
-3.679002068143888,5.261267617936191,1.5620652550675898,3.4328354122469094,-0.7800873438322666,1.9955490780584075,6.67955943186178,0.3324852635515462,0.3631832019944707,-2.960134302600817,-8.581951485386405,-7.347951831608581,0.1582388566649397,1.986380485592642
-1.1725775140923913,1.3999019031193694,-3.009841454816071,1.5074603006316245,-1.9717598324656755,-1.8452991404155328,-1.0031446316120287,-1.3010100911357876,-1.1229470600746936,-3.7148373683373,-7.635101017140669,-5.382571058855733,-1.4076396139067873,-1.222541440565407
1.4623309893726295,-3.000619688989633,-5.593546804711079,0.2694266465872594,-2.138079435326456,-4.038110434544898,-6.441009629225094,-2.480960231455277,-2.076931243953555,-3.99546883505616,-2.626728854786518,2.035746083206371,-2.795371537937934,-2.1129460030009914
3.5613240045583674,-5.924256332315771,-5.445709978992775,0.447227975988901,-1.807335162761135,-3.135125705158125,-6.457892501106213,-2.203156139883842,-2.2792888083821463,-3.904799458855293,1.23798885232531,5.097909019668732,-1.527597772802588,-1.4151014770412838
1.2087548713530405,-6.060993589248013,-3.435196896363009,1.7754884164333498,-1.543387501794914,-0.1749135397014639,-2.63949131922607,0.2695907491470034,-1.8073205235884369,-3.3963332876643326,5.042647520236204,2.8101050498196125,1.6972935057137557,-0.6202576490146305
3.317866079112214,-3.3159205175822377,-1.321564164973803,3.321877125440792,-1.1987961034352983,2.5287064938030657,-0.3132210209368935,1.693149329287763,-0.4733578802700919,-1.9230161776518333,4.92857874290557,4.555371887354164,6.341831816937913,0.0140285248468305
6.452718337822383,1.157271114735575,-0.5724307230626042,4.370256724752327,-0.1858560812886214,3.497853486899793,-1.2008063225537924,2.4060708621808007,2.059159323840238,1.0748466726411563,-0.344963950351221,1.6521802212465966,12.984667514884368,1.5533348684797923
5.508151410867113,5.43543564379908,-1.492741949530819,4.915694852384369,1.6091002732552682,3.0991423957933733,-3.180325451568508,2.251105083965924,5.486373547754352,5.181353532432346,-2.5768547380335725,-0.4862730779846983,15.36865998849198,4.698493610210104
3.2440202023648173,7.696166276794223,-3.179467317334215,5.258006679257541,3.3421112511383235,2.665925410650713,-6.477008834312411,0.5283211086447603,8.417883789664444,8.645675112649617,-2.663997663352508,1.4042429723523937,12.115023610663377,8.36543769034803
-1.466718673405358,7.113357519699578,-4.287488415444011,5.2382141359858405,3.767658505517423,2.854205625008304,-6.533260374033636,-0.6778611704989235,9.109496168871493,9.37387286665142,-0.8970797240494194,-1.7385187974335747,8.970047776117944,10.23377674159838
-6.78741480925695,4.284832227847625,-4.061136951877639,4.15126832186051,2.357638271184902,3.0152285594870643,-3.402129610666456,-1.580655313244036,6.930308431804093,6.6572401812811925,4.427716499380884,-2.992353682244325,2.249240472837993,8.853424456168058
-7.792499384262948,0.8790701270901113,-2.870862307467084,1.624878772733538,-0.0827550185009269,2.1720784966446454,-1.4337114030509897,-2.238081202540374,3.137295794624723,2.0839700535257117,4.547617085657397,-2.6074264372811955,-2.591484980830873,5.218600418622386
-5.185184532786956,-1.3534535858916796,-1.829280600161633,-1.4654514283797644,-1.9149125418592123,0.4348096038952892,1.5084473567871854,-2.2247399859286343,0.0116216854049406,-1.420019954087485,-0.5904638610573439,-4.645137283277979,-1.6902987111159913,2.1063998415320384
-2.5327843304131514,-1.6092297095969077,-1.793408020845718,-3.271918026263178,-1.88451403051122,-0.7719503880057618,2.376026928523882,-1.776420491516015,-1.027420555837968,-1.8528169861366424,-4.61200462265389,-3.933071598085204,-3.4105711063681485,1.5336705805043709
0.6943576356175292,-0.4250091817301351,-2.6199676604530864,-2.534781188297855,-0.0402856205268569,-0.000928519562561,2.4663279223120997,-0.7008699020834047,-0.6336287069734459,0.1533920146346599,-9.272788278836396,-3.246702771546224,-3.877407302938771,2.5341375371837422
3.442672956815594,0.8226730020277451,-3.358806839164342,-0.0403156186155628,2.378279543497497,2.722542085544122,4.539245260734959,-0.0715354708458606,-0.8976586430717659,1.7264301331655898,-10.32107931472707,-4.66823271054712,-3.0709479873291743,1.4606720935452406
4.008733778776339,0.9258463143194464,-3.217007027990871,1.6289096090416997,3.938723303152999,5.7718091764421455,5.117690518892075,0.0641135107345593,-3.3716327901800494,0.0672639307181648,-6.533509056025661,-5.014272170181456,-5.500708274564351,-4.940551476542536
3.623584891264192,-0.3745265953934993,-2.369913861091236,0.1812397156481506,4.060149234301215,7.327882895902249,6.788902017944653,-0.4924685430806274,-7.513845439980221,-5.18415592149451,-7.419994603276224,-5.556322460199972,-5.958657193892346,-15.893886262481486
1.9594446179948408,-2.334952773610452,-1.795193756295708,-4.175807940323839,3.30382132963414,6.932277059729211,8.09950315285445,-2.0813025664940747,-10.96377068603348,-11.502201688607794,-12.148831704244756,-6.999545291407172,-5.216926605265174,-25.5826734478472
-1.833419445852321,-3.790759884799228,-2.236352435319956,-8.49820107902221,2.7787524352527035,5.676070993753492,6.746582639035027,-2.42291135397581,-11.427252238111636,-15.312629552470074,-13.503782691508976,-6.297306031384754,-5.878347786081381,-26.35868658771153
-4.720531810177972,-3.875671933061003,-3.2908304357582927,-9.303232473431231,3.225318042380499,4.92888455701146,5.523532290732712,-1.5345124557536425,-8.526284656214878,-14.570021822493882,-12.881216832030772,-3.694637946594239,-4.603293323032103,-14.46607627356762
-3.2851206666787087,-2.4515506498957547,-3.583794449596594,-5.451907448883572,4.506191969490163,4.949525828255849,4.532133885103508,-0.8002682370154582,-4.02945477716814,-10.013593721447204,-7.328049965243599,-1.4438614846968605,-2.607619036607172,5.95713710627418
-1.0203246184814572,-0.1304694408051023,-1.997959797102175,0.7711818788130858,5.805964495095106,4.7454359810536175,3.8556651812011777,0.2518167193094278,-0.3434811548383996,-4.300377377399155,4.727399950111532,2.5790573744665437,-1.4088325516193303,24.24254618801164
1.8268052986199708,2.0408549128135007,1.116067143254909,5.367239959926744,6.264816345454827,3.228264125036789,4.283503035271598,0.4802788438869175,1.3344093858640118,-0.007573881700142,9.159130747554666,5.193523641395387,0.6474464825552098,29.75946470889815
3.897043459565336,3.14120460673544,3.931467495860741,5.694784393526993,5.528144377375892,0.44135639500807,4.622203739354118,-0.3525552946322138,1.6067411374633345,1.810620624948081,6.174316393529487,2.825518778392043,1.6728604627072214,19.26815274823374
0.2066871645226353,2.974086197367664,4.515524921963315,2.3331320588306035,3.887347467334731,-2.347352938692847,3.09012549095031,-0.109215741794219,1.862432705457019,1.666484071534578,2.3373082829323617,0.8444684258842637,1.950708202789602,-0.500027064563136
-1.9994437743980136,2.28181235909988,2.492873247603982,-1.7013588891924272,2.0293154013171923,-3.726740492306977,0.3379520824398792,0.9960200217754154,2.7878094059848437,0.7607115621071205,-5.4514289184342966,-2.117021279510163,3.2431657746676392,-17.28239537008389
-1.8617923057783483,2.2069873844790675,-0.4634203309453824,-3.515323574843477,0.6099187111953985,-3.331689133048712,-2.3070944613993807,1.3202898293081968,3.8311988049803896,0.1546348653984788,-7.647074097917433,-5.069231639087141,2.816863426424005,-21.6322859218762
-1.8176600730030583,3.2254086217744664,-1.8653730234404435,-2.428084070299215,-0.1164168591557579,-2.063773182676633,-3.5978753406929584,1.1614124931650422,3.976024356292556,0.4224725436758079,-3.18255574138904,-2.2172682813424243,1.6051358983118489,-12.98649292179737
3.083203687211816,4.4523768340762775,-0.442111862334692,-0.0242397857527998,-0.4305142824250402,-1.2347706833885064,-3.772465508573361,0.487517137982784,2.867468739255439,1.5403119360378907,-0.1321371633011266,1.0019053189214615,0.5301713669313847,0.9211986334266928
4.958783384761649,4.15738659720892,2.7225935417539677,1.4959952149594762,-0.941305863597206,-1.4823516600479771,-3.447374541084771,-1.0058872830754826,1.1054327384174667,2.7851989095693908,3.818662426895944,3.392705772131203,-2.899967769914802,10.406670360598175
2.7566910002216254,1.2872371306270418,4.969147232013992,1.0286020672806488,-2.109764181249213,-2.3981549955057586,-2.687632778680716,-1.7514145062345186,-0.4979048678387969,2.894379499949,4.532537552011088,5.459432942202973,-4.487158845358421,10.688900179471965
1.7103447354775363,-3.3031652717164066,4.179248225778625,-0.981945550980813,-3.812493965398871,-3.0669497689402982,-3.765114580669438,-1.756640009370645,-1.79316508951268,0.8106258171074088,0.6860074499061412,2.5319377180000107,-4.7763522740734325,4.090544573346596
-2.902226997679876,-7.174217914145318,0.4944972211248299,-3.3304834974985424,-5.318846458249551,-2.9006223991123594,-6.057763864492707,-2.68307542970297,-3.324933069589962,-3.3007050602681938,-2.5178277679364784,-2.415847398419996,-6.638525558281721,-3.3401248957308987
-5.0730492871076,-8.098161280000888,-3.7909271807098808,-5.085244273053226,-5.7719918854557335,-1.9950041026419252,-7.885388089925705,-4.280048917321164,-5.4990260789165815,-7.704882389705229,-6.353251934574404,-6.904195589134567,-6.281814196021971,-7.159924080805721
-2.907778064837779,-5.82760043474525,-6.047931579999391,-6.0000201102068935,-4.816468776995055,-0.7960773157664751,-8.713973911404459,-4.37021346516905,-7.804232043496419,-10.056954284854406,-7.367230636503977,-9.24016912114089,-6.548467241123541,-7.199909186590889
-1.6612506098336688,-2.2585959504328894,-5.284973814093087,-6.231904016506415,-2.832991319736716,0.4657342431504029,-6.286158100783075,-3.053278763440152,-8.96038722289537,-9.126428355108937,-4.531289640815677,-8.287811335249518,-6.739057338207965,-6.018928583455383
1.672801255342565,0.1718286822947821,-2.642517326575364,-5.863201929340086,-0.569985143889931,1.959232183702354,-1.333993473159241,-0.8585369882247886,-7.930650618567139,-5.839894765962116,-2.130349391907826,-6.068639602767934,-4.182014796578543,-5.52581934475624
3.300126923791254,0.4371831301781883,-0.1118547840591173,-4.6959796711091055,1.4701706390414264,3.891582310478853,3.7638337095675354,2.725452707740839,-4.881594394112044,-2.6148095054271137,0.8918816111222571,-2.321118070664593,-2.951309523352738,-5.316560617312511
1.511663531258244,-0.4588015074827565,1.2803683297256727,-2.431502876069045,3.287854251256443,6.010057541469523,6.1637216269666535,3.9095222802298593,-1.2097639880338629,-1.452003832575579,2.01478551996991,-0.4357294243649481,-1.2638334412388772,-3.947317307099361
0.1725059983136633,-0.6245694876349006,2.1910571601781204,0.9305994991255826,5.037843358963406,7.506876825434355,4.598185485692043,2.4421608849530427,1.4042314948453305,-2.424985350118368,0.4257301534320231,1.3562081314022083,0.3282392290642105,-1.23746004126747
-1.912681692136404,0.9420013154478806,4.0172648329208185,4.752690944138241,6.4681323236063,7.476429797473709,1.9436194526133053,1.8294810299887851,2.1142615620798484,-3.8735388494404335,-0.7174196925649959,5.4685901626137525,0.0207256185307381,1.091257242242572
-2.1590414295141214,3.526216756157236,7.250932183162354,7.781200354447431,6.816845220387008,5.571580842436358,-0.2303556781872769,1.2486997235757669,1.298813424708528,-4.044048529816338,-2.212128484529818,7.945059160709086,1.5425738138470335,1.0889855480053896
0.039045647066543,5.44923788712496,10.705280018778636,8.705872960260535,5.424820556731689,2.349197848520356,-0.7016335004947883,1.1681302132316247,0.0029527200834049,-2.6165666087934225,-1.490914441428503,10.59434411973156,2.780695066301506,-1.2773827958705812
1.4599612188948743,5.607946636671008,12.362850738950716,7.046641075264348,2.559805280585051,-0.9460493444366218,0.7678020491336123,2.1394369230230663,-0.9647853864054516,-0.7577269616103437,2.104820275776502,11.481071310574702,3.4115932085094034,-3.743954800265888
2.312102475406733,4.392628186042802,11.10201062038072,3.724064270981176,-0.4118901132074737,-3.022826915083625,2.40481190923446,1.6181442743571604,-1.4471574167930736,0.2008118510840555,6.271561679932774,9.032482888509785,5.713184355576797,-3.5124852872685395
1.136802887064346,3.225078695917457,7.7470220392318385,0.6783615539761172,-1.8849630508588435,-3.240738302143501,3.0877687570179653,-0.2493979434263416,-1.5907641572849065,0.0982257767250871,11.831925406479296,7.691360918668783,6.587618881435314,0.5033200320024473
-1.5767497076678352,3.2175497524940417,4.486097773530857,-0.408669557699469,-1.306530064726925,-1.9818462910283912,2.8304536793314536,-0.7551070612934125,-1.2591002572304215,0.0635640690693115,15.317044811082829,7.860608835162226,7.1633100678097765,6.872318058537255
-2.9886203474348245,4.181391646362947,3.1533271849691813,0.6277305835207851,0.2489594252165683,-0.4521267476299271,2.2209755064861545,-0.2257158521309204,0.0386272464383179,1.45381212592028,16.222646668842494,9.935955081588748,8.364225930549294,12.745738286846452
-2.1377500743713185,4.817619671600483,3.859805330378017,2.278839305438419,0.8651929873195581,0.0509340111928273,0.1018814113236562,0.6670044694599111,2.5442771422010617,4.706865284910469,17.574390977563247,14.015070350190136,8.0410326958439,15.750279732050416
0.1523950892050384,3.8446886976318497,5.108590129355724,2.538667863417963,-0.6372226252962125,-1.0041964380322153,-2.010863558006849,2.434547906446227,5.632002531302582,9.078019419889465,18.460116359204097,18.070269206897752,8.135539534037521,15.221334836024225
1.9682710564657664,1.0551006172342028,5.191756923329824,0.4800058460096146,-3.695338013781836,-3.0197979067192886,-2.537666814046496,2.469198728582672,7.964639288956055,13.236959179972263,17.98406843670563,18.59006827006627,8.651444713589115,12.167855568912843
2.094146359335934,-2.527477725262327,3.589066632755885,-3.069703980898692,-6.492245385749232,-4.750734900026843,-3.133964435705144,0.5906430505818802,8.443569796205892,15.995039333668792,16.360023544305285,15.570337379515784,8.534920152081567,8.374328884221294
0.4793179911984511,-5.379798943864044,1.2113029267850297,-6.243849437141421,-7.509743293547098,-5.299432767577326,-2.1915029930040704,-1.161538277292168,7.090398041590468,16.636434536389423,13.435709373380506,11.574375812091056,9.211416406363158,5.417426645591816
-0.3998940194188853,-6.417171719264536,-0.5534462869613317,-7.523062892750923,-6.729232654097858,-4.7807955966808455,-1.496010924197445,-3.388796574259694,4.992498693537855,14.972012896954883,9.023946489795254,4.947437370837309,9.609731491425704,4.087876670881019
0.2831518671649417,-5.486096311364226,-1.0176527901369887,-6.61493775579254,-5.414925228440294,-4.057628024453322,-2.783470704350014,-3.970042744890601,3.36822112976753,11.444978867803515,5.87800791194498,1.1293512317151366,8.576847164271218,4.262543175205369
1.562578168441822,-3.273052730938613,-0.5986516990166306,-4.29756699728525,-4.771875774653629,-3.8236361327529576,-2.94816478507811,-2.465689284566434,2.6706628225764923,7.218591355992541,4.1416230172056565,1.5583610713596951,7.619604730345776,5.084481721025671
1.5947979398747236,-0.8916610761559927,-0.2850038326367627,-1.689555473592172,-4.819950857274373,-3.963354726555937,-4.018347433300916,-0.5965431724989747,2.525084666854431,3.836489633300328,1.1468003099894966,0.3021301303837956,5.839781162676849,5.394328831396141
-1.2320104995173713,0.5928688443315497,-0.8013046727943065,0.2787670534915882,-4.543893953071908,-3.830283462381149,-4.443903638570196,2.27877968541814,2.3707178064573924,2.364603377688078,-2.534775892046567,1.2572656807321927,2.875932749909832,4.403192110438024
-3.479787921800007,0.6117849817122352,-2.1743277377579755,0.9674782817128902,-3.08874179511451,-3.1092741257429104,-2.18456684960431,3.853041305632909,2.019777391193383,2.61296220946617,-4.146094624586284,2.1554472737417605,1.8284448890532412,2.362782966451768
-2.7995102000836543,-0.5776678703676614,-3.867533459194929,0.0994935665102536,-0.7558153394428997,-2.289801567913411,-1.1143618514602394,3.791686315174708,1.632715406818253,3.231488654557525,-3.819710438236244,0.1460109241643513,0.5249515138676497,0.664585053201185
-0.1217997028494897,-1.919537478294577,-5.165389187078352,-1.900983218856536,1.1975291609601548,-2.187265828972894,1.0435023123416545,3.18010046812626,1.3654448228905292,2.7851546732667813,-2.95903658479208,0.6215928672152276,-1.663853631005396,0.9239443649661044
4.635420933591417,-2.1326704622483845,-5.479930127695039,-3.675092229200459,1.736764733714466,-2.985968016808507,3.698072169404842,1.320976429091126,1.2238767130713413,0.955653572344481,-0.9838404837146806,1.13057648589478,-1.8202650228717057,3.448492662913303
6.784458497609845,-0.6190762507259429,-4.528967901444883,-3.4679087205121544,1.0282579330878363,-3.83808782503199,3.4219017484264564,0.9282613558963038,1.2153916699820195,-1.2011270188420011,-0.8738825980434003,-0.5035841836609304,-3.445947810420156,6.408534718093387
3.708275262140854,1.9348645430493097,-2.473629739377176,-0.4391207065986551,0.2585908250222255,-3.524445505586041,3.585706680998065,2.1729251628686077,1.4186118396684693,-2.1983729864603863,-3.005033685596157,-1.7661429654995329,-4.677910167472058,6.875098407908245
0.6180268869907672,3.864843771242464,0.0246124756139298,4.294653613075896,0.4888742122267899,-1.6057062411815917,3.449436599045692,4.096800760846773,1.768947270450015,-1.426971159044796,-3.3110470508453598,-3.970800820990613,-3.450042002322656,3.3168498748265245
-2.5651814031218803,3.698907852566796,1.9845232057744653,8.087741426859829,1.6731656883546684,1.0351028013829104,2.6243253000479028,7.428597314849099,1.8999846657834047,0.3321767033388356,-2.3975829802688366,-7.662534718249269,-4.212216369026502,-2.570211905954518
-5.051491363019155,1.3731233067761028,2.546219904182558,8.66740138216688,2.778602121968791,2.813351298975181,3.2524037790945286,8.706953331024112,1.4622028303859578,1.6082964374284083,-1.8892081859781005,-8.569537322190323,-3.706511963170948,-6.743354996232728
-4.723907141457401,-1.524812344410554,1.4239974134376387,5.988635027691797,2.8397222090182312,2.705782738340692,2.5664930439995883,7.730065766867671,0.7175775569181786,1.4759249508802537,-1.1743202990993586,-7.363986880628314,-1.9742025606740736,-6.131576748654643
-5.575155853309491,-2.8342899261870214,-0.9481610208226224,2.2980318555941146,1.8752087765752248,1.0519985592992782,1.1518914644128984,6.844443364098635,0.6543663671200819,0.2279978800816093,-1.578230021579273,-6.346628479462109,-2.184668068716627,-1.5712204966072
-7.077333455602045,-1.488087601823402,-3.655987262596872,0.2106602297298438,0.7896307807444876,-0.782551449497439,-0.6185915015779443,5.238314671041406,2.212136987062342,-1.0162459744135832,-3.37247043836812,-3.0093497965667884,-0.0262112141881208,2.547970762593472
-5.355890144765397,1.5749730966621018,-5.70681014189822,0.5208380800946806,0.4440943248181135,-1.5480288174566503,-2.825718111447343,4.52489525873961,5.22089664787956,-1.2905535683060405,-3.8514154959940585,-0.8069045686174049,1.1438257944131358,1.9701543367230911
-1.988500912058453,4.0968515678392565,-6.337857085851619,1.79330795822316,0.8896108511812351,-1.0432180255155608,-2.8185773514663195,5.056720981922823,8.187506263182957,-0.4405470642246474,-3.2353632731475006,-0.0600263725490309,-0.8385973653547063,-3.594804288360132
1.3115742224643527,4.318428293646282,-5.191126587508643,2.0689246320778345,1.4847001891568468,-0.0706133220665137,-2.026764616026534,4.127185215328332,9.357925687297382,0.9916828879914804,-2.623078566748214,2.530388776368274,-1.3833623042597334,-10.039925906214334
5.277240124455425,2.4104298603427043,-2.4650654146908213,0.9256483169154296,1.624904438713914,0.4405689271461934,-0.8009947214383919,2.074300959841649,8.169510977275468,2.327323338774697,-1.5062275536561271,3.9952280493339862,-3.74176270610405,-12.33013253533649
5.737979586420707,0.2281796674808589,0.9754165036960014,-0.1987405303429543,1.2152371383067972,0.2611961469375288,0.6625028340725907,-0.4348953026419446,5.690587867155644,3.1255234343633944,-2.2754354695285373,2.894291846045239,-6.273958490618946,-8.779906630002241
3.769883961233754,-0.4469300493847647,3.760093714849337,0.2825696127584756,0.454137340810103,-0.1263177409127713,0.1980042199050881,-3.882588276282301,3.564288736080924,3.1507422094919946,-5.205449332629333,-1.6387750754976649,-6.102710584756687,-2.354712278431082
6.541311851819858,0.4034473606351749,4.598963202349367,2.166191707766467,-0.6128176857894925,-0.2468960839881742,-1.72053417035782,-6.8418100892087725,2.447718772897515,2.249984676601434,-7.0398644828167365,-9.525133841792163,-7.31493844245965,1.9961975317198155
10.650338650238876,1.0054255038024644,3.0270086025716463,3.340886542878774,-2.072503709622236,-0.2625102902539407,-3.9557242756403728,-9.237877243664336,1.4571537990086938,0.4652137485859775,-8.247941459170786,-19.365569827300757,-8.348602670988775,1.4272764987913584
11.728838493416244,-0.509431891359517,-0.2810492788473535,1.695625943355067,-3.657466115414508,-0.8051930194749257,-5.445240437191461,-10.678872306327111,-0.854309554010392,-1.7798050051372556,-8.699581634745877,-25.853462729114305,-8.481478014688765,-2.851620596337435
9.086491412663152,-4.26293940720954,-3.984297112451225,-2.78653430407749,-4.533883895780061,-2.1691531994267965,-4.784768732954603,-10.703440260303736,-4.9609119661183545,-3.8508169609241296,-7.747478715447297,-27.15671704529255,-9.32795170434466,-7.132496392798155
-2.278333283017968,-8.387220040211442,-7.011861088802437,-7.777549804368423,-3.8983255995339263,-3.732846718225853,-2.377972600172685,-10.863464372372125,-9.75948702556788,-5.469020146806372,-9.628751095601675,-27.727495988246027,-9.355022307590712,-8.567153322915157
-17.710133375960957,-10.595559007636288,-9.157596102352654,-10.435911734351002,-1.9108563557107043,-4.292745313315773,0.2450672628921635,-10.942095751586868,-13.430801189139103,-7.070334547155662,-14.395414277019505,-26.381320711769707,-8.938695164708294,-7.40871169388946
-22.3483154974521,-10.068353544732494,-10.809553707726897,-9.6277598651459,0.1142471742812585,-3.0748186521599727,1.568906476422672,-9.861600459226803,-14.874149051119002,-9.35472150131508,-16.2598112152936,-23.684540907535,-8.819229914191233,-6.561624097992317
-14.561887785420442,-7.93287811875776,-12.132809639995545,-6.612305757083959,0.7061981054503352,-0.4839779421867387,0.3024343776174374,-7.801815924068309,-14.346665822937291,-12.269480488658411,-15.815609076037871,-19.164050464989835,-8.55888482606977,-9.140476718228552
-2.7365388110620925,-6.049437120477911,-12.596205230880813,-3.796007634625653,-0.4167186107576226,2.125462590997476,-1.6005932021437734,-5.085132733749431,-12.836356479934253,-14.492482079563628,-12.731202993862649,-11.103434164637967,-8.397602996674493,-15.97003019912754
10.426262796785588,-5.408508100194865,-11.41164946614438,-2.8434995023653755,-2.0084876522057176,3.4665552286531547,-2.6945596452168883,-1.534769063789813,-10.983658523687817,-14.229918429887231,-5.688640613860511,-0.8270735873276147,-8.003533021438601,-24.60151879962448
13.586345922169984,-5.629572967497901,-8.507775276591795,-3.7367253225060217,-2.4010358843948625,3.241723683214608,-2.733750906819273,0.2623588635657295,-8.712175722773988,-10.855664311921773,-2.1376143922690742,6.090214256783214,-6.996487978287046,-30.31981193301417
3.601184089835156,-5.789898012552742,-5.032396956583208,-5.261658685107063,-1.038862180501562,2.2323393854056253,-0.5261378012315767,0.0420214189147737,-5.837393971495244,-5.867522602332539,-2.0274760628887747,5.583438751536566,-5.913265041690485,-28.659790704127133
-1.7780972253761531,-5.504697848832655,-2.7368719183028167,-6.140006345085137,1.0442676211311452,1.5720941782656928,1.6726786148662864,1.2333709899304564,-2.8024306613768983,-2.0275910605989464,-1.7533770399860311,3.463948626871303,-4.432371840982564,-18.27333768884264
-3.3122143830643616,-5.126589286034707,-2.642514260988947,-5.760486835337179,2.2654741018227424,1.8595321024996252,2.292948732228574,3.320569370664902,-0.5707230901115636,-1.1947726928267253,-2.946145286945403,-0.5551816497739823,-2.410922543295017,-2.506382608474819
-2.6605159794062123,-5.021139645878934,-4.131724819252566,-4.17474152990144,2.021991760400944,2.794652792267237,1.9579272368334852,3.894855823601976,0.2977657472450836,-2.706753811711125,-1.579463770213689,-3.17779833837319,-0.0787217394423009,11.762383355497152
3.365435699399224,-4.855798461682406,-5.318616249214757,-1.7756954768232367,1.2198365435326917,3.539241917391834,0.7413043979224956,3.3646235071608053,0.3616002729786629,-3.851059882142574,2.845325921863356,0.6355939317919436,3.607517525513309,17.994479472611616
3.668399057974408,-3.7310763476062174,-4.4799927381564055,0.86615125009769,1.317565707843764,3.4540258793495022,0.6242272680703359,1.4741340744141402,0.9101810927235536,-2.161358651042057,7.125538716146293,3.702882546187805,8.272871995113388,14.324006073156108
1.4800388511560398,-1.0286586134645566,-1.4170938584061212,3.018803847554835,2.850179337990069,2.631458423078083,2.535106003203721,-2.2699690327835205,2.7356894821415736,2.396194713819465,12.271230458788157,6.211481933565361,13.186200547604866,5.050907328444842
1.483521959792103,2.884520506746319,2.3361638014425816,3.983107887719143,4.87663963982096,1.8256695394404,4.6798059702707375,-3.3357893986663747,5.271126656207235,7.272683753680495,13.97977660999301,8.522750465791121,15.710445871037788,-2.298862944686161
0.2870658999600426,6.7768894547260565,4.6144530154307,3.545086791528991,5.869098318831951,1.8362689714654064,5.6889416034804485,-1.5912383982452905,6.9933027376678165,9.41188549842425,11.5082009184861,7.224093713822288,14.338221529091763,-2.372797105812392
0.1614543220267328,9.366037471740054,4.175396460751877,2.2960273578050785,5.16370362160786,2.829832007683091,3.466779267309763,-1.2492246826432882,6.73186725051362,7.793042939080242,8.989832318566261,5.767974593653967,11.489629986412046,4.413735888752472
-2.69612761613591,10.109182167528566,1.5562095660711854,1.3692568504313654,3.5677356524519395,4.164197190941078,-0.8994363110870303,-1.4184852110163146,4.633555662773837,4.244726596958565,5.264940111618464,4.506422457888384,6.48054783594728,12.943896042926632
-6.130093629854647,9.378749023031482,-1.3289291008195168,1.6528257287436556,2.5508661144049887,4.902219415898829,-3.940122547526882,-2.408598474249388,1.9080983617033656,1.8154247501470229,2.559319048942154,3.168553902806676,2.480896618834621,17.910913744576863
-4.745432218360131,8.018495072289117,-2.4808640757316605,3.100094755768164,2.815425615486649,4.620557601857898,-5.29432821561883,-4.919749822483251,-0.3032632323621129,2.110952978345661,1.5668357722765327,2.9764134165971847,0.7004551155515295,17.639641635417576
-1.6378158212122051,6.717850693211263,-1.064826215393852,4.749297834336328,3.622747522190535,3.8218672697718006,-2.3935965113992275,-5.9228889510535465,-1.8129698839914816,3.90636694901222,-1.8629047864157844,2.449288677038452,-2.794671424066431,14.116405782811682
5.692069147547258,5.640018968973956,2.1734134908147373,5.4486818898625895,3.503811681984608,3.540390452261663,1.351062109338287,-5.551481473702337,-3.2741496691470147,4.220485173933811,-7.189862185141048,1.88194975894651,-5.994700015824528,9.969722162402832
10.727312820045777,4.465434744062502,5.493789703451002,4.684357663058547,1.6627495399952608,4.408229162033358,1.7788827854441178,-5.094144728889077,-5.337698771451217,0.9088983282962352,-8.919869348623248,2.024202790221708,-7.032710505708719,5.871202703549566
6.735443627255391,2.772454028491301,7.300549866708177,2.8907014193359477,-1.2284456358114255,5.957774597657608,1.6593960425057326,-3.941484675542581,-7.938166975744136,-5.417812056230531,-7.312645680903318,2.7328247776733754,-5.849080490690191,0.8439953771376794
1.814965158562048,0.5422479487554135,7.113124045743675,1.130282769777141,-3.512483577265065,6.822075487696573,-2.7745258311655983,-3.240848461661634,-10.259580732683355,-11.67142387316943,-4.300569610710775,4.618492351400728,-2.08613786668317,-5.3860490209501
-4.972799058564377,-1.5371877726586298,5.794091282424681,0.4858483601747352,-3.796474398087012,5.786364916893669,-7.153078483764994,-3.130676704955338,-11.236731405190362,-14.408238311071967,1.336579068189963,7.169270740426042,3.669608802134473,-10.942901418981531
-9.083162371072746,-2.315578420796845,4.8941960074122814,1.5292323352710897,-1.8918349104106245,2.888006874830676,-5.597972696398698,-2.077057566644922,-10.123685304458972,-12.078849611298333,4.227410343738168,8.682060077227565,6.274912914674776,-12.99049887654685
-4.9575441410833605,-1.014583200511474,5.509162332137246,4.014270468836804,1.1807245624201776,-0.3959106186008867,-2.832906316667421,-0.2951292940680752,-6.856328234959356,-5.853680465351568,3.9605366544227545,10.325897487093652,4.971776631607697,-10.329473739930323
-2.0990572456852026,1.903730921546753,7.4201302811205,6.871816518006868,3.89728711275902,-2.162292682475272,3.753137528480867,2.8326338042511647,-2.18789264769665,1.2751348989737965,5.279094226335476,12.01031757185904,3.83836416754287,-4.668211226353364
0.1150857880803561,4.715063772076373,9.202520392544464,8.647818736215525,5.031432565589917,-1.5609658507642976,11.251287759092198,7.671349263109932,2.4579684895060705,6.283001226448629,6.984863930489209,12.872801510277412,0.6661848240514538,0.7680482558201476
2.2548722247105397,5.5999505733428485,9.339641725494776,8.363889189978476,4.149654556497623,0.4956976176783136,12.356319770830702,9.858082456808123,5.554885610201586,7.670216616978083,7.490660664019886,14.341987969417916,0.2875151729211381,3.943506656204004
1.324614766432676,4.178261051829633,7.538443453452139,6.305425588861251,1.739507541214646,2.063024614838195,10.237642822874614,9.3154535790346,6.344003391196459,6.037910211999247,7.262371796733642,13.348056243784294,3.853019331640245,5.4728977413945685
2.3054446538355133,1.958018431149437,5.13249865859818,3.991280107780504,-1.0208599724919445,1.7612946027002607,6.846197094291041,7.642325883606154,5.412838481915056,3.490583167100599,6.464629932428508,10.320260590563576,5.629659378532276,7.605304290392574
4.484171356177715,1.0673415697883328,4.105132010452792,3.0921298924255467,-2.857588678702641,-0.1441670508139267,2.9419371028519645,3.751105551400722,4.345929054708158,2.220122673765601,4.879394573604466,8.304592127594892,9.8746622501229,11.874197115311777
3.468020933777623,2.336804404487744,5.461093653972178,4.067553826501399,-3.1471871444534365,-2.123760198941256,2.098362540175517,3.3778077860290283,4.523545830957488,3.113908104230209,5.516393839810445,6.178084948907207,12.692397279532948,17.63684488063511
0.0657945112887489,4.611504118148556,8.34724160163817,5.746666530512943,-2.302674841029866,-2.827442924080053,4.08422915976255,6.93785663767052,6.033328495977496,5.334253673301252,8.628716903392721,6.461306932142444,11.520559939789097,22.632956468589427
-3.614531367283248,6.016375053637361,10.748402318176836,6.324216764585046,-1.3987148825902975,-2.2193884684825638,5.0517920141104895,10.414637137796545,7.713415633163379,7.203863341309926,9.967466956213327,9.361875899467414,12.35850356917,24.723988681649733
-7.880868074186106,5.829272381633626,11.187371108323198,4.9057904604533,-1.2642654472509527,-1.3853189254937242,4.42908096998908,15.19191651116383,8.321042693863404,7.669473235647416,10.074551304488828,10.960741884385635,11.355836036448618,23.12030236756452
-7.399171535758909,4.925044067706747,9.918913130480014,2.187726317937898,-1.8259442040021805,-1.3157876182763175,3.380309147068413,15.20112150008989,7.684639124076583,7.053452008650336,8.427798980635796,11.257700237361906,9.075293517193325,18.32776381784373
-1.6283633814385845,4.359482736918,8.555744159343668,-0.2818257457003739,-2.306208996478958,-1.9398135331116075,1.09868169812033,9.49831629374454,6.677142776477094,6.434474834498509,4.101355964985609,11.56877244073608,7.925025124266455,11.50429918814985
1.8666250126470407,3.858035233556784,8.504650941626917,-1.434827022249216,-2.0595649901620128,-2.349299588536674,-0.6661925268206874,4.358633204571466,6.069067512531809,6.331022268326436,1.6479743202712305,10.227960266775405,4.900532608925427,4.227478513567519
6.173146859764618,2.1726833089658832,9.658905425797762,-1.3329373616712878,-1.2151598667819208,-1.907070708580612,-0.7385976496825262,-1.7503869580767517,5.526179253250902,6.059971571385212,0.8865663943574945,8.486505280680785,1.0441437804610725,-1.3783455732640135
7.179675258497961,-0.9464593287851956,10.500700800258343,-0.7262659936248212,-0.5244396777624338,-1.0543530026911974,-0.6951132057000119,-4.169882929366964,3.9014413588570207,4.447126745584477,-0.799799014149234,8.323838587547707,-2.410975297970891,-3.1460681657835714
2.273505634559019,-3.574402147204093,9.438087303489503,-0.2519859282262437,-0.6274761476733914,-0.9695653470592732,-0.4492400803752808,-1.576092309608589,0.5968354701533158,1.1629005532575825,-2.548237298288835,4.722042861992139,-4.34392030922441,-0.3988773455014307
1.5789357510392432,-3.0701476933187024,6.135933040194793,-0.1621172837921847,-1.4822612304971408,-2.3988911961065758,-0.5160911577961269,-1.1357645575002404,-3.4177995072243643,-2.6921991891446364,-5.783136042907835,-0.6000467428554576,-6.4479328818418775,4.722526773234732
-0.9601169083501816,0.9516109831757332,1.7405068635195349,-0.6244890399431213,-2.4590048913037883,-4.804854199919024,-1.480405840874231,-1.5941842941551487,-6.074033572149752,-5.3640222351279085,-10.901973417200296,-4.297431288227603,-9.22113882473042,8.002848751135993
-3.940854814612124,5.368995060774576,-2.0210528839090323,-1.9034231490789573,-2.9266694171160985,-6.687403560455476,-2.5266787892315627,-1.608521235318352,-5.826573767589597,-5.833977939782647,-10.961984430177434,-8.0392667902946,-7.7699787533039535,6.20635858755189
-1.6017370998995395,5.899047774534003,-3.9717954126651343,-3.98355424372717,-2.7524351642511977,-6.82123126296405,-3.266582965764628,-2.276017679579639,-2.9256396448691504,-4.510131384428343,-5.835418173796018,-6.736684716958266,-6.2260329593864,0.115166486302833
-2.9793423486810573,1.2111234445064811,-3.989205092275197,-6.074119390609459,-2.310030252566678,-5.285620819783803,-3.382289657823215,-1.1767032762090397,0.8305103402844392,-2.657507412765682,-2.003300209809244,-1.7026274272437796,-4.564481957395031,-5.50831436431519
-1.860954108816172,-5.219777447758334,-2.774328526652578,-6.801386848992195,-2.0659568891545224,-3.3424845770554192,-3.2244022796753167,1.7474167344334122,3.5691624378846027,-1.2384547371515957,1.8709245838900288,2.1699656812930823,2.6983691133629337,-5.715662820074899
2.154820296313676,-7.702494602699049,-1.3675691532655634,-5.23529787472841,-2.1350085609113663,-2.2821555831625133,-3.4688426521650984,1.5936993326507485,4.639912899833693,-0.3188116542409585,1.6363218000698163,3.149942378592297,3.514948533050398,-0.0183374610702966
1.6171728930691889,-3.2985691983279564,-0.8105043357086912,-1.9039167424049968,-2.170254605896716,-2.318915685088132,-4.13910029129174,-1.480517296818776,4.628976665686466,0.4800548962029838,-4.185665962181583,-1.4150495060877462,1.0222256164616512,6.343525129617629
2.331284256520324,5.3286707229309656,-1.9016601317789283,1.2499629463723725,-1.6863253812299464,-2.570401218242792,-4.923780337860963,-3.868862523681318,4.302386792198573,1.09847649933267,-4.999895248860879,-8.739271615251644,2.6639847950435334,6.191725967695252
0.6297765972397145,11.840371435040854,-4.844809391810232,2.1272048403955743,-0.5862545641837587,-2.11177155006071,-5.222734847516519,-6.4840699911178055,3.6742219194825534,0.76128884844311,-1.662894980426966,-17.25138772994153,-3.164938559514127,-3.486824521887037
-3.3485701086853927,11.235808697763732,-8.921206109148594,-0.0255106663197337,0.5421102012060759,-1.0395574338553133,-4.71899367618236,-6.982674047181777,2.1304909061117363,-1.2995145892304114,-0.3815450258716143,-21.853436586622998,-5.686791652457201,-18.263391095407705
-2.8526536412830783,3.5955068969219752,-12.635361195115433,-4.095356577244669,0.70777577766306,-0.4446334186727405,-3.807283464699384,-4.624346764183425,-0.6069176330171211,-4.790551500168288,0.6231830455322632,-20.88928031197667,-4.1792841706892325,-28.984455125327123
-2.309427898326622,-6.41897285044347,-14.535319266889411,-7.934583058477584,-0.6999317073295206,-1.2650610967960605,-3.646982954312553,-3.909267045873854,-3.744926788909545,-8.070649061208327,-2.078577907781661,-20.183210759336827,-10.208495128964085,-28.73151758892529
-0.3696805387148796,-13.41668482522769,-14.214156244175149,-9.77747125058218,-3.1971767450900157,-3.137929304020453,-3.9453101826232015,-4.262503535976449,-5.734550908847643,-9.09763402826588,-9.607122198503127,-16.918456561562248,-11.35244465642457,-18.47409690352168
3.355355550935616,-14.960142553242424,-12.611705818003433,-9.117624000947531,-5.241833656849103,-4.452300453596553,-3.6857084987673385,-3.821301028008359,-5.422782575530331,-6.944485916464853,-11.47947999986079,-13.837553738498794,-11.191225612301585,-6.570001643115724
4.08423968535533,-12.33030783557733,-11.21390260623633,-6.577554134836525,-5.193536357097711,-3.6880290864049776,-3.0453902114610907,-3.295325602065389,-3.026353875741899,-2.64851424380492,-8.136614225125038,-13.21226384595458,-14.115264545913735,-2.194942484620931
4.21488147352033,-8.558428745663262,-10.75479070765958,-3.2337632977124287,-2.5786637080009847,-0.874893445277884,-0.9397783441942608,-1.593021907393524,-0.0746188891719867,1.3368017336487394,-5.702947949399551,-9.254882329532904,-11.070911612667633,-7.963868771352205
4.0818991239002544,-6.013859114283067,-10.585699333680129,-0.1477085144663306,1.3435600034542643,2.180123905431742,1.169404406193154,1.5426078053181893,1.6236191653387593,2.702118073389564,-2.168965319891305,-4.852365980671425,-9.24007894043406,-17.93258850873396
1.70301240859569,-5.447091517843127,-9.357546285636564,1.6833663775485237,4.275568117121267,3.187186992070721,0.5710347657065415,1.7261434738933013,1.142336411594446,0.7202429669585477,-2.2726919904341427,-3.226671400979039,-10.522607554151572,-22.749407750079925
-1.029524926568657,-6.49171235688047,-6.467434148190716,1.3837162067847115,4.421695670861084,1.1552817150933947,-0.6641850858936039,-1.073444849264397,-1.1285094821741026,-3.399258879686542,-7.095353774637284,-2.025959082076132,-9.418311735166393,-17.611766406097033
-1.3688935517224097,-8.416344021470149,-2.955929984435848,-1.344010673240824,1.74890114452122,-2.7840515730134,-1.8373075567830397,-3.627129855620246,-3.9620067003396535,-7.361583493672843,-8.587589690714438,-2.300039264782759,-10.037059512848897,-6.255516045403866
-1.6140023795389729,-10.344843730883015,-0.9491096985853602,-5.643023718579826,-1.997919308178723,-6.152950960644724,-2.1488540961774234,-6.839561282695761,-6.169731394274493,-9.18219538304151,-7.775219586006552,-4.773765215347605,-11.46661502751741,2.2988252077158826
-1.5813063335895474,-11.25380634925607,-1.9944460766614185,-9.559214144864567,-4.5559984355371625,-6.87257369374305,-0.932920547863566,-7.796680727718645,-7.2017953587310615,-8.227225035831793,-5.08918557202339,-4.751775816228339,-9.021642089420846,1.2494907127230943
-0.8510772750094463,-10.348958766270698,-5.640979740806927,-11.071211909119365,-4.737398565802863,-4.650116936056492,-2.2633350142393485,-5.809416381613064,-7.174257201576857,-5.325160220785556,1.0511003657657156,-4.216817119287234,-6.222257029938971,-8.614873029932689
-4.162658547609674,-7.704787027268516,-9.488057235304304,-9.45476600852964,-3.161146642399487,-1.0351906284545365,-6.027957456676772,-5.403863906855733,-6.505291812970256,-1.987661170024168,5.050896462350253,-5.347668675460348,-3.433948404647775,-19.75714655374804
-7.895100753602595,-4.4204127819738375,-10.768640539072225,-5.833069955650885,-1.6021123993733184,1.7885199219630294,-11.184447037836607,-5.876435184327124,-5.526443412350716,0.6702997920535978,7.067620564893012,-4.596174379205767,2.369843801877597,-23.582224738018557
-7.746425974742239,-1.901228487365664,-8.293306066329187,-2.355599796695841,-1.505378236999988,2.5173027569830992,-14.456646507558776,-4.493842817557343,-4.297588871612831,2.5385053809423965,8.334069885562782,-3.699724287820772,5.474037691433127,-16.10385865988055
-4.387115192270644,-0.8259053825275089,-3.2695834111893163,-0.634762320573131,-2.847256951413236,1.4637300226503598,-11.394946579689224,-1.8124040595499864,-2.636552695857389,4.245444223078032,7.568983567721289,-0.7348014447033977,6.551848847218766,0.2401050775988551
2.1020549976847205,-0.7560288638349135,1.6227052005907865,-0.7082113548402589,-4.219149157935291,0.0940626367972896,-7.1049052520799885,2.6893364487394686,-0.2805531901514939,6.327357011953858,8.565210008915457,5.560426043639126,9.535278684854685,18.761410558490866
8.429745581536352,-0.7139793205411564,4.161048675765287,-1.2865529080830456,-4.017116379971306,-0.1630281401532514,-3.1068422086627945,9.547462572198777,2.880593046553571,8.617049044015573,11.33573851810992,11.30925260962442,9.821365464770604,32.237915112620804
8.973261308382082,-0.1110010236520082,4.017104469525563,-0.9223190234740456,-1.74611081813039,1.0986966625142145,0.3298689095355784,12.336993190815807,6.5575553796523565,10.393093147800656,12.158461477985815,14.82689297997841,9.993587356678407,35.91464037482799
4.253351798644289,0.8443283901889487,2.6542725944781864,0.9354262886446918,1.6076114704731026,3.1535702929148925,0.7492813453139401,10.823142110071448,9.936021847367414,11.071849350450364,11.663513896110674,14.768838191273446,10.7179900474468,29.051206557903345
0.4404588791610927,1.5180685794823603,1.9153408899491355,3.743835198777191,4.386641837079992,4.8601271831986566,3.5223734081339844,9.700393160412546,11.865868592800652,10.70479395165036,10.048739751545346,12.276618142342585,8.354467359349258,15.052358813238328
-1.268062526596851,1.5296801365358164,2.551444915528293,6.442379816746481,5.541284926770956,5.555205090138728,9.792116850946186,7.538990230192503,11.4225277224146,9.801382683544574,6.649560179159295,8.940024694455994,6.238495012977685,0.0257315400808835
-0.560547304994278,1.0988289581833612,3.8583039548177,8.164906245406684,5.320087803858314,5.42815516927125,13.653695570956318,5.872225753005137,8.569361854750966,8.729875022772347,4.143107438401617,6.04153720003363,3.4801203810870844,-10.18878108698992
1.095869281957871,0.8173195700853313,4.539246808010859,8.550291430737616,4.851623239159721,5.151690793737785,14.836350896854984,5.349594539887068,4.394246274197286,7.347395513301024,2.510439576804917,3.19350104954531,-0.8242465069769769,-13.230576301019426
-1.3234082493371613,1.083458456246575,3.886170653545747,7.614822433681198,5.040908265592961,5.145813856084345,14.54041234601628,3.0359775348051192,0.5550643427865225,5.193874626465387,-0.6367630195901609,-1.129073996789772,-4.951765167951414,-11.36220178955294
-6.672487949484682,1.6608050998225536,2.2583147607627723,5.527508496998919,5.7614091817270605,5.130098660549294,11.794928110493176,-0.6356325116897669,-1.8108780870323216,1.9910165944461369,-4.834141644200605,-6.201176349105283,-10.937381666903857,-9.197640549104094
-8.044222976797384,1.7567392901538028,0.6261990330118294,2.6040136569516505,6.040780834991836,4.376902390401369,9.633291026737346,-1.7253944212059211,-2.861156467074281,-2.0175677925637103,-7.137906211317337,-9.174116148100316,-12.881538925240486,-9.48180515057392
-2.871946943845212,0.6903048471183268,-0.2157761284684909,-0.5034334205419952,5.058771808913207,2.4876593011994714,8.979822390079848,-0.3749395615747318,-3.740611134462185,-6.059940420941501,-7.651566242166461,-8.740566250894664,-9.47866755708536,-10.573984924705655
5.6285993074770015,-1.286062716751502,-0.055220617393445,-2.763729643045451,3.047988983651095,0.0193531215363407,7.122740036297223,0.3337321619638706,-5.324140869668241,-9.03979417743055,-7.967227001081057,-6.331687706865622,-5.716566547690271,-8.284912027404886
16.37829210153645,-2.797768329667136,0.8609065183578082,-3.191887792425092,1.2411564208980224,-1.6757163358026332,4.01559975932457,1.1285796396870302,-7.124392898568978,-9.869142139635628,-7.460014388204749,-1.9585999451529923,2.9120560275758685,-0.7852510006279729
18.83334094100256,-2.278245814810816,2.088180154942876,-1.6237526715831336,0.8374880822471553,-1.4140865314126216,1.9573882215016345,0.9756200563891946,-7.512398984698535,-7.989037498408948,-6.933508488067279,-0.1330812747520717,6.907988489114241,8.086463777073199
9.413254339445157,0.4980226009755029,3.047545394543832,0.7891302674084102,1.859714511364075,0.7728110243156578,0.5269014599671916,-0.6881386744203406,-5.247768292367866,-3.961653442219969,-6.565758509310891,-0.6717044479963299,3.6974516201887866,10.988840351600814
-0.4534915556188047,3.6612855868789462,3.00868313036635,2.0234904959862305,2.944705951735301,3.4259287827618508,-0.358425114753766,-0.7846291385676251,-0.96027337192546,0.3759527337369874,-4.661824596637591,-0.2323893940880005,3.688190041258487,3.612634792505034
-12.584195041714988,4.3207413283903335,1.3468854655647675,0.5434395383031472,2.3498290260435866,4.574934519470986,-0.3103074045203987,0.4250963222117664,2.942214543253584,2.7114823889327653,-1.3456405475466884,-1.6324234434041474,-0.8619659675445945,-10.258038583238893
-18.19250363266114,0.9328400398967815,-1.897657886305396,-3.368875360728282,-0.598361586265689,3.127518356394745,-1.1626880800450443,0.488016044600507,4.100947713871349,1.802420542619508,0.5441125623524855,-1.0461135621922193,-2.800229811303065,-20.53529265493094
-11.86514370091835,-5.018875213340124,-5.648994367573323,-7.507924652442021,-4.805406174368521,-0.3572681192124847,-1.0388234338446836,-0.1590249725661379,2.235331496692794,-1.344680234429653,1.112200947493307,-0.3475193372173719,2.78528431968126,-18.81043539472145
-9.220409748921693,-9.74970433871924,-8.16093136267014,-9.19975088055461,-8.056038489932284,-4.096560221923724,-1.9861122428786664,-0.3781306355335477,-0.5088812152918365,-3.8545902163691608,3.029866035507592,-2.799777613310064,4.19124403143644,-5.678547887897508
-5.95055131402098,-9.99227762717021,-8.060746900750125,-7.290323285189928,-8.512846678339095,-6.30346444162717,-3.318260654004181,-0.5036870519735606,-1.3283765459991983,-2.9945316854635,5.829194952001454,-2.657028393907754,8.71430042170946,9.49780008652251
-1.546091416353853,-5.604109484761402,-5.296028680107263,-3.0332999466856165,-5.926303685599656,-6.2094738478341895,-2.522380946816765,-0.2854639307521885,0.8510743453448057,1.6007548565564704,6.874839887863044,-3.2108860394505063,11.936886085335676,16.52630011438488
-2.248475878573726,0.3205456933546031,-1.159080898970295,0.9215197084561666,-1.711410738480879,-4.211141574216896,-3.5043244069249835,0.4511265539586358,4.463006365975161,7.359374134938157,6.383405831559248,-4.302049157935442,6.942860760678828,12.85335467484104
2.958916117114391,3.9751492077753774,2.663857848599225,2.614431683056427,2.0515233184520856,-1.2864024775997225,-3.36013626415837,-0.4219204863779398,6.631942774530799,10.529354225961995,3.277308181078398,-1.4954611940426248,4.033824233413843,4.801373358185888
11.323274050059569,3.823918770963784,5.18619900849121,2.169627374524966,3.900322768697693,1.6467048093659835,-2.1920701291054936,-2.9692038447968683,5.528939585627153,8.980657870019487,-3.1921930471906745,-0.8350427666023893,-1.2822793670574213,0.7341414488015836
13.21025486807227,1.518170515846198,6.431427383351577,1.3577112075826223,3.7076755371326593,3.945340162200552,-2.7185517183534627,-4.762033048586128,1.7121077750144034,3.786131100805926,-6.558819420074951,-1.152585409301936,-6.606521267101514,2.98481903618098
11.380436323636012,0.1174558450085161,6.853309148276649,1.807192663299348,2.487379809393717,5.127672133285015,-2.2381404047419893,-6.176637534594891,-2.5603690433056605,-1.7220688585199957,-6.876570731764943,2.1255366284181365,-5.836012721621626,6.269099507339153
6.790161220591506,1.329616098798418,6.640527076458735,3.4889072358929543,1.5555590449329806,4.848564004789679,-0.0226235480661777,-7.099445555363978,-5.235959443199528,-4.588472183105365,-7.2093805372226525,3.6355015890094142,-6.694343026706022,3.711593865931292
-1.3012042066437663,4.183765613315131,5.675778345178813,4.775888397918724,1.6417862561559635,3.152427491676857,2.4915641513949267,-7.054495116345298,-5.856724042501213,-4.313956101166333,-6.122550517290684,5.147204069752154,-6.95886556244698,-5.743199601536322
-6.133434216967291,6.131038171156121,4.055677852007722,3.95841680992568,2.497066072355615,0.7349290732156248,3.958154956273781,-7.45248668358025,-5.394432125555543,-2.7276036337449554,-5.759756534798048,6.9100021790732455,-4.599903553932562,-15.74480437283147
-4.983285057340007,5.444847823238639,2.3726980667586943,0.8687816693286123,3.216724216737596,-1.2061273148780671,5.380930077619892,-8.152591907293683,-5.005722768737112,-2.028004509064488,-6.386033302981893,1.407932312801931,-1.7000647873750558,-18.057713266666056
-4.09485569910421,2.807002581675981,1.2674121044529656,-2.7476139054969195,3.0405859910729305,-1.6053382886507137,3.66097579057632,-7.9507787009842845,-5.03512336467584,-2.924158022164143,-5.4395059405195125,-6.454110976164471,3.670416247695644,-9.768348934782608
-3.7099030508730912,0.7964009122225946,0.7428833729581754,-4.395243880043623,2.04762266150761,-0.2258385402675955,0.2847877702581629,-7.016934520683924,-5.097612757783338,-4.470344653319316,-3.3434444228763645,-14.046986309166163,11.158046808908813,4.396059302633681
-2.3650264399847147,1.7787114239635289,0.1715810303735594,-2.593425983072791,1.181378430628058,2.1562668021014986,-0.6846248403431154,-6.250340412610818,-4.869979811676302,-5.41609966742827,-1.4171524873003576,-18.352152409727942,14.604596360062033,16.26408342945649
-2.9172047651185977,5.943294245763354,-0.8234956036201453,2.0753775457415315,1.5122246187309685,4.278103553838776,-2.751976084512357,-5.49596053283936,-4.571931278401422,-5.492563943748195,0.6691845996176632,-12.954811576492732,11.609403961606994,20.651440211463267
-3.713882545171933,11.051065102605492,-1.5777413809250476,7.3294338356421775,3.275733077114125,5.238015126222223,-1.0706109069912086,-5.751908090576718,-4.609847579745377,-5.353031632989257,1.7910043326951557,-4.178121560173254,7.52301633710542,18.31483455477182
0.22131907206264,14.08260567665944,-0.7824998476350657,10.621714727720828,5.489371834241666,4.998157333601668,2.6863362911756785,-7.292773207809316,-4.864292323976812,-5.439639538596566,1.6308122643065284,6.722080511529771,0.7039721770292972,13.548786378150822
4.594469777069501,13.483187811468357,2.063111815012292,10.63242547088123,6.5464351500259,4.1662724903114,3.063064116532737,-6.649509156239716,-4.523474270871304,-5.185077680153583,2.353038567359274,12.972881093786256,-2.686877144593696,9.590491664181457
5.1250601647434975,10.233159008189403,5.602636689937825,7.899152472972617,5.389972397057136,3.304184557583554,3.7687622315875458,-3.894723691274986,-2.7638490063408625,-3.5420093477101915,3.698860661251384,10.344006785709084,2.620105485996685,6.5047562656027935
3.866061345250295,6.91683379593573,7.294970462246056,4.314883363112472,2.361758895615381,2.4255374165568924,-0.3432895097565984,-0.4775823595023503,0.3614169232155291,-0.3411315912363477,6.190589691998678,8.194113921661584,7.271852998272163,3.112946130383392
-4.074231775280842,5.612533716513894,5.482098473927692,1.932288392637844,-0.9464779425335904,1.162887546025388,-6.44036528293124,4.372592669863497,3.733881774213529,3.0142040046285388,10.327400353007375,3.0685253743223493,13.900706735068596,0.1488955005232526
-11.51615504056498,6.41293340792123,1.0146639547450036,1.84285908024151,-2.730498602960552,-0.5611800306585621,-7.251767241019112,5.302921795949823,5.912106561597568,4.46252253652159,11.591489017604085,0.6899711356436775,18.229979661041977,0.6302949337448354
-7.453830553559125,7.788200969114001,-3.154255409802857,3.750254679339605,-2.1295438365879704,-2.0648687054314223,-5.533012971755143,1.7917960561171578,6.1438272023465,3.1538648285164754,9.937252620341493,4.793454674536639,13.613684959092357,6.617644228944499
2.780556658250872,8.28814388627356,-4.154612708226068,6.386205941205191,0.2939443821503857,-2.232666685132642,-0.0502507032722432,-0.2956576101728455,4.786726629142123,0.5214952738651277,8.46514520086148,5.720541146279444,9.633426010953714,15.786128257391283
17.732723923341382,7.839186385989507,-1.2878822032160144,8.407810183212291,2.99145990145837,-0.4891221563723604,6.119868373027452,-2.1205155248989684,2.8989633900157514,-0.6577529610310648,6.2229466589466345,8.723448043795615,4.119026618157797,21.969470205636554
24.042324821631333,7.375693405641158,3.684734075172941,9.140781012677422,4.3933345088785245,2.437309985542214,6.643267958265186,-0.1902175814985994,1.5024680015003185,1.377471430399396,5.28008444135026,10.559922028498738,-1.14618624545609,19.981018153586035
11.805075831483032,7.33148121437253,8.047108301015385,8.674870694725143,3.749936799499949,4.774550613630481,2.888230668702998,6.815085442129386,1.1563506056695587,5.627772197838169,6.174794853156456,6.965591471755357,-0.2589192149020589,10.403211172040557
-3.663390441995054,6.767901231164785,9.917752555283556,7.343876585815593,1.3835452485564872,4.92790625535622,-1.957613195097797,10.867652454798153,2.014712522308173,8.893964744462721,3.59294882259582,5.473486251102308,-0.5153681929590053,-0.422126957930061
-18.01699117025377,4.257310839387486,8.91298924317232,5.175597477406768,-1.695734704277811,2.6575445887515627,-5.779739473614347,12.821005451142517,4.053021558293523,8.356866669850177,-2.1683115280437284,2.148791482696694,-0.9919129390054016,-5.53036154905854
-19.7869961253627,-0.3144099697039451,5.645586746406821,1.9663580481556264,-4.4782172836829375,-0.8445185876727805,-6.356683944286777,14.208080979437128,7.11371125574388,3.999054671983856,-4.949666159657236,2.4340771739822973,-1.5639439788907743,-2.995700531295796
-5.6353069942529865,-5.0261255459093945,1.0942061435162316,-1.9852745843031412,-6.462272405761922,-4.048941262970203,-4.027456402147527,13.480499972293623,10.746113802028106,-1.3113626799811584,-5.414762604340267,10.913871402956357,-5.710747200401221,2.9176062324432905
0.4639948062245246,-7.291191921796582,-3.420054500568142,-5.276084184058533,-7.661191251042851,-6.3130909947715566,-2.954707541309267,16.388671558475732,14.08122582847517,-4.227795053544497,-2.226625677354723,19.32401215024333,-9.469112081177585,5.762879140193178
0.3112692414996307,-6.135168527992533,-6.065799979175552,-5.871748704517927,-8.193829697510296,-8.077222481052047,-4.3503334007729375,23.111013964802943,15.957983176535748,-3.717074604692158,6.116669385654386,32.21220397676334,-13.300344753377408,2.1002978777001147
-3.1011414431906887,-3.1095262510330883,-5.077295316917628,-2.674938486871355,-7.911969812766642,-9.925913988190588,-6.18499684953724,22.15182689580098,15.309749411479288,-1.7538503377724055,9.107425146991076,36.84971163564842,-13.349449793912846,-6.516458519556409
-8.823718907512696,-0.8333075147304498,-0.1450239830811028,3.069510897767429,-6.5010094075906295,-11.575474113536586,-8.16829407325541,13.97271669305628,11.650776593923212,-1.340188147541994,6.86547438456778,27.024325946286996,-6.801143204784233,-15.521981162714752
0.4726879550018674,-0.5330027986974244,6.63496230997302,8.077575515042355,-4.020570470084522,-11.923393195839765,-7.847186384677843,1.9015603312518288,5.4507324468735305,-3.697231139402163,2.6090980740194274,18.120064876621115,1.0867126750667282,-20.556560024559047
14.792187995449002,-0.9832783469529432,11.637469583733235,9.271485736003086,-1.3191656097442888,-10.171251792806205,-5.033889280712925,-16.67487278599967,-1.80171026240248,-7.159773333055142,-6.142891146490977,0.7003635653518713,13.080996062632826,-19.121273989534583
18.836838328091638,0.1432107796000821,12.219055967878944,6.300245701850201,0.2646691860493604,-6.873067969045934,-2.8028243184378385,-22.62131237629953,-7.9867860216726,-8.669783032826501,-8.780036635288205,-10.796232950070785,20.62081976869526,-10.464279570162772
12.832876059564784,3.891897687200668,8.837292259165622,2.043308074649985,-0.1315690783773675,-3.774060445784869,-0.8616821486155414,-14.5030612740908,-11.164177788677849,-6.421083490467126,-4.7162934486035,-6.0758818988381,19.342846102735507,4.634143675771753
-3.02988478088971,8.916725150770418,4.697042984395694,0.3360226404726489,-2.0579654243390024,-2.487798977632366,-0.8911719072289905,-6.898944224955362,-10.508610982028388,-1.3186079425698551,0.4187050637281488,-7.524059581294038,19.535396000879164,23.265044826826767
-17.537486675434,12.577728269769167,2.9759673829261573,2.6466514360702007,-3.9159034845608858,-3.2033612985309645,-1.282846065069413,4.760413463200688,-6.856252844460826,3.843770143359052,9.244329498390446,-3.5933036199376662,15.828082776501514,40.0708849010192
-17.42595889620943,13.018747035324594,4.0537028693483705,6.5736209382470605,-4.176462808808807,-4.58884619000645,0.0714937007170924,9.087405299272447,-2.412734950101836,6.543932638430306,11.580666370971183,3.2247451905474467,10.856116522345728,48.82790351385013
-6.0281580090928495,10.265072677010778,5.339314354232656,7.614340510559344,-2.685369580921858,-4.927982086314273,0.6928907662765523,3.489156508152048,0.3877261894665054,6.135570275497344,6.320316011665613,-0.4807817557277317,8.622124770449489,45.78406408826288
5.797203877763805,5.639409120134701,3.8991832149175,2.8472945130734004,-0.8623334449821485,-3.444016932069573,3.1890323110374035,1.5959180541799094,0.2811103959667704,3.796936540463278,1.2960817969013727,2.417530827251652,1.5048349218742858,32.39085607941868
12.728915581432474,0.516898249602697,-0.601116590265292,-6.522671624048002,-0.5085947859869009,-0.72243513090595,5.239684892084141,0.3451568834622349,-2.089183564360781,1.2719175925181432,-6.0547519327402926,8.190553011854739,-7.344807475928903,14.895012956666465
9.825429954994862,-4.21577877878082,-5.437786816338796,-15.856419712170611,-2.204499104319213,1.9465482052075007,4.198507949867855,0.1911906805639397,-4.698009370005671,-0.3236294402481139,-8.393921858008579,5.328946779863363,-11.674871104000104,0.6080234248186294
0.1990494682355421,-7.802247657806976,-7.261927821328077,-20.39464385478082,-4.723554049090604,3.5749349031369806,3.931990955017855,3.141341473304937,-5.645258858906393,-0.8029463421191672,-4.279685862787316,4.299027358886301,-11.711854436939928,-6.512700726059384
-5.290211640454195,-9.318686154725915,-5.10495587783462,-18.50324071313033,-6.024626532761339,3.9920348052479255,2.6109037085654765,5.122994714278138,-4.543547463164462,-0.4864814212558386,-1.6398582418180998,3.449670295371655,-10.148576435877365,-7.670048450333528
-8.066751322441217,-8.182964525576331,-1.1914650001163594,-12.422526825390412,-4.968042968451663,3.642732361983299,0.9649737787309284,6.84845834052916,-2.683713453728004,0.2584826551440287,1.4740377919985963,-4.899716263890813,-5.638656206693928,-7.279498540532103
-6.779236995460115,-5.001499829129202,1.0625669883565223,-6.264350831475539,-2.2388918850590045,3.077767066936161,1.690723912009179,6.719805188355593,-1.8386670315524327,1.1253276079874155,1.5819936515391788,-7.78578189641229,-3.143779655737164,-9.163648942073069
-0.2648785964125304,-1.623650376993666,-0.0673121473942472,-3.0982827231793664,0.3150382945818677,2.633078129334933,2.332521938293695,3.927820713252524,-2.7360908035173,1.782578173498706,-2.72221071812094,-7.224349278234836,-6.6669737259733735,-13.969747340488794
1.521437032411564,-0.0217143024353845,-3.38945492149341,-3.329619184836048,1.2906407439144516,2.4254506398764306,2.7212223604399663,0.2078461822163085,-4.533991837629856,1.9075134508987048,-5.872577899457202,-12.648184400074229,-8.766367692783874,-19.35680676793804
3.195270749536474,-0.924788599491592,-6.09503783624703,-5.198503857641981,0.8274190426616883,2.450608279376325,3.4453179370623213,-5.138847441883743,-5.724328231672075,1.3591858363921574,-8.985536801085932,-13.105525369890648,-10.856492109608102,-22.01978800807117
4.340124793403472,-3.4764489465465545,-6.224543062692902,-6.531170263997041,0.2800801721625703,2.5974184434419385,3.2913898708975795,-7.612471574683099,-5.579549951732815,0.2599176227674604,-10.48521906783638,-12.23011142890303,-14.827547676940872,-19.66143257673707
0.4174662839908416,-6.157212338688538,-4.146046555280009,-6.226281441223193,0.8789559263780689,2.6379763643744525,2.292117915494109,-6.698416654166038,-4.781224593756292,-1.11894546786732,-9.348267969740128,-14.971603044456144,-15.69382618457553,-12.056060295603174
1.0438069915247452,-7.984646757109658,-1.9656954739961636,-4.597846798109515,2.648291539909565,2.354365853986053,1.9398139893751205,-6.749848870863765,-4.674144382544114,-2.487611239754017,-9.36387283021355,-12.811702987365702,-16.798386433223484,-1.5428305095497308
1.489028201026776,-8.908462673011513,-1.6023688428505238,-2.760745560177384,4.489929665495254,1.7724982254279666,1.9270686966430297,-6.690238756641324,-5.883436146056056,-3.509060767365668,-9.94736018759388,-10.306429560932196,-20.467671483909317,7.012556086561574
0.4448358382011251,-9.328944523771725,-3.2474683328717333,-1.7849452243245878,5.2062748234757805,1.250438597669188,2.012923907014569,-6.881734781456968,-7.596352559440334,-3.753614604746304,-9.657239569240351,-11.451161293694128,-20.64421394065469,7.772297509410521
1.6813856795892903,-9.536030102869631,-5.434258949109562,-2.155844663435971,4.455627105898998,1.2310866165035463,3.1223481580189074,-7.946049110604282,-8.170811212047681,-2.929272320526934,-9.028362890481748,-11.090219154485965,-18.933161555928034,-2.5153807735188707
-1.2288134968419464,-9.684326788729264,-6.501747714510543,-3.639618073814973,2.858690586312889,1.816917415899809,2.378270777613426,-7.378878476512785,-6.532950756793127,-1.3410484610825506,-6.704888426700204,-10.62162120525048,-18.35963335539433,-20.916366785746504
-3.9102995907738713,-10.091419080563242,-6.0812982093528944,-5.451057484065814,1.351264934899291,2.5797683729192613,0.0214147538595937,-5.329181622697915,-3.148207509314261,-0.0430570914306827,-2.42072855964506,-12.288516025648583,-14.13929590984589,-38.33621238595879
-3.8825651709076543,-11.264008617488171,-5.289911964763405,-6.652141008632157,0.4892067592784315,2.8564024357781364,-1.5285252853453606,-3.9311662494929904,0.2726456902078098,-0.2142925208048609,-0.6010406104200667,-12.975043344715408,-11.586314706907602,-44.83379246453546
-2.904549803865033,-13.497455404455708,-5.509546035330232,-6.688229656399585,0.2634328322508281,2.3143489179553853,-2.8187296169301126,-2.815017747752282,2.106866488612127,-2.066597598649196,-1.193524469441324,-13.444557871519953,-13.056964578293549,-37.00784393364677
2.254706870934579,-16.487160988832215,-6.939055677801207,-5.791776048634347,0.3854054754407343,1.2712856892131867,-0.8834913231307586,-1.675167282603386,2.093534597761618,-4.315522746526426,-1.6575241732408317,-15.899607589835592,-12.447871209143551,-21.237297383766872
7.081702330695031,-19.38646019413181,-8.336723934327892,-4.905512887533064,0.6164723271343746,0.4508982730004618,2.9286853363540915,-0.8752445899001712,1.4660759578614488,-4.976246341358205,-2.9317561872428195,-18.06773649605807,-13.58995895952632,-9.253205650981611
8.041338293978802,-21.245998321147454,-8.260210400927463,-5.044180728046968,0.8370961207544951,0.3820017634516262,4.292131330831964,-0.6531415930522125,1.7922070847362193,-3.023193206622068,-3.004233253888032,-17.70403631238271,-15.492114170191613,-9.169777075685602
6.637426446976229,-21.465499002825027,-6.639495109651762,-6.490548832471632,0.921374986542105,0.9787575755032094,3.5402684253971297,-1.1379393810684688,3.498980913201762,0.5557144397513412,-1.4875815081352013,-16.472978933097885,-15.52209760628378,-19.47180767044506
0.5793365239773683,-20.060908850882925,-5.106875665590223,-8.459177835898345,0.6641605590034487,1.6580797920635175,-0.1185383949737701,-2.0116947620908765,5.41564400953439,3.4166669110697967,-2.138917472990725,-14.766072122659056,-17.421869230472858,-31.04934868559792
-5.730552024769865,-17.78437964231864,-5.630472832644159,-9.570764016921656,-0.1192986176727117,1.850608178099492,-4.34147459229827,-3.3988122698132552,5.8240200539464695,3.781264705336525,-4.602379563800849,-10.673880387256697,-19.68658963680988,-35.23408117962583
-8.050660716619571,-16.02557666840562,-8.649488977452393,-8.850327874903428,-1.415643395853067,1.4354407167705858,-5.218136904323616,-4.005676795867454,4.108515239501116,1.9087762122019285,-6.483901828066739,-11.292554957668,-20.08531163113197,-30.64505279883258
-8.145654625220628,-16.232754678329,-12.483469760851222,-6.514340730595677,-2.923465829093402,0.7566387333488365,-3.2955561192530216,-3.686766443431857,1.4412780542636483,-0.2507064197736781,-8.371036432156457,-17.499019481022827,-18.718327744459295,-23.197792357073013
-5.027430055019125,-18.877442918337124,-14.654941443071266,-3.928046743032951,-4.133225398178297,0.2842900202680312,0.1398197609152155,-2.8286305458145664,-0.2307559920419635,-0.899669773177834,-8.173375590758535,-23.02762576766772,-16.132934491370357,-20.06236433306958
-2.5032827483901983,-22.66357993550048,-13.95747489576263,-2.709628680998037,-4.558637836671096,0.2542346811296738,3.0732012999838823,-1.0306202764125352,-0.0016718178499104,-0.0016182979492214,-5.322382071681104,-33.00481643060048,-12.588115796612712,-23.468694846960773
-0.7627050089350639,-24.917530450176912,-11.362135254378074,-3.585179843383287,-4.035452001067142,0.5542476240277665,3.3361798457931675,-0.253153464874464,1.1090991338231788,0.8144418833827558,-3.684163023075832,-35.37543305981095,-9.45054354601738,-29.619038403185986
1.6340485982662472,-23.281266233299675,-8.937342282929876,-5.800867126796675,-2.9273117085363083,0.8666775157639677,1.3798820824557894,-0.5713396698142645,1.099034333347504,-0.1178524068823207,-2.772582971638755,-24.143381655578736,-7.956471867551036,-32.830786369993575
1.308843147210882,-17.543829392309362,-7.84626446295465,-7.535507768418029,-2.026733961135505,0.9019017970410914,-1.532318887672181,-2.2609543623742194,-1.0967216165215632,-2.912004171442959,-2.583033761762556,-13.139247744447252,-6.291829840336908,-30.5057917188185
2.9644017649263383,-10.011554873676689,-7.350424836282855,-7.0679037164003375,-2.055846835003649,0.5715917803266848,-3.837592234060957,-5.925149858718276,-4.49101865956311,-5.983725245916503,-3.8969825053010303,5.290315390854739,-4.042414516182254,-24.49284898407473
3.058794777481736,-3.902452332332132,-5.7464464723937,-3.915831567849864,-3.0125855629744365,0.0385780076619539,-4.182032327322043,-6.884977238173094,-6.754406993261227,-7.332839778055927,-1.7691986250437337,17.592783298743832,0.6945076220234625,-18.26758402176779
-0.1890916135917635,-0.9811011845888516,-2.2709787030283906,0.8313457327035394,-3.914536670680377,-0.3739745201693267,-3.3383209763677395,-5.083697987192064,-6.088448284409878,-6.010732103080386,3.8872972981020046,14.166104320891172,9.067942117333926,-13.18168033941663
2.720408944165313,-0.3796352635198445,1.9211516035002203,5.2049800474569565,-3.3537673498863114,-0.3987084016379185,-1.5552544970327995,-2.5548190285655306,-2.626686217508791,-2.5903196025993798,8.758676415801219,14.52249597192906,18.910244960241798,-7.450239036784183
4.137959071407463,0.471032291599613,4.671632541052986,7.576719468560327,-0.6153013291723255,-0.056007673834415,-0.9346147718225932,1.8105093176536984,1.7544855396379262,1.4953425060062957,13.80287107005799,9.436772537496656,31.023213370588525,1.4322533076435775
3.216086472202461,3.7107347183564334,4.744007782727522,7.572101141641838,3.5442641001297943,0.3029742721051889,-2.632921582046404,3.850709198876029,4.942418249374441,4.988613920585067,16.059513773920468,6.1207494017179895,39.81962685230815,13.511226104763068
2.772006990947866,9.563603375914909,2.929292829105748,6.116656828348027,7.272823723184956,0.2640741787527076,-3.7261572124220663,3.201569275601269,6.1404462300484965,7.432493028968224,14.563186324275648,14.438421736024804,43.691374491830274,25.698246761079872
-4.585532792653571,16.56388058087998,1.339434321644262,4.698788325405644,9.010513986865703,-0.2357582144570642,-4.448113552022605,4.2778570567945104,6.285682649782416,9.148284341613817,17.460502838309637,17.276123380684567,48.17926577778937,34.2927171456804
-9.926344023925878,22.942443390209064,1.6275509079559924,4.4466578229430525,8.723290188221881,-0.7451902002876523,-2.993612907433228,6.208974183735854,7.087762380603181,10.771996514079548,24.25238148340614,21.85083229260703,49.57215962615788,38.17983815027537
-7.542201132816506,27.743728691487604,3.7877449756273336,5.633527046353265,7.806106794912807,-0.6370795534159015,0.9939713535244868,7.525496767706414,9.470693612981336,12.65517084098326,26.76253528512089,27.06566226305108,48.11543111396045,39.50453503593303
-1.279569949286135,30.84217044754331,6.485539275413146,7.807061067534676,7.671850260970245,0.28169386177467,2.1905248994793616,8.802271818344856,12.642396223413016,14.431729794688865,26.10735802568698,24.729025724831008,45.04073608279364,41.173696299820506
8.685514801999117,32.30353736423149,8.378509796042067,10.268326072429602,8.3529220250781,1.476473147708873,1.543770298048361,7.584444572808415,14.585309563700434,15.074489033615407,19.98325845686408,25.21596011395497,36.850077023851206,43.7856560597898
16.01459492170706,32.09527984696666,9.11115790746652,12.469390626325437,8.517292010840606,2.074871512195557,0.0149294304142297,3.494620416125393,13.673219824252158,13.582405342940888,6.471509354464908,24.851822304283623,25.27256746099455,45.19577424384886
13.655681944885732,30.487962858097205,9.228177792362883,14.117829109743925,6.937255238664989,1.6470951713945965,-1.9350452091137316,2.107372538572676,10.132317758578154,9.919747412292622,0.7025189254642851,21.6780908861925,18.613549259693688,43.18607580764507
5.433823233363523,28.47859020182057,9.393997043836862,15.100208774003306,3.956467432933096,0.636407580924299,0.4372035900972136,3.118537731366469,6.04633305579074,5.391091162114549,2.544023677246364,21.281315772457024,17.469331682699245,38.39346535824387
-2.443904638784516,27.43061390460485,9.83145952040553,15.441795091022584,1.4351204161814335,-0.0182689995046416,3.8863123226323264,5.416041264174946,3.768577945606694,1.9150205931919688,4.861123903327851,18.947210325964814,16.127836349041434,34.25147515246806
