AF3,F7,F3,FC5,T7,P7,O1,O2,P8,T8,FC6,F4,F8,AF4
-2.3854054592705327,-1.4655297336673223,0.8592029357833906,0.5338168116778078,-1.3321484868113358,-0.544695216615728,2.6506386982781587,-1.8975328399977136,-0.0417784215140818,0.4450715053778151,-4.419048302955952,-1.5876826926964984,-2.5772980840895663,-2.5226890485489424
-2.715075017325406,-1.8607249958011365,4.025238552102226,2.798843758258301,-2.092917634379581,-0.2712809155840261,6.09362837197344,-2.6107858606217618,-0.0045788515430529,0.2828349682835305,-8.374048176474114,-1.652866566362346,-4.01963973534597,-4.807404780082126
-0.3681025245908893,-2.071139210913928,9.810230728050875,6.733902402119057,-1.8381982697756716,0.2587418411295427,11.670024915858678,-1.8594723108731537,-0.6219776759841942,-0.7473984831514233,-11.031139692039195,0.0924426642364224,-4.585172574348532,-6.087449231595386
3.658599162594412,-2.141547395446488,12.457882137222704,8.944393264376668,-0.4355855821535987,0.3633831775291597,13.661076005955136,-0.4192403051251294,-2.98461447325396,-2.350390827196792,-11.3950033816565,2.59671547171834,-5.548356637146754,-5.207826857992796
7.799183465481375,-2.080232464150231,12.377266524274653,9.717399244286298,1.7929202899590724,-0.3275255375043306,12.099414277192436,0.5708252217526688,-7.099506080751201,-3.773957946172868,-9.031650174096717,4.486744200209428,-7.427331760835705,-1.4893948649571267
11.03339458651067,-0.2313998462546355,12.010978607840723,10.73051439395682,4.143213415394493,0.4137530584701665,10.175957363453602,0.5228514230449415,-11.097930215625784,-4.26664973753751,-4.639584588225892,5.144430448327181,-8.927231963672519,4.348137561626318
13.065754064879613,3.6223159973236,10.198438169394109,11.344689396853052,5.840390779511781,1.1149396087955756,6.623270769019566,-0.2218629087056101,-12.296179164046167,-3.6345258119506623,0.1236065469205889,4.873402702003011,-7.981514070754355,10.068636527809064
13.728746190263072,6.047879979937395,8.014601860836633,11.046561875853028,6.394831865651759,0.8146457934953395,4.360367801730385,-0.8026584726639197,-9.4463473864075,-2.441490072862778,3.491770597337156,4.22544574424114,-3.921818106253476,12.926660431244793
12.5729814323361,5.0590801242857,5.612739735165688,9.90298572750978,5.78559850946678,0.646844660826385,3.862151924259893,-0.6304518387592895,-4.132841479934129,-1.6140426854705154,4.477663122775515,3.3641372454381093,1.4781492306543234,11.235276049911157
9.243121503586003,1.478935093398985,1.1516139080248529,6.95623592018496,4.434719028267903,-0.3608859343500266,1.909535018448996,0.1018551378247543,0.1458676834345871,-1.731641884889913,3.204660039863092,2.1127766775077745,5.182947488624337,5.428954578864058
4.248998274141652,-4.031532479773819,-5.222490379331723,1.972346031166286,3.070640333091526,-1.0723371380752416,-0.7968069550784188,0.5586715778859928,0.6138787098538314,-2.5983283843240708,0.6159629034316882,0.4625908924388975,5.181641555577896,-2.1216874342512337
-0.7588861775559215,-6.7852948178288,-7.47866031846055,0.3026208096059032,2.5070256417705297,-0.5197091670050035,-2.3541751737663303,-0.1011409929802136,-2.611038476753073,-3.4556843103346644,-2.0766280793974854,-1.163314419079935,1.84895742729889,-8.397338296453828
-3.655704083510603,-4.034517138814823,-5.422544088259576,2.098647164902933,3.268475170756812,0.2370496785685525,-3.048969932020126,-2.082231824166775,-6.634501018599243,-3.619273908802384,-3.855797955428194,-2.223421086322661,-2.5579711179185463,-11.241660056173144
-3.056054476118704,-0.0694910551456299,-3.2405253982688818,5.020532326314339,5.141984711245407,0.8470474743022185,-3.175581217953832,-4.7631566608748095,-8.07439484850174,-2.9752405801651527,-4.195289407646314,-2.5722993875833806,-5.535115731504764,-10.197447249005757
0.7736687970530118,3.4030493284508,0.4471504109358161,10.405421088085133,7.025478272866643,1.1828474314397213,-2.361268407375723,-7.083419636917214,-5.633944092443663,-1.9646361077219368,-3.2328589725322097,-2.58607670446694,-5.751361903302502,-6.365556039609105
5.933434508722261,4.231999459322624,0.7189123004660871,10.886505707839252,7.442125042826013,0.8238436668892084,-2.4888683060489507,-8.23773961158932,-0.9500974093512876,-1.173942288063512,-1.7479636149169195,-2.7664154040492663,-3.506269894804851,-1.6380680700169323
9.8596499514395,1.26787180586004,-3.3112308425918133,5.818209672314255,5.559818247514434,-0.2022231768205664,-3.6354179789877454,-8.190634656072607,2.795079639326889,-0.945579433684438,-0.8077089569336398,-3.2599823188229147,-0.3074328986744898,2.122700096135959
10.681077399179758,-0.8182497318739417,-5.927180774449912,-0.1829036411205291,1.941296502395,-1.4061460421433325,-4.984345957404409,-7.635187098009332,3.247059983288073,-1.3012997779391338,-1.1708253878677866,-3.788104941910981,1.9983662171020669,3.6232623268745616
8.142871116226843,-0.6936104724391217,-8.364071525707306,-9.016453308792055,-1.7227960576874093,-3.20977084107796,-7.006971021420659,-7.418093888329501,0.3782764039520438,-2.133826228312246,-2.851787016182108,-4.01845608251015,2.089964718682282,2.3840551195176047
3.52222149621411,0.5320486592881157,-9.8934516117047,-12.3886933081524,-3.809639580378942,-3.9462518531673583,-7.641408015881501,-7.869207816573349,-3.8522068389508792,-3.409196658148012,-5.228257912412861,-3.9592831316189545,-0.3857957413980335,-1.2178479210183992
-1.3732648295237198,2.09217928022713,-9.580822422049955,-9.263015065654198,-3.9041046432855855,-2.246637152795511,-6.718535841732398,-8.565441632728918,-7.13365461241452,-5.168897985811056,-7.613780178833294,-3.971803412887801,-4.998208609819747,-6.110504284118877
-5.362161954599378,1.1845280766704367,-10.113241729567996,-6.843997349679368,-2.8922727189208763,0.0787719926250968,-5.131611555425669,-8.709110985056766,-8.318665123553092,-7.332091396202003,-9.747993020842284,-4.405095693061611,-11.036778168138335,-10.930984016246844
-8.330203232848719,-1.948887580246013,-11.086631146311266,-3.041040319495574,-1.981790131474515,3.5465962784984493,-2.3189605645551468,-7.781453414150082,-7.763721574678579,-9.49478713724525,-11.726337210806175,-5.223368073649992,-17.685261188699812,-14.548968660064237
-10.716081622133505,-4.101566191409572,-10.255977756801355,-1.0955526660404888,-1.615515811532636,5.473879364609168,-1.6388428211516797,-5.92063166648573,-6.551073898064287,-10.975879036172522,-13.496331663582188,-5.978743932181915,-23.647701207742056,-16.41103913779926
-12.6462597446437,-3.887145736800144,-7.871105138480793,-2.1237358761078786,-1.2698772494934436,3.5604284234749466,-3.359576796748476,-3.767370889281649,-5.489274145554546,-11.203744350652144,-14.565343780811116,-6.158104654413595,-26.930261729666697,-16.501146439618267
-13.597497644110083,-1.3995388178429278,-5.0944654386339385,-0.4609161198693369,-0.2021092133573123,1.5295097445540782,-4.184614640841264,-2.016562687460761,-4.721126512311132,-10.226544482910972,-14.381890660080291,-5.615577953425445,-25.709878878621023,-15.069425733050958
-12.894802598023308,2.019380882018022,-1.5393518723672763,3.02556287821332,1.6898878222189735,-1.071504705073952,-4.844614160379374,-1.1027514122495732,-4.024874332870049,-8.886103703291957,-13.088694831132754,-4.750206273525281,-20.096613081199365,-12.509459459016927
-10.515469655757036,3.5373891928817054,-0.3913786143855919,4.056965445219819,3.725730467909726,-2.80874025803952,-3.6253984176724816,-1.1703800537887303,-3.268419193236687,-8.32083882517886,-11.801978631170035,-4.282092311284288,-13.128412462031312,-9.521371424870017
-7.37913419873242,1.880297351506766,-2.0957274585587284,3.237129562348416,5.05278050965852,-1.6337036592212315,0.1458722638854865,-2.10958480506923,-2.5055286828968257,-9.00714600557858,-11.901483078291292,-4.74827422418595,-9.377259885083888,-7.199302631150903
-4.820881740027231,-0.6961848492860949,-2.805001649107473,1.3348091625633007,5.330232914629588,-0.7580418405002542,1.8688227939888653,-3.4522086382720705,-1.730196803012892,-10.105960455728422,-13.787549372378423,-6.0307697621929455,-11.5914698559687,-6.580814719287771
-3.7172940440595865,-2.77852866398007,-3.2536110293701204,-2.467568698452681,4.853963721688129,-0.0094177893738602,1.9012922728888548,-4.299378992728917,-0.7077083131804927,-9.85116541698967,-16.22226839956641,-7.265137672229857,-18.03934661569483,-7.790085143086037
-4.016128234013898,-3.0273856051674204,-3.701096977345768,-3.988496900969524,4.120318101812788,0.6136785305116604,1.4986954064213764,-3.660504462210504,0.8284651218943861,-6.917008135770171,-16.999259788577774,-7.305486817498945,-23.182243375467507,-9.618984952218378
-4.990165561095068,-0.3493619783410394,-3.533410404994462,-3.0202624344085067,3.3422880204325347,-0.0364775180648503,-0.2661963048232144,-1.2215793687861671,2.7976647306902,-1.727820689564945,-14.538508705715444,-5.552484650592872,-21.597536996778867,-10.251843472909734
-5.867282097142209,3.030703183730919,-4.707088493379818,-2.721698338400636,2.3751052958051413,-0.5473716079500868,0.2889339485606201,2.07719306924002,4.660870527101591,3.5180757763854054,-9.1270268446953,-2.572891536703444,-12.088402312854289,-8.728048360169108
-6.233535939589348,5.9767571479579145,-7.17995346515348,-2.1631936011433,1.040406212297038,-0.8597070781275298,3.3831835520130027,4.403934677775159,5.783060595225964,6.368498602107154,-2.755263997473152,0.0826134060569749,1.428106912480719,-5.764509937789878
-5.952593854542359,6.177435795528296,-6.754152008765455,-2.2653722128668137,-0.5383230727824508,-1.1124360779284654,3.919381467989516,4.341602476672327,5.95686478257831,6.037821708937647,2.3320612701627184,0.9273176973945844,12.911976937738634,-2.976600218972232
-4.890394717404919,2.713637192296173,-3.494560479011784,-3.470049121718765,-1.935657850799208,-0.5853478150563924,2.4889310044124664,2.1376354494773127,5.5503614445515925,4.054746527049908,5.172842538279034,-0.2623559511006896,18.43203060712577,-1.1565968725378113
-2.897883808379748,-1.495904812455713,0.0360308613261409,-4.898048918063361,-2.7481310188968893,-0.1031540961380019,-0.8313975660991749,-0.2932346525031102,5.08990315786707,2.961323827033395,6.474234016302988,-2.1231900691780368,18.19901508039567,0.5915404796748431
-0.1223675814112201,-6.094449458290935,4.717255460762406,-6.926547990008721,-2.914175456464295,0.2351895377696404,-7.117283414883531,-0.7995019956588534,4.694078341396999,4.129543777087874,7.635813661758283,-2.6806728192038447,15.232167672784366,3.810245548772688
2.773901417609577,-7.039758367454201,7.364326582965844,-6.854123876668973,-2.713650122960275,0.7133698591406952,-8.088372482019999,1.3006440281218064,3.991679440064512,6.641814467607348,9.365079397915531,-0.9181878096972502,12.481185512804782,8.709500332464923
4.913505144079873,-3.2068559005222874,7.428662986316381,-4.391339116364255,-2.4499824611148355,0.8096312012479022,-3.4570941780221416,4.739727843718223,2.675709024725544,8.27011841208408,11.128572834085404,2.384490485534678,11.11115052352594,13.370372774807349
5.883405600234364,-0.5155922637189179,8.804117814068857,-0.4735073391335417,-2.145320899893118,1.046118847037569,1.3444620407467998,7.463178526052762,1.1137258858367671,7.643128036211647,11.84552538502433,5.294258776119001,10.917143178886208,15.157531071912526
6.119073484100976,2.342479879077505,10.724997898792266,5.709208837734891,-1.583085531602082,1.7201091540753617,8.196281628026414,8.32872599630473,0.2537998759269522,5.549146810288531,11.05856941492599,6.288366397087141,11.56444764074469,13.085071478060478
6.482921963673009,3.2335508257249064,11.08096632529039,8.660016654208729,-0.6784910387715417,1.625684351893883,9.525179899916024,7.770428386163746,0.7364882542346631,4.130307921417707,9.411178815490402,5.366900514039816,12.916007797669716,8.824498933407677
7.34559052934714,0.1933919548225756,10.28601070544994,8.025738495696109,0.213269694828762,0.4292507423889986,4.112103648970317,6.918647885471626,2.037882966127894,4.758528364540025,7.991148730091853,3.818391235334623,14.29252271066732,5.346925913360689
8.109019477005527,0.2291854095930922,8.24063549711943,6.558080320274327,0.4364648653127609,-0.9176211426144242,-0.3384030008051601,6.209279838326784,2.628989773936391,6.6691332640587095,7.25149529862638,3.0157873866883147,14.087388779648393,4.502670571703957
7.773665326838625,0.4735159347049825,4.543041938373981,2.832958529309263,-0.4182112263423487,-3.112186094489478,-5.768147947589874,4.984632353157483,1.2331148399636351,7.69717578179866,6.651644837959759,3.413826199982415,10.83851322308689,5.784461584121448
6.073914960573465,-0.4859573847031774,3.048101019454927,0.3532043351396762,-2.0413123043426857,-3.8777734243868016,-7.414149385220355,2.510963697286682,-1.8784065096961484,6.411792168758986,5.42140782046096,4.526699073615536,4.998826830790653,7.245715503397477
4.00497081982002,0.3077495788962961,3.9145528008632464,-0.5765772967109871,-3.4896893761348373,-1.6260389033025175,-3.7867615702158655,-0.701627284527989,-4.808838817888509,3.5872799932447723,3.668227505562728,5.622279910388864,-0.5689426068521328,7.472796328804797
3.0734684651390083,-0.8524983627298142,3.974646564510032,-1.237752409473749,-3.841306310723047,0.570735158587982,-0.7945368187721715,-2.811069088138014,-5.389914130619507,1.6006625989866254,2.628959599637872,6.302025911443961,-2.3746135546123988,6.709903609307735
3.9026945538319993,-1.1137096667405988,4.056571838841421,-0.6706267759672137,-2.912882678949577,3.846795803276289,3.051757336270714,-2.1283728543809968,-2.863416427143557,2.3262557036225804,3.6808837291715495,6.516661998480721,0.9235094671716552,6.286318554865979
5.569071388801401,0.7842891555171966,3.784958891747606,-0.6539441500837643,-1.450419127602622,5.312534476565662,4.316861357481296,1.1371653329638622,1.5274906284050136,5.476653393401378,6.992692856408597,6.293796192122429,7.233618301687269,7.153795937442148
6.3878783519408096,1.3546870594534757,2.7115163207343427,-1.1691610079247414,-0.6213750196355434,2.316483293551728,1.906321070000611,4.632315024404329,5.476736275987159,8.847125647436055,11.135340583573536,5.659594893417362,12.500908486682905,8.986799747449435
5.426641043071442,1.0715258544770825,2.4403891489610974,-2.651064911188878,-1.1829391708355104,-0.1506849690788709,-0.8792029822129804,5.577315620928957,7.224056672798044,10.14283364366882,14.108219495728456,4.799700222431472,13.719155099916495,10.540852117722006
3.284746931424668,-1.2667460174644845,2.813736248881382,-5.5890435910241765,-2.937611913232077,-3.8008956904007136,-5.220066474991393,3.046377342066588,6.546304511012584,8.729615290228967,14.885286075455808,4.091185807586502,10.954081237246632,10.74774888428326
1.4327464466825273,-3.394270921005736,3.030587881720637,-5.51086466154786,-4.855013560419978,-5.819153884986572,-5.912462533621067,-1.2194029416840566,4.543457932771547,5.8969543731834975,14.075520849319153,3.808207664946583,6.864854939493138,9.515641014166397
0.8530945742902212,-2.01183802373613,3.34819595464613,-2.356515833426562,-5.753515698149446,-2.589341229228801,-2.2176839547253366,-4.228128203811693,2.655746558098876,3.62860263176998,13.125545312270216,3.810789464213645,4.417041331883417,7.6759215386062625
1.3532817292225534,1.0007653373909458,3.9374171287518265,0.994872891425442,-5.05197077849452,-0.0913129502217461,2.2537697118740536,-4.1376974120215895,1.7708817173484643,3.0587767692208017,12.861432531133543,3.660770535035118,4.785745290067696,6.3238526897879055
2.0985948012901865,5.365004375321925,4.730435879772186,5.514177619652866,-3.086356566258729,3.7961807317967353,8.958170002914684,-1.544095886424257,1.929009528670071,3.808709710452289,12.746813708796909,3.1305969090727226,6.915407675456073,6.152551838144246
2.5806933389134823,6.813522952987824,4.461745074195214,5.583478936648666,-0.8249985325698859,6.476798143839901,11.37329844870981,1.3509475526788215,2.5572853284890105,4.490061625890563,11.496379832540857,2.539813050222873,8.67824158255852,7.123267858551155
2.8706754971477157,2.726840386208473,3.022205885481317,0.3727254493264949,0.7520948679174531,3.567207723599353,8.67875851036565,2.7505292040669342,2.8998254801838623,3.773641905806975,8.385911672438624,2.4687854125663686,8.49480345896798,8.442141448737473
2.969225808722502,-0.8304697087880273,0.980208944372284,-3.188902024144442,1.1563932705731368,1.124975992923957,6.73952242570106,2.56437105034094,2.4014648083480807,1.220227093578365,3.999533019609263,3.090263411982576,6.279581202997143,8.778663711972277
2.223177931712229,-4.172327544751429,-2.026378152669482,-6.394066977161268,0.4987786638845799,-2.7996358011032987,3.9273520555096697,1.9856303679663228,0.9583600123125846,-2.5394609411787696,-0.2211544630151167,3.847848903931173,3.2588073175465,6.835142546756878
-0.2398139944687987,-5.219473781028541,-3.89134136132846,-7.705402083201473,-0.7295102825058692,-5.970879974057521,2.772542866213465,2.038825999183908,-1.0129714655452746,-6.208834134732663,-3.1034187311153314,3.8870544695633513,0.9378345654659376,2.2496793221984825
-4.3386953030329245,-1.911791396197353,-4.449873994195508,-5.794828268019623,-1.945214227974964,-3.88446723189496,4.215671273477399,2.6418123700549154,-2.741237676705065,-8.506689856532429,-4.478009157233926,2.838411674396484,-0.0474675507205599,-3.7175947301130874
-8.46344160275283,-1.244478431572959,-4.762513790503518,-5.562037683169255,-2.6689173628702925,-2.1934271031144563,3.952064439361847,2.9850925830328263,-3.470504161017285,-8.789847996114585,-4.966387452208838,1.1569990768462208,-0.38782507494812,-8.554621344323557
-10.432511362656491,-1.1360189402268566,-4.269797984134082,-6.381784782904783,-2.6522862847761868,0.5663953645921389,2.7105222401396563,2.613140784051809,-2.865098059087051,-7.33458691064893,-5.22123043320249,-0.3139042013883459,-1.471073651214077,-10.108526692934133
-9.347946628609058,-0.0785827762292163,-4.218212246266968,-5.648577873221408,-1.9863990816603327,3.5501765439362067,1.9568136998587895,1.965597413524768,-1.219634382532446,-5.126061099869511,-5.433298645010021,-1.086936095184333,-4.08362204758297,-8.343485286115827
-6.606665480589869,0.0868576519739324,-4.707128541048631,-4.052057140555199,-1.1094679466110218,2.721350087866203,1.0922635832407073,1.8400317254009892,0.6638536595660129,-3.2660086496299607,-5.466472509580695,-1.3432010938552232,-7.5050705596793055,-5.58371620154114
-4.920558098841877,2.138806604040953,-5.621462319297523,-3.27916135478158,-0.5791629996695584,1.9213407736399728,-0.128584812835875,2.433893320146121,1.888998751031262,-2.368319724409603,-5.262590449680458,-1.5827372747359938,-9.862009895545118,-4.675275510937229
-6.0238263599416335,3.734713409563389,-7.330240228475175,-3.136638954275179,-0.6651020263821583,0.4289027850638134,-1.6274227616467218,3.0423815212884278,1.9623568901572508,-2.3339915830579905,-4.951425627500005,-2.0588082327099224,-9.551931532619474,-6.48238014303398
-9.043288253347278,2.4630970320156225,-7.002775262427234,-3.009428369871089,-1.07221602883207,-2.2138249914487518,-2.956390247056559,2.761766741513912,1.094998273686696,-2.600729012528622,-4.561316359051677,-2.5754740202313338,-6.547771746652489,-9.011967614549588
-11.016520583226267,-0.0101449739498749,-4.530431476101625,-3.229309677210015,-1.1022876562363386,-2.6289950888618514,-4.121173837765113,1.4759954143980405,0.0843472820633781,-2.597373949526818,-3.772569449093045,-2.766741376706464,-2.449819526765463,-9.124680875460902
-9.205473088024114,-2.3095099478668724,-1.0171659671245543,-0.2457693282572558,-0.2124952370217645,-1.4752255187550978,-3.2502361350138504,0.097202690482673,-0.2262842924377022,-2.046357107785965,-2.154646313232483,-2.4971034276071205,0.7230287656316179,-5.383620592285
-3.334842960633745,-3.7041907219959778,4.26304688545878,6.298986365500207,1.462181134256804,0.5430493212080668,-0.0248478630292037,-0.2219816169273638,0.4115178804422132,-0.9905851038593578,0.2287098072239857,-1.9931997537551356,1.905667946075562,0.5214934907238504
4.033038125726705,-2.5934053761854465,6.391825390687655,9.355214632555832,3.096230069143804,3.151172841502247,1.5298305020679093,0.8448221999663623,1.4096269545739517,0.3191049717658121,2.4773226620358564,-1.6485593541132708,1.407012720141026,5.039772548354623
9.25191189818107,-0.2235632870030378,4.972066947648791,9.38282958497058,3.744272418479266,3.766530460891651,1.706410322490792,2.481039733225865,1.7886899574623245,1.5257959471753075,3.2938679850891788,-1.7205152217389248,0.2703926219093411,5.552490302952801
10.096968338545365,0.7966469701696816,3.8648479306744656,8.408349046503627,3.0687506809536025,1.1026936817822863,-0.1579336145902772,3.450424569557072,1.039536720592114,2.2762426095653687,2.012074020177401,-2.154054582822141,-0.5987508120195102,2.2855997102478725
7.151870720930482,1.6201848680956217,1.893747155631734,4.940015590398599,1.6328822523641475,-2.188874579583298,-5.079884607976037,3.131525866938457,-0.3317981347429324,2.400715225964408,-0.6458038444886043,-2.630610875593117,-0.7640443758267885,-2.1231163505898607
3.1331225908082594,1.1927426125920078,0.2895115354097656,3.927172761791629,0.4970239485299181,-4.236239134039896,-7.395613301378365,1.8631552411713732,-1.165106509894816,2.0587056847472915,-2.8840980365093074,-2.8125402813498184,-0.0861018454029469,-4.814538956471772
0.7631008522872591,-0.1374500375605878,-0.4264538959960564,5.618536861773797,0.4170266005186143,-3.8423505338772106,-7.274599712518196,0.3379306948722949,-0.7320691486023776,1.629991000078796,-3.1665377088538413,-2.6476778077057865,1.365769649337672,-4.777781332824333
0.8336622205814521,0.9275958047066492,-2.2390574836166635,5.142109315864877,1.2789752187453196,-0.1310891401639629,-6.2580362395643805,-1.2309527909524292,0.3987109248140861,1.330192501909032,-1.53917415425747,-2.503151081489488,3.0503554173338223,-3.26996410694138
1.8910178483861413,2.033972833899865,-4.763835519222381,3.4590943364551605,2.223908057790688,2.757727753200272,-3.0579500471350456,-3.235140539916898,0.6278585309027243,0.8944794938900102,0.2627328917993523,-2.938903747513113,3.788788755082564,-2.4754144972090053
1.7125078151165454,2.381151319869021,-5.3950794345003406,1.9013470527922884,2.357303584546248,2.9540948978613004,-2.1195137430341098,-5.949526550005363,-1.3269003538708797,-0.2667335550070007,0.2023949553162225,-4.205578033572969,2.288145702963881,-3.592388537629546
-0.6263933013832315,2.4559306976628603,-4.178556881424412,-0.202137943220704,1.4546346538806354,1.546996367243095,-3.606165593188568,-8.787482204982986,-5.12485031565517,-2.4598828587739945,-2.236448337916247,-5.869429375517619,-1.7795468172352713,-5.857135673463059
-3.761006538065448,-0.5997340773586353,-3.5239855925555026,-0.9452941111580614,0.0914398799480658,-1.689141542527641,-4.036112490748658,-10.44526650514058,-8.785366949133675,-5.194205811221202,-5.395084123130829,-6.968863483638959,-7.094990269487461,-7.243208990925396
-4.973717378904119,-4.260966329686401,-2.9563040836656573,-0.0965092770443275,-0.8640852264366785,-2.7187087350243515,-4.332853147460881,-9.938276613950066,-10.12741981645587,-7.327195385428528,-6.680258641923508,-6.67512376116229,-11.264502516600608,-6.247492164891014
-2.4127141902885825,-5.252338791139539,-3.1104984667819724,0.4248404463204508,-0.9175629060982472,-0.8997205184653128,-3.469224095501506,-7.559833235494548,-8.49343495669298,-7.849709966374963,-4.787350339414079,-4.938053943358796,-12.419858937822855,-3.2570476825572925
3.120067836458244,-3.847432571846311,-4.459584062636915,1.0575210011632556,-0.2128097517332428,0.7678161776618937,-0.896255094254865,-4.790919860428062,-5.264429449114939,-6.65840748977201,-1.0263912398067347,-2.563967128236314,-10.56301497294762,-0.2905089724968128
8.313967693161871,0.200440786607729,-5.055322767555587,1.5359476693817191,0.7416938499858681,2.635136955928264,0.1534707721112565,-3.1799082287363376,-2.72122222884315,-4.638912193778371,1.4886095489109046,-0.6630679657092138,-7.462822556244802,0.6943000130104231
9.529757157867316,4.721959241779931,-5.123366006152519,1.5548433899103384,1.529301893687311,2.637202081760411,-0.0938050865233817,-3.193169739474122,-2.247117797746583,-2.995011581346596,0.2592406788649839,0.0520090587916897,-5.155103089373647,-0.5767250055507063
5.511970522738629,5.882789239558796,-4.4147481117623055,1.564767408755732,2.02793107926383,0.8420825469753735,0.0215128778299652,-4.0328042900474514,-3.3689889406831317,-2.3958282316026853,-4.487558384180566,-0.4238151767017086,-4.347741521164174,-2.595359608943156
-1.4392454853114955,3.394755574620653,-2.507358394369281,1.3836111167992655,2.269202455564745,-0.2717779285586312,-0.082965716008248,-4.472857918192695,-4.306640864972451,-2.5840675380816336,-9.730369818772791,-1.5723051323505857,-4.091342899909982,-3.516081105785261
-6.886437110925876,-0.8425779465936691,0.5418881932036972,1.4799334486918088,2.2306038810469677,-1.1938428065126043,0.7347862122066723,-3.848950250944711,-3.4145880767120858,-2.622424453649785,-11.742493429964313,-2.696800751443398,-2.8943095055196792,-2.7163198249249945
-7.3403850708047,-4.785632424325137,5.02739045513263,1.91054650095773,1.8436962580015857,-2.0482051140022497,2.7364771823105776,-2.322094481904124,-0.3208398348444774,-1.4713352570336085,-8.747606145600137,-3.1030002621585453,-0.1609060108140241,-1.0204084549439472
-2.696141281287325,-5.237638071284584,7.694067454507104,2.9233467739000414,1.1993774354764568,-2.37557100553633,4.327628603732055,-0.3508073539033063,3.964217336069432,1.4864847056526784,-2.12112130580708,-2.156118131996834,3.366263135762196,0.4745793821314024
3.881116541188789,-2.0979309223426967,8.378213308469759,4.699416520173863,0.6768302399497657,-2.0978933749671698,5.78719688693386,1.9160522603755936,7.81342783150312,6.130149623882474,4.723072066810914,0.5136914999643167,6.443942924186437,1.665038074111152
8.495185015402182,1.3146318549158027,8.248187493062943,6.466571535271231,0.7794023915607013,-0.8199174910628091,7.900612548174071,4.6297755744726246,9.964512879564603,11.48973996615753,8.819731814746593,4.599987613473552,8.501704512860616,3.49051585885449
9.385201553955005,3.777212046243552,6.430609912956541,8.320813627049214,1.7518794997153506,1.9098249728140675,10.472231124265084,7.654746652659568,10.131753067767931,15.915876890913143,9.557496543445763,8.87593413312511,9.961106374116738,6.737940768568045
7.826579073757795,3.489013605170731,5.494300528818787,8.867760589073534,3.2950710060882216,4.0207088876208354,11.551572259038409,10.124250765184437,9.005229897689802,17.683840034295713,8.606919577942556,11.590533752187518,11.432816123646068,10.81771085688704
6.543517506276334,0.1425104901063659,5.526023753332975,7.810189913800969,4.664604613984746,3.3109372414728337,11.0596178267669,10.786110112887112,7.710697206911625,15.952209955670494,8.12262394056955,11.495269882714087,12.680651821603623,13.770137881452088
7.214343490797393,-1.5682406760244976,5.47881275502227,6.920511904262738,5.154421857038443,0.5867055633461025,9.192085641860826,8.998081693930114,7.050108417221505,11.526111137992164,8.83423318780309,8.807082442893137,12.492151573787329,13.630038352271722
9.21802456185036,-2.301303407950881,5.97536952338131,5.824611177981997,4.624962750497755,-3.4053722386984493,5.367485959644982,5.485239211701497,6.994472048756457,6.683734691079415,9.591382089195989,5.2333236500552935,9.702112163839706,10.04517232888116
10.435691904488989,-2.258419409942606,5.807939198393406,4.549010921517355,3.630801651523584,-5.453805363019389,3.13438437818669,2.0368183488192706,6.789103087632576,3.84152595144112,8.572082878383103,2.842452993951632,4.451424162962063,4.7757273695750015
9.108398438997405,0.1180681581691068,4.917423732880118,3.366976990294764,2.9817440732351663,-3.0476188418668984,2.5777073359385576,0.2360059373937488,5.596337371424344,3.8311353227240623,4.949178596869412,2.580565547616569,-1.5332671617671103,0.5939917750722188
5.113457439225311,1.1892040482522723,3.096481637729521,1.549254638904898,3.071507400627766,1.1997103182837603,1.847995883340775,0.267346097621683,3.1600216305680497,5.167654942426211,-0.4202557297461666,3.656790446421788,-5.9804643758585705,-0.6021190482455907
-0.1380804687228778,2.4425947894802853,-0.0203498610212327,-0.8331302240235751,3.579581293917624,5.532523322314522,1.7727783545798632,0.8856577126516996,-0.030769418097222,5.1284064947668,-5.6919644451835225,4.342489240113677,-7.571252475941753,0.9846090596392524
-4.746667284879459,3.436173699638608,-2.277968897857102,-3.027121144454979,3.845931420122909,6.637630096775856,0.5384396199811857,0.6178902905798989,-3.1212356964045327,1.97730071265244,-9.319553110611556,3.480748537029207,-6.638657556947258,3.3786539806038967
-7.389789531640626,2.1062921015936613,-3.7239097274454096,-5.10685388150395,3.5469197334194824,3.189038827762138,-2.085033772341658,-0.8920252810719393,-5.385070549775797,-3.48518314439286,-10.841459071133093,1.349149372917097,-4.59284918536463,4.343998344057067
-7.846298657166296,0.4777203572406301,-4.29113751790632,-7.535051389822406,2.945517516273985,-0.895475125168852,-4.737406690605733,-2.651529202498586,-6.43471207127824,-8.476717279149625,-10.775021542287242,-0.8571960525275957,-2.759831117609181,2.8295364880556635
-6.935780342021975,-2.315017135488848,-3.411660477740232,-10.186947664350097,2.416225790594479,-4.193500738250149,-7.880932027704411,-3.402293332415332,-6.1779936797595285,-10.527503124167756,-10.025300115334051,-2.318545092923193,-1.7323878669833468,-0.6714916225862684
-6.013337279206683,-3.39198149136114,-2.2672150607720285,-10.479659754881798,1.7781754034578596,-4.428370056348279,-8.765197636257382,-2.9327330940766863,-4.822190748370936,-9.520192258257058,-9.37864587404514,-3.3119659362786584,-1.640180623080056,-4.825896035046224
-6.182088175211587,-1.3663641866451652,-0.638862234486749,-8.209482499520174,0.2939744617013358,-1.5824671840235185,-6.999452006873731,-2.29692397274924,-2.998583850956199,-7.624873569395277,-9.265939159959435,-4.634755611033267,-2.712569704281595,-8.390310883776745
-7.548545963726708,-0.2976511235170082,0.1180918204090675,-6.586610895233339,-2.4704126706271445,-0.2895939783796015,-4.764517133210306,-2.691789094096712,-1.6969679925244154,-7.188933074412553,-9.668547382776026,-6.3717345426849725,-5.237428510427797,-10.630031451548398
-9.02904230621754,0.915201216321255,-0.3166160520098815,-5.09444927915086,-5.74783133062164,-0.2395567963098103,-1.311135302930519,-4.096430547450661,-1.7352885754897258,-8.549735121076148,-10.115117725424584,-7.382181595836546,-8.8055231825182,-11.215148672799264
-9.015879694723209,1.008279092258615,-0.957455364373432,-4.834161892584078,-7.710446916086632,-0.5045616586292705,-0.0421496873738645,-5.063843806947647,-3.034031107279839,-9.802461897534815,-9.8982580393965,-6.194056382937792,-11.746935726400343,-10.0731001077356
-6.580347922209384,-1.0072136720013347,-2.2560518997262853,-6.5163067162522665,-6.80305258458165,-0.8245048512954471,-1.474753026135453,-3.977623894289593,-4.413358456478914,-8.698952424841174,-8.541007740092398,-2.550188190052449,-11.769672552212628,-7.500106595132337
-2.355272489188099,0.5663876860233243,-2.116339526756356,-5.303471208467089,-3.191923572503068,1.1596061133870963,-2.656489010077677,-0.6738955602506636,-4.360586598074907,-4.872943097828625,-6.229510286733188,1.903669137046457,-7.721619546607972,-4.343653437129387
1.6350143880316423,3.415640714926889,-0.3182029213215498,-1.388360334790092,1.0274162410254242,3.876801954950421,-4.49926174972647,3.080169571708105,-2.3274152391696674,-0.3537663839930438,-3.822476774467909,4.582629129099395,-1.0795907412257364,-1.882033019268711
3.1652179597241137,3.667825927645465,-0.7778474896208192,-0.9311844139171278,3.1824864513208304,3.741037444303286,-5.725969903230528,4.776930653282015,0.545978284497707,2.017434149439147,-2.355094537258484,3.8531363308002753,4.401083772658765,-1.2919566589426168
1.2145327594172102,1.9988598226628815,-3.205169825127074,-3.350581636281137,1.8707840610201885,0.9492441581846536,-5.920180309315929,3.087826978450522,2.0696431286207115,0.7866555303967218,-2.390969813390207,0.2498384119188372,5.063920844214486,-2.9810878587155685
-3.3694548590199744,-3.3348384779699023,-6.251875405355315,-7.163056868214149,-2.179369520283892,-2.273853359507571,-6.045457478048118,-1.063898694981809,0.6585130508800319,-3.158303002850147,-3.6952999990893782,-3.993179443450373,0.0981217722037257,-6.20809973519215
-8.352619579561974,-9.99570570188743,-10.703019058143074,-13.622595748153536,-6.805725069491757,-5.216854534361244,-5.646897041156933,-5.130130179472026,-3.306036908344865,-7.45385031696896,-5.405488830817262,-6.6319035356650815,-7.590264447870282,-9.283167124156217
-11.365669951149124,-10.9748098104852,-10.821963411546148,-14.251952740486532,-9.912664044215454,-4.621932456177747,-4.116590873310518,-6.712293645144428,-7.580640890558072,-9.96487424520484,-6.49383804979292,-6.867804103449821,-13.254051645399535,-10.35687449153717
-11.110346514756394,-5.477864084612794,-6.074111671229735,-8.450529367241684,-10.51655722329476,-0.7848975730322855,-1.383869867587156,-5.07403136063872,-9.614126430781504,-9.9142926104398,-6.205346884736791,-5.465381706002226,-13.54916913365578,-8.45806159779817
-7.85486540258217,1.3356005829512718,-1.9874321491703624,-4.077557617120154,-8.752146261525212,1.3241187739062776,1.9050954263425888,-1.3506949092175802,-8.339525250351343,-7.860148863805307,-4.327732144115977,-3.701696768913145,-8.644103263722357,-4.170082814843482
-3.08540740882615,8.96352018978996,2.7483361676499314,0.7227210041221473,-5.313249220231242,3.4142428757241863,5.915685636552101,2.436380261100581,-4.836221349826246,-5.006980002722436,-1.3221724065022968,-2.2891698106039087,-1.7184804091835844,0.6002032227225271
1.3250410369212346,11.843180890860776,3.808698342998628,1.801518120931446,-1.1522825959849996,3.616305730182622,7.408806402506958,4.593337548739058,-1.472005615515272,-2.6141594145101834,1.7031973417668809,-1.2181668625537725,3.432985213167157,3.753091391827837
3.921993081027424,7.054591580930741,-0.0314923670366365,-2.388544323938204,2.372234298455467,0.8498514182752972,5.967222766260323,4.356059800093391,-0.3086818143706011,-1.722834690144154,3.3337856048649,-0.407308127558224,4.640201739868488,4.302545299179741
4.135797268920129,3.008010872412114,-2.933968422702458,-4.536670907932848,3.535612289080049,0.560033129644959,2.4028034142300023,1.8413900473049267,-1.920625897076178,-2.8818878917618065,2.5864968818767125,-0.2256607370567565,1.998367641201113,2.904119940337821
2.37046102947194,-1.5159476588319774,-6.150296719283527,-5.852218191421999,1.0911645959215406,-1.1395766875513889,-4.340568717541398,-2.145982567317418,-5.215335431094147,-5.677313494594031,-0.2589706402819303,-1.183231588571843,-2.870842252171883,1.221831041517845
-0.2070705652810289,-5.04822646952507,-7.242795130147232,-5.88960244916335,-4.444909569817085,-3.3185182292477124,-8.158742459597224,-6.176504019163431,-8.089779179780606,-8.46336431287628,-3.40199681770369,-3.092165272340196,-7.776832592741215,0.6792068056320915
-2.13522847305687,-3.60024450293611,-5.091707540697033,-3.3114751761083148,-10.342775988331384,-2.076650227007552,-8.817019385301542,-8.438541459705718,-8.46355720721212,-8.931687099722907,-4.33560037730031,-4.706631326635474,-10.49589477211994,1.5855418689779128
-2.3192059483488663,-2.512011930604277,-2.4271958261223068,-0.581312270294192,-12.987572529207824,-2.2038554504544567,-6.468428587956383,-7.5465946479224755,-5.32409602493982,-5.552014382248629,-1.4475185260976249,-4.464188126550937,-9.258644932412366,3.209012720809241
-0.6377468386798029,-1.1734455894415008,1.7351258006470571,2.8795116110572336,-10.383950375248515,0.0275350870643397,0.6702047557688838,-3.6227870370499886,0.5714734846758276,1.0654851604897573,4.696758158405764,-1.8178966369162737,-3.6552918933749368,4.536144182254532
1.9160008273331923,1.3612917522803318,4.37650245103989,5.326112633917671,-3.8715999296191512,3.952897988363504,4.418868843178115,1.3234647688426475,6.829046350370824,8.1418932116963,11.500009795567266,2.083528743048064,4.527686744361148,4.9940146532044025
3.811627085791585,1.872876865307039,5.03269256642731,6.278829594814248,2.601053535004056,3.925941450371435,4.920421769499884,4.438102175322847,10.654955992281806,12.389000346769969,15.994473882194292,5.128418840253779,11.709310982261186,4.643799914061155
4.021937016545877,0.799106140395522,3.994735419615086,5.464676057093591,5.326958379980802,3.5119998898565377,2.399054730619094,4.008571543552769,10.647119575020682,12.25252040058546,16.83455033002143,5.852286595550197,14.578509647487934,3.9191394163911326
2.800570269416113,-0.2424546832789245,0.2256262024663835,2.118752608830725,3.5798146422536377,1.6316901397726509,-5.255072263951526,0.8671467732148486,7.827793735286313,8.977075958754703,15.08269395464866,4.534234482221777,12.549691108514487,3.2948177624981554
1.526154839354433,-1.6776969707764573,-1.2856179787477655,1.0344609677673655,-0.0240181336324738,-1.2903969830374593,-7.641890778145753,-2.074946400045356,4.906875724352233,5.596010462722475,13.215405765562174,2.82878965065521,8.469503135251074,3.1271329819584963
1.6073621095915342,-2.1973380161545224,-0.5565583370009002,2.1702443072966098,-1.821764739223859,-1.303596194307155,-4.824707735316653,-1.973762006883824,4.194914709753334,4.6530134950920825,13.222930983955187,2.308206288391915,6.579893820845328,3.594034852233982
3.242715124973458,0.3296976720542013,1.793738504285454,4.874884060890677,-0.0947157597629484,-0.4148450529188372,-0.403925557689929,1.7505383350211687,5.878070811036693,6.481847473586846,15.317661457642664,3.226733861672344,9.111112467598666,4.577737469623685
5.067581267846911,2.682753644744134,7.044426954614815,10.368140403322164,3.715382298988942,0.0735337806695477,8.036369912480769,6.900489584333613,8.139494546531878,9.305831920071824,18.09145739250973,4.51698379691998,14.313499778125774,5.546908659685528
5.110713747825976,3.268392249101425,8.190679505743843,11.418666350889556,6.416692899811324,-0.0957512829213591,9.714234947487649,10.067817623092466,8.932868779851681,10.8494473417041,19.713971692349617,4.8537462979369295,17.743567195554952,5.700541489844568
2.4251788569303656,2.2838757520991413,5.066421036383117,7.793066314986724,5.747356719164664,-1.667493784885746,3.884070884216605,9.047907069933352,7.705250518446931,10.0201406825135,19.097984801671124,3.734527978830549,15.89896567207797,4.494996397606393
-1.8927143845774808,-1.7633321841056098,1.2463441830066817,3.0056670205011167,2.0815058241738527,-3.6414355436307217,-1.2727060999922364,4.2942393942145145,5.53973329602163,7.422914135190538,16.299618695586176,1.6959428092768007,9.203649248873738,2.226802840411402
-5.228951926475325,-5.476088880025028,-4.903982860879401,-4.688896159916279,-2.0558178636443927,-4.959685168546281,-8.254951627916764,-1.5497318954478343,3.824703914199716,4.60823912897984,12.203795791922865,-0.306106069968628,1.7983486098762214,0.0700570347409055
-5.266272754574679,-5.604527950417802,-5.971308044796717,-6.488082660226574,-4.019890189445761,-4.195427550422135,-9.196653301863872,-5.518225188797359,2.9484541633517978,2.8975187638624327,7.969415913269511,-1.6265949147057237,-1.71566298968294,-0.6960349865793596
-1.7356098188053473,-2.615802075468569,-1.1288412345401488,-1.5054130597751312,-2.889926259736633,-1.3152453769089116,-2.450814674325614,-6.137979839361769,2.284849153668816,2.683072721725271,4.573118780160172,-2.1505711982068547,0.1649337511838204,0.2505818228202372
3.307335608154581,1.7177325872661378,2.5761722070428585,3.281856019675787,0.1981691983681344,1.2789610763533763,2.308609415524345,-3.97710499355113,1.2578826391212878,3.487625167478349,2.511371515373849,-2.012674388451096,4.9288149112946975,1.9004949856745303
6.9647424130129,4.879883021586178,6.895873083546404,10.052031798806446,3.214594338615342,4.533631468908365,7.118521665919298,-0.7935988262129818,0.1802265277493102,4.489802436776433,1.6758665778828323,-1.277750994942224,8.372884129908215,2.725021072195176
7.595563085753243,4.5764665368057775,8.478195087212132,12.397086831618854,4.789769571883785,6.100724380123986,8.804242885887211,1.8437825964630847,-0.0596183030625363,5.065673074989016,1.5064809707597862,0.0683027562751772,8.004760981262,2.061301271296089
5.874101836593532,1.3923943493215096,6.037029622818508,8.981808696301895,4.974112130889962,4.076172723434188,5.560651425312956,3.386047483186622,0.9425262673277957,5.060140880691899,1.4289165169842732,1.8952965719369264,4.658564909062113,0.7973963226954521
4.024434089527082,-0.94228724626282,5.97545340560554,7.358744523809387,4.8060256019166845,2.844931742284565,4.5865402708081024,4.14961221653576,2.511810143588968,4.722088875058575,1.2938641121855126,3.7969030653620273,1.27842431939212,0.6353561038930291
3.9620510361288463,-1.3291113855117542,7.358589327011604,5.845015470501625,5.22220463194591,0.4619272070541655,4.795824236998529,4.597405807662785,3.451127928917268,4.407201357858574,1.4160173306768389,5.230661999842701,0.3246807233475657,2.5375845506585364
5.908856615591155,-0.2552690503661723,7.73621339661141,5.5188232006104245,6.239938193261232,-2.0825153917808747,4.647720626512613,4.829390236534277,3.1914142600889197,4.273033273135816,2.126603632731751,5.807759759444885,2.139332902626784,5.7688169432309095
8.505576623558426,0.748544839170992,8.061338620209167,7.590195062884813,7.014015373475772,-1.8792254448186052,5.302124743723315,4.681159632212911,2.342288536304572,4.200867239369067,3.251021872981553,5.480942731325534,5.323062319297904,8.415419151220284
10.09404604571214,0.1247991344541773,7.214730125906427,8.118378562952717,6.647008097804182,-2.168459591831535,4.214821476238113,4.162218823310511,2.05721546415834,3.995813364664876,4.055534276767538,4.512816554795968,8.243694319955367,8.90011787225346
9.93272982486394,-1.9445122313147296,4.893848998790114,7.613141519653269,5.054938539730692,-2.186938486692126,1.3029451890172066,3.6507876399396935,2.8277625761086758,3.649354662434689,3.768866327808908,3.302304474762579,10.089174329996958,7.140729643460468
8.395548354897969,-3.569526910898344,3.0710154880519784,6.386462771003323,3.15838123476712,-1.3329747818923927,-0.3328927639447614,3.5695248228888943,3.8946272656959033,3.3560601386140974,2.1916061855783937,2.207789752446587,10.768774695640928,4.405744654125783
6.2646965433179815,-2.5737398281984207,1.5063253232101743,3.710544645617162,2.194011101147467,-1.1644512409851606,-1.081698908243442,3.850056157108384,3.862187385486962,3.218681424620854,-0.2072237134503751,1.4227994281432927,10.24704531410903,2.129910262564209
3.982826243826125,0.2230548787116232,-1.3288549892342247,0.7763456951830403,2.6585621149235124,-0.8064769564615076,-1.5106919692498328,3.766507759571653,1.9474385706813704,2.940224763797588,-2.7889312767323986,0.8950921675711498,8.256569581552071,0.8034776305029112
1.5398488553933731,3.828784044703156,-5.1889119070665455,-2.597601073025994,3.758243066799636,0.4389163722721838,-1.0334801939372509,2.410035927009588,-1.2881166771971522,1.895169957089024,-5.304562496172437,0.3216231283983006,4.665809751286076,-0.1612887150258615
-1.1128141243892171,5.5329637443214965,-7.453085481570491,-5.202697757553231,3.907080796277171,1.2953160322697954,-1.1642771493814907,-0.5211322218375045,-4.36073824264659,-0.3564925600175996,-7.924182753842601,-0.6928340934192931,-0.0105731299636602,-1.6211574564298985
-3.721581542500559,3.779007699695288,-8.1517127124419,-6.717172679953239,1.9824363679242647,1.29878754780506,-1.9016372712646037,-4.271857214343157,-6.016474476826545,-3.5173605896418394,-10.726121595981454,-2.307874777468129,-4.585237824078689,-3.765830944095228
-5.836412758822689,-0.2767043052976071,-8.696583986127077,-8.550127128247713,-1.640834771724201,0.3755879572700461,-2.674622123618791,-7.337082758238381,-6.091251703673379,-6.502921330180527,-13.23536219014636,-4.147491688058409,-7.763839861122051,-5.871371901340979
-7.152506593598872,-5.312848362608066,-8.503280729281322,-10.33213622712725,-5.1725322991173925,-2.0822268318577155,-3.8217590478887824,-8.345646569135567,-5.414537288763796,-8.060417492294647,-14.575716448795788,-5.340889919500484,-8.878028512283606,-6.894100419614432
-7.637096145356907,-6.49140466528056,-7.760179206933277,-9.81387247012161,-6.630884150813785,-3.271750121409046,-3.560864085828072,-6.8888053485014495,-4.973515920099572,-7.637420838770707,-14.162382206227107,-5.036116444597752,-8.252479825930635,-6.337882229880705
-7.320289775420235,-2.7781194851172493,-6.55109118546395,-6.933897189403873,-5.276477167267956,-1.358882535915361,-1.7412185509850673,-3.72453681624458,-5.122646328454152,-5.81275646892081,-12.275644620174262,-3.096805552685709,-6.9662311235280185,-4.645923238599863
-6.089873738840339,1.9148226280820864,-3.1104755808609936,-2.6542318255421886,-2.119518719159373,2.2358149410835524,0.8462380545408861,-0.2812980938294345,-5.459435599751174,-3.919177403826467,-9.942313900850053,-0.4074185695774304,-6.17535473303127,-2.8286044478329018
-3.856150396826735,7.02038976887265,2.669596177088274,3.609601353133519,0.8749762028714656,7.615009351220809,4.69080289851124,2.1149305333343023,-5.3594081352036085,-3.1324762568887934,-8.219126362554533,1.588708986403418,-6.430265248817022,-1.7095544410831849
-0.9926666748348794,7.785740522187206,4.662569463880648,5.4474411106474845,2.193302636245221,9.730319188516525,5.5283597184276125,2.7603926561670846,-4.654397942495905,-3.730721418298685,-7.537521878932125,1.864679089903234,-7.426839145841086,-1.4594182920667436
1.4673241773456311,2.486705797024578,2.7911787371218706,2.2655796219861406,1.661562420409041,5.430337790882542,2.9839473257558797,1.6357683343096028,-3.891086811172897,-5.06335725192298,-7.665735424010393,0.5264138747147626,-8.357381109928724,-1.747934467780567
2.2737726598529093,-0.8496318689862595,-0.6526053447241131,-1.015865229128026,0.2255756338702781,-0.3469760071399592,-1.076851983736993,-0.7796237242830557,-3.9558337535877968,-6.17116838531706,-8.205663722213046,-1.3653417589205787,-8.603891972344343,-2.235274011422405
0.8281453605660545,-3.4521046573740546,-7.191910212814643,-6.001742958412485,-0.9988010564277374,-8.135821396028309,-7.850444625269041,-3.64785619322754,-5.319351655807338,-6.496709607190041,-9.034729034193958,-2.7328445534830053,-8.23478695654427,-2.8600040438764154
-2.245661845933739,-4.687816628269163,-9.490647397549871,-7.96999177227458,-1.5141813633075571,-12.122928722849515,-10.138442912204306,-5.861969499196789,-7.463594507090079,-6.149727125421805,-10.23216729629928,-3.3292669401413946,-7.896214138817584,-3.698612851739711
-5.4066600887457525,-2.1358074452301947,-7.022509042083527,-5.995920588111527,-1.5077093350755604,-7.603935500900825,-7.375769318218375,-6.356201920675289,-9.003404749659467,-5.651808454698653,-11.63490770464398,-3.712986966605399,-8.192010414007996,-4.677144783074027
-7.230277628427302,-2.9405779698732992,-4.019945168380088,-4.492526300458701,-1.3729302316463643,-2.758603096634461,-2.284080372834893,-4.744337447724206,-8.556302478980342,-5.501558741871634,-12.60589486168618,-4.417446412768015,-9.123653338546262,-5.530060180654118
-7.3444337082164,-4.651552613548009,1.370998602575386,-2.134836552982315,-1.2790846777914453,3.3047209781505744,7.144569851321127,-1.8604046154918024,-5.793194252795786,-5.906110701428446,-12.39425557961158,-5.205244618138636,-10.14072585052898,-6.027228130058205
-6.471637887196977,-3.6309359988830914,3.757054900112486,-0.7237554278867236,-1.1538772330362974,7.088969312581843,10.758401473611483,0.4957240255871511,-1.820697183485322,-6.731857832796521,-10.821606439922649,-5.225873381692111,-10.777975251204056,-6.130542843738738
-5.5562536420965785,-1.7939019038745485,2.476469507679465,-0.8853259808850388,-0.9425292669762372,3.651183651831964,7.919602658512802,0.787000112737303,1.5180980301418003,-7.542685568919069,-8.602606393634744,-3.948723039480683,-11.21908742723491,-5.860958174887742
-4.8092695015640174,2.074323490737216,1.494742492133199,-1.0215282930791614,-0.7703837882934863,1.1457240251514476,3.879681066888724,-0.8979046606560246,2.937411596418769,-7.701207228916701,-6.880992390971244,-1.882426560059116,-12.098614261643776,-5.104184756577695
-3.61418050318332,6.25792199764772,-0.5861707967122474,-1.7695575436179904,-0.8403942019738224,-0.6455125652390394,-3.942181631520053,-2.6608039556122094,2.53505105828674,-6.660599880786378,-6.310576135839142,-0.2556268850927381,-13.592742167801248,-3.7409486680637656
-1.4200956837046874,6.499973242618525,-0.7736058812001685,-2.0365354069838357,-1.2210489876845827,-1.811309059961706,-5.924335564663762,-2.2798099328035164,1.466627678973623,-4.424765153570775,-6.493928709094007,0.091222628922253,-14.705023760439246,-2.068039122885068
1.2832139594995624,3.4797307748584125,1.5259413259188976,-1.6535609307932435,-1.7582795225673635,0.58889058388192,-1.103390901105609,0.7373030093154966,0.8341207268773019,-1.8040757759470691,-6.303379618274846,-0.5173675846508274,-13.686815183887376,-0.9522634339056708
3.0187222637129025,1.087052121671174,2.480790359990261,-0.9870516553961544,-2.165138750877361,1.6175975959534443,2.134241797874593,4.445777048124057,0.8655090997133357,-0.0285338289126002,-4.800945405133177,-0.9624217517383612,-9.504092250013798,-1.2495173991956676
2.57436707556451,-0.864559721747376,2.810872402228949,0.2991049387536006,-2.1791285303425525,1.003008186987821,6.0572100484722,5.999647966697239,1.0995634189592352,0.1987866152812216,-1.9392283293861965,-0.467191548187202,-3.081564829287629,-2.8068630917024397
0.3592668821543441,-1.2198982867755672,2.477605879452722,0.8853807270988429,-1.6990818929439513,0.3588122354810935,6.336955279292384,4.225274774510922,1.2144714604957585,-0.5584489317750183,1.512395772185414,0.7006699058441939,2.9962681707095555,-4.046777357906848
-1.5433028185610738,0.1964471759592441,0.8392327666584778,0.7325538431594654,-0.8861053827972114,-0.9095420711020248,1.5117703728010523,0.8486971686807294,1.4948677938810988,-0.7555579777196328,4.612842727918661,1.6843481369892288,6.300298333785435,-2.858757738691992
-0.936816269098614,-0.3352661054594017,1.1411915534772303,0.4239101348968142,-0.177781427456324,-0.7224785284076792,0.1354001435571221,-0.9255671194954402,2.400279295774084,0.84459920624343,6.79802048309756,2.0937490032731603,6.350945688559136,1.6430707734158716
2.553006896472681,-1.6029320933588211,3.3738099708154348,-0.357858543984372,-0.0951181340446964,0.4145235347737802,1.143812690821146,0.6827311151779156,3.7639924018874353,3.9336581659033527,7.922168484834088,2.427842352410295,4.759386643506986,7.926337424052207
6.902184027822329,-2.237835126136233,3.774760071971449,-1.1210852349623155,-0.8501271110364712,0.7409239698783903,1.3319368057848529,4.308096635945589,4.614455038508908,6.655677099410042,7.98433839308899,3.340864970552474,3.6118538452004154,12.619995241700394
9.085660830899286,-2.623112802966178,2.83285211143188,-1.8341884267523771,-2.0487043371216487,0.044253242398524,2.0971179197836465,6.548899939640023,3.9461795255516847,6.986879519756627,6.989609053903507,4.572142026297712,3.6464490763180777,12.690429478791913
7.3285087467035055,-1.7387550339845688,0.015556671058339,-3.012977449285327,-2.870184998839676,-2.0967607536382933,-0.6244605465333136,4.934990867676589,1.6965208792252895,4.355939309637705,5.086050359057964,4.838812469960402,3.879214800660634,7.654861400320215
2.3647189922729126,-0.6603097601261906,-5.509819406974526,-4.5691012110832165,-2.7200740630087665,-4.365573897186803,-7.402863743520188,0.0622361848760988,-1.0964594146085602,0.0936280480605944,2.7025143507332103,3.003026630854848,2.846524759368151,0.1054689266023416
-3.22518517185128,-0.0494355418746123,-7.138264375943755,-4.5561193506418345,-1.8043962393316664,-4.382787320812802,-9.039905464457703,-4.976541458510468,-3.1470876395888894,-3.64822481916498,0.417869983263941,-0.6056991794963551,0.1253040725764549,-5.93311782528788
-6.884250063708663,0.6282378661030521,-4.791841491538187,-2.866645535671239,-0.9987117491450022,-2.011126034938114,-5.990509003989804,-7.209991928967995,-3.936743072821628,-5.495057445317684,-1.3339173738240078,-4.141527876018273,-3.251566047092183,-7.63679614873935
-7.589015388246523,0.5946763254055986,-2.323430352787052,-0.7061718225565413,-1.0157398511399265,0.8835862039239581,-1.8658548778665955,-6.024486227721255,-3.908281619255348,-5.571738092973078,-2.390186469714905,-5.6718621587294535,-5.619335863219433,-5.089160454782586
-5.998912391028995,0.918313409244344,1.7307932333595757,2.4129636187692345,-1.6338489592742746,3.561949207018581,5.2589287904387225,-3.165683990889548,-3.749023322946897,-4.873549462968768,-2.705846189068538,-4.770064668034436,-5.784990905748558,-0.8877332344278699
-3.510932135525472,1.2393939163143084,3.0003355696476826,4.257424142828631,-1.796783774477028,4.252715829053917,6.636664910734719,-0.8586156139113967,-3.59781922568358,-4.075354580430755,-2.1903505101376908,-2.7369431271917293,-3.52963463819529,1.9178457084564255
-1.2301744758668036,0.8066543670633127,0.7921476987621263,4.541974150791468,-0.5872328766508375,2.7559933669685672,1.4300985836711038,-0.0103271183292079,-2.9958439975986977,-2.9666044458447303,-0.8315021494940069,-1.2550324877712953,0.5251311201865292,1.924245807026999
0.4108111488574906,1.61743522309337,0.2963371276768454,5.658915434981751,1.8084395320647388,2.339489065708589,-1.776984664835512,-0.0315324088360284,-1.5370827895507233,-0.9494432639257367,1.0015693104718153,-0.8220127550244598,5.215447139016753,-0.0081705734062538
1.4285742213242472,2.088952094092096,0.4922442387782578,7.087267648899767,4.068487768489788,2.628675583096246,-4.94565543989869,-0.0115697033810135,0.5624340817761961,2.0366796537917047,2.5284209099406283,-0.4935086520038183,9.089474339043711,-1.868297783682628
1.9561953817897224,1.5665394870049651,0.8964869512284079,6.927014208847964,4.702760430626807,2.3991205278293792,-4.924093448911775,0.2575054312633185,2.591339082543477,5.15481908334889,3.0629339428473195,0.8835078063011537,10.837881459696169,-2.2399787614564453
2.127300043268708,0.9642797302800068,2.3023609926031465,5.3439343467834055,3.1819514356877328,1.6569388684555657,-0.1350813718842787,0.4306744302052934,3.980210578580853,7.246469301949641,2.7111026809254914,3.259498375962359,10.00079754216418,-1.2353022301023735
2.106301561974313,-0.9547992220938624,2.404529092098993,2.3949640095054057,0.300791681172029,-0.6499137327637001,1.7547680216149708,0.4755632847536177,4.736743009761155,7.790775857223118,2.5495041226441497,5.255939599132053,7.503041406909689,-0.012419170885578
2.061983867225079,-2.3777564838310794,1.2354892490926257,-2.376854078775124,-2.429695246234828,-4.188880568501866,1.6504761574834632,1.012828123222678,5.254958288355444,7.33926008928437,3.923217880326688,5.464824326890617,5.363419170317202,0.4938004267607661
2.0693208395877534,-1.896903804944464,1.2332590099500946,-4.164941376835644,-3.786576272727931,-5.668239204396761,1.531281568374436,2.610314309405389,5.780419117585707,7.013830914375023,7.321736462107092,3.8751549415307167,5.487798029869145,0.4340402523567732
2.093763386580058,-0.8800002879247903,2.0566236289723543,-2.7115576177823737,-3.490456693895947,-4.16815013352541,0.0373360133101316,4.833644464214917,6.140447211950722,7.509531347277594,11.795492266338774,1.9926914401059503,8.329289263050294,0.7997202864887711
2.1150505190149573,-0.1923551862830328,3.1614838728413104,-1.3102580068074925,-2.182273598885061,-2.1961078996170955,0.964162479110075,6.248218106107117,5.987566056537002,8.487533803562755,15.499269094587664,1.502609464386211,12.481804396875589,2.3881695401976906
2.2290618280521386,-0.8367775580530715,4.983161619890679,1.1753015661519288,-0.8935462887489471,0.6834674872386318,4.524146967929386,5.578406000400321,5.226594280626159,8.906002450037612,16.97922819689767,2.7470568942211173,15.611766254163022,4.942658221884237
2.5586237484800947,-2.116517203095892,5.660394544273609,1.9921602868578123,-0.3874115582681483,2.6251212600812237,5.77787034551659,2.950967773339777,4.151306056279815,8.013101027966549,16.147249425003075,4.461403924547184,16.057473687198055,7.232552294679991
3.0534814084959763,-2.076601260067233,5.081434722004487,0.5922847305842313,-0.6940111696341305,1.9040805006800017,5.341026270408106,-0.0199022738740879,3.1991991472087378,6.137021446521381,14.1679638077389,4.999403619905316,13.879871214205105,8.02289216929482
3.454564704688906,-0.0341610609709431,4.810440395659268,0.0506483074106195,-1.055793639576642,1.3510670075022588,3.988117831994297,-1.4360384518388756,2.639992413896124,4.556936873419787,12.46043674288147,3.869767288940203,10.603348237243496,7.127608747396401
3.5325482062288245,3.761846343344761,4.442181719933955,-0.3493806636595015,-0.3716102371072196,0.8578855626217028,0.7731159482953404,-0.5259290879675476,2.495130476630401,4.5120346948896,11.737572111697936,2.151627017262129,7.94527541543313,5.62566373118301
3.341006935931034,5.697920637028466,3.8318656564082585,-0.6464566106289974,2.0172433040161053,-0.0396023161831832,0.2752245012093916,1.928104402331144,2.6523374134825985,6.145830296771862,11.809130808188511,1.4498617035084609,6.6010019893349465,4.966657424955812
3.1268233380559494,3.62246177616081,3.167446737561564,-0.4152325448797512,5.664853533555842,-0.1741556870000416,2.671988602946456,4.350366377579142,2.944405519446832,8.260400007291729,12.04849298151035,2.407562715162207,6.004847818254902,5.65347230300879
2.924429854707988,-0.0104222201383948,1.6725285152271785,-0.8714484537694952,9.03336672682103,-0.15730769326747,3.7873210885094486,5.514546365830157,3.119976690675145,9.1065998461521,11.879577228137492,4.137061652459153,5.1101946812714445,6.674612924605427
2.3188235441022016,-4.641483811318409,-0.684897132466914,-1.941469641530448,10.348216177867627,-1.015202782884515,4.534658324967764,5.142812369635294,2.8708275944087305,7.612597649390992,10.893292839721433,5.019678475177102,3.415146144302014,6.329134295889688
0.792943357133403,-6.371227573652378,-1.497458257968952,-1.914285486672956,8.794490189219793,-1.45133697750365,3.676171349947391,3.712180533047757,2.037712406945289,4.131339911036079,8.820847044203418,4.0866519309361,1.3776490662282157,3.845020722452517
-1.563385314961863,-3.050670774856007,-0.7449318497163432,-0.8935181272208509,5.166386952310567,-1.1413504707538038,0.4412028911625262,1.904530776534095,0.835569596944147,0.191559910742292,5.74741024377326,1.7680281038334584,-0.0119669644454134,0.3310333514202455
-3.734394740164227,0.2956018179355358,-0.0344053507902019,0.6742017715328686,1.4089501594673166,-0.8653910929309959,-0.9805302375605156,0.2473198277623964,-0.1845799519326547,-2.4970556776808053,2.462055833444168,-0.5365098068757774,-0.0352870572734289,-1.938261079251859
-4.344472467686572,3.775205490910668,1.1545974394998906,3.167531253812509,-0.6558584402906931,0.5474322050318046,-0.9027898130429458,-0.8875881181602523,-0.4852885883611435,-3.029500337075824,0.3714119006013021,-1.5818340021402406,1.227519566060856,-1.3919265133403087
-2.73193484031566,5.048281070421219,1.0157159045001278,3.827064943691847,-0.4688087352214296,1.8356497961511589,-0.8374990895004727,-1.162312688168491,0.0855718770157309,-1.6385937450937431,0.672468076327263,-1.1401798715735438,2.9616702028820967,1.475213654806069
0.4265781862284683,1.836301320941265,-0.7903727391214338,2.4545820595359777,1.0830089758632298,1.8938167545575089,0.0215204262513615,-0.3455926027861196,1.2180136578024374,0.6973683190237026,3.2994764001302386,-0.0119521799456379,4.125991579500258,4.499118939165612
3.5289653133098824,-0.5894624087580346,-1.0323410119916383,1.4981023812775032,2.468777586120659,2.300924748100144,0.0702456089491583,1.3654928665688717,2.363734974287695,2.9106898202306155,6.612125059049838,0.66975979998643,4.03789675370539,5.610780614208238
5.123914248560645,-3.0480018178672954,-0.0542780368991955,0.3393077495307026,2.5916105712535966,2.6003586200459177,-0.8355213595436873,3.083037240569709,3.000500367266568,4.239074333678673,8.28322418994859,0.2332993650692501,2.7073279936397867,4.335488892134606
4.721803571245488,-4.360090247384157,0.2190523069864716,-0.0889561110897595,1.3595169032836625,2.3511283045472133,-2.301613579844977,3.457916573212124,2.755797702503159,4.234770196894118,6.796757840691072,-1.1779971522965127,0.7549706102146345,1.775222807757956
2.78771446384161,-2.119282173750608,0.2848251043286993,0.6348104972828051,-0.4924426630960212,2.0951724047553038,-4.78292148860159,1.497423130926876,1.4658960921913788,2.6942087078095724,2.408452493715288,-2.8289388726493527,-1.0326289551775858,-0.6339165473507791
0.1731820342813463,-0.7383531916907972,-1.737725532388426,-0.1066269345777782,-2.0065097488274617,0.4985065043878177,-8.068444722684164,-2.546382562655083,-0.7026806261908618,-0.1964250526197517,-3.122475615401413,-3.942725155808205,-2.2232486265722784,-2.2322683013527893
-2.381381183025745,0.8731140111392991,-6.314811854377817,-2.108828905862117,-2.574069077646058,-2.3380301232259177,-12.291880213006593,-7.043996027510133,-3.163708534367359,-3.63327920136905,-7.722343298741876,-4.184843273030488,-2.950145684273309,-3.175203389234482
-4.370783290631614,2.5167466241978103,-8.342289458998234,-3.0653429582079443,-2.224249338434589,-4.124013684900855,-14.52522104477532,-9.964093429785429,-5.09187705382562,-6.3434367778155405,-10.177230277118433,-3.800429403914528,-3.644650702017614,-3.727448649643669
-5.473592506538104,2.0247182266395995,-8.065804938411812,-3.3375253813477364,-1.5787485361785727,-4.46989285644157,-14.505024608485169,-10.312835788646607,-5.886681610015614,-7.297053980691786,-10.546688708708103,-3.3725541749980508,-4.546137022171081,-3.814321944952532
-5.594635001909765,2.4904435638590634,-7.456426960370596,-2.875039464154619,-1.4875559497999262,-4.098891630177263,-14.29918060214298,-8.811870474618331,-5.561592239129126,-6.495464471069624,-9.757638256733486,-3.391003394716712,-5.468381278193284,-3.2997820091022305
-4.957642854764352,3.230347659665668,-5.445672482369923,-1.2218901972933056,-2.4572045083671767,-3.4725502676870192,-13.15444473665729,-7.15121663682411,-4.658584359864335,-5.03768535926649,-8.859916336063314,-3.906845768544386,-6.040290588594324,-2.494333206053461
-4.017571204744534,2.5629316220833207,-5.363659310462773,-0.9520502506510736,-4.203629108911578,-2.5039689603536504,-11.217925271125065,-6.451089200352584,-3.728133489168336,-4.2359407103330895,-8.48149051638093,-4.478341964595806,-6.129503820908454,-2.1370337626949336
-3.168085680830991,1.5752878322515589,-7.508418903778899,-2.0728845905198403,-5.74235687234809,-1.151191442227842,-8.643575760902555,-6.350302176402568,-2.8781953072921134,-4.522489792090671,-8.71253142856337,-4.459001914793653,-5.965050899604918,-2.759139458936545
-2.5176286828010923,-0.6690135181218198,-7.536862063996839,-2.6948884322306923,-6.088067391190872,0.5593347809314981,-4.173159640541966,-5.559209265057355,-1.848905736819649,-5.2067121907452965,-9.305029743414558,-3.4824448804513253,-5.836909269256356,-4.092285625785838
-1.9686402342493492,-4.268092184977203,-6.057657103109723,-3.329402261917013,-5.053347210563832,4.166776957348631,2.228381268220034,-3.3014813891397914,-0.518004205201521,-5.339079693635455,-9.937431992723363,-1.8315457253983745,-5.746022143953059,-5.186661480627464
-1.47782042792916,-5.410154065338041,-3.795617261669745,-2.723253338915934,-3.422047762914424,6.323564586842937,5.571331979729588,-0.2224840804443175,0.733541702517492,-4.785553823417967,-10.376036499303542,-0.3624820200110754,-5.424783347644468,-5.183101218963703
-1.1560622581519695,-3.361125406759772,0.0330573321771274,-0.5089729023676696,-2.2757330223035908,4.982934600673563,5.708238270406369,2.0966108775855226,1.2416913599123518,-4.362426801727647,-10.519496766022346,0.0814180326506885,-4.694437515297317,-4.029255816371471
-1.075403834922616,-0.8895280648446888,1.8148725371691403,1.2089047969890718,-2.061348275161439,3.83103082187081,5.781702846265993,2.5111665728810757,0.6961158272336263,-4.862896464631886,-10.38558883314714,-0.6240542664107505,-3.725345821018948,-2.488141617497874
-1.0457751674309943,2.5758412982206638,1.3934333796223386,2.7516247637363547,-2.2713933750516,0.7180505092045525,4.631923309558986,1.2570864529420618,-0.4432091748600548,-6.009889084925536,-10.066080023253738,-1.6972546485822413,-2.903122055737672,-1.4623212025787016
-0.7096530089192754,3.884986388776738,1.1453070911157317,3.2776819978866203,-2.024069234024024,-2.381041394987738,4.174780917326644,-0.3503342552602984,-1.2176610792770075,-6.492427369391272,-9.634693579539364,-2.084670244768809,-2.4844006697042538,-1.2711481872477144
0.0642160322504805,1.1314768145299403,0.2475390560219825,2.3097620066036524,-0.9508824588697298,-2.2742050416937003,4.821463668957886,-1.0706080751687992,-0.943308010656235,-5.143199536836946,-9.044308743286914,-1.4416245547123268,-2.455612786214055,-1.5176889597237064
0.9115514526769104,0.028402863992386,0.4008394099547547,1.667231304217668,0.4787930979210419,-2.612984050507458,4.022319279102337,-0.6393122811405383,0.1978489120958113,-2.144489458961402,-8.134185513018402,-0.5150158095129984,-2.715497401337098,-1.6031332391833897
1.2001646570503794,-0.128475863853869,1.9708990849818548,1.0436688182278009,1.4695612759351313,-2.491924918541266,2.233927071798525,0.303249075898631,1.2900902727525294,0.8994343355594006,-6.820565482310268,-0.4386040524695745,-3.282728529205941,-1.352333857928329
0.6160294654867982,-0.0204539801445469,1.7351357744930764,0.8185320413543884,1.6858168286961694,-0.9562295567459412,2.11783728490899,0.9902763994800424,1.4316673341701605,2.112716550610833,-5.341372290449126,-1.542162537493367,-4.2178372046368295,-1.154076883552185
-0.4636207007980486,1.4829260891527631,0.0100035087929279,1.344921202701015,1.5240805724105275,0.0336205518338033,3.511546412811929,1.1731912033513394,0.4481938531585694,0.7236878459029468,-4.275825079517281,-2.890102189824418,-5.354575612181499,-1.5254931239762533
-1.234278137257955,0.0187182120238065,-1.4262071808308057,1.8877480900088544,1.645784897523642,0.8224242656028373,5.3142030344840725,1.1058761850422592,-1.0173053388615525,-2.4310697610668743,-4.194463016584001,-3.125830701580184,-6.23166932264768,-2.5642633417909986
-1.15864545810909,-3.52499245339752,-3.0978412855777844,2.665165453351975,2.2814861350866824,2.310728427963002,8.088007942592224,1.0918501257064328,-2.041646874152873,-5.536002343279915,-5.153379901153794,-1.840371354694456,-6.410150067769067,-3.8188523753874577
-0.4172960528093714,-5.449296600798826,-2.9423220240012933,3.134840697475767,2.996073531616986,2.4712495664046,8.483629631715807,1.1869260566105808,-2.062086546946734,-6.939337996934368,-6.480927386345684,-0.0415241858987727,-5.890516006753462,-4.65319485291462
0.3401656992534256,-4.871346024090617,-0.5326104499435345,3.1752477610825887,3.108060931628101,1.239593841431224,6.160434898445046,1.3176178834461505,-1.111516304219295,-5.989148740422582,-7.133708091037612,0.8342728052643977,-5.177427224770096,-4.714073882595942
0.6798561667414411,-1.0435970871107427,0.1708160589325327,2.920430096481872,2.3221378755706183,0.6340884263201382,3.425682859772991,1.513093634872817,0.3923631011217345,-3.1911224943851977,-6.431408838072638,0.3828362522052977,-4.8885741761640205,-4.098341942870993
0.7758648932290448,4.504268538823416,-0.4412274435358432,2.1726577425576545,0.9760880397509056,-1.0125948918947227,-0.5918259900871913,1.8501575995245148,1.9511563953704856,0.1622745974189143,-4.6195464722365,-0.3796585467979092,-5.273208214181604,-3.1914284866049734
1.093319979530385,7.688557008996131,-0.4966125602303338,1.5126690578041164,-0.281977379343644,-2.2559734802937164,-2.5183246556339336,2.165710853940297,3.098287946718255,2.5704042917969545,-2.785800479466616,-0.1532069735621597,-6.078833036425664,-2.4389471393212645
1.7286663517251704,6.3920657292552425,-0.6719461511392408,0.9195089242456844,-1.0307613332184251,-1.848028836796104,-1.871359848689902,1.9968636036489544,3.3901587582283064,2.915831769531003,-2.124902133962806,1.1622060754869956,-6.829651132559636,-2.2197443503784022
2.1793075149205023,2.2864529083992577,-0.1690172596674702,-0.280175959250325,-1.319495220213323,-2.4764065523243515,-0.93516534882041,0.9906816525854863,2.5123490365054835,0.962512859883006,-3.0560945238673547,2.225146490560352,-7.200781188808811,-2.742497079118713
1.8631765518190344,-1.8627113846710968,1.2519942715487022,-2.0137080014768207,-1.456001718050068,-2.47858749503509,1.237358990233762,-0.5994708877383133,0.5248633207840214,-2.4329848087368973,-4.861998785534436,1.560001410026139,-7.162948127670919,-3.8742485380362695
0.849928761962623,-3.782661998912408,1.304555472535808,-3.33968653755171,-1.6324106565702152,-1.3005800864691697,2.4742081013344195,-1.9600447634871827,-2.0142750122075874,-5.647481954297167,-6.182218718938131,-0.9094530111587992,-6.862629092197167,-5.046431466319355
-0.0451663284411019,-2.3350401630676965,0.0830495750203776,-4.3097594448155965,-1.7876210378379511,-0.5659852399153084,2.4729042412976665,-2.395388484504096,-4.270254382564154,-7.1627140015740665,-6.047339575927186,-3.676607708194922,-6.4368533571893565,-5.487168907334883
-0.0254577721718227,0.4344609983143313,0.6436018565391022,-4.357086707096402,-1.7907142137178944,0.8952638418283978,1.7146696810818003,-1.9704082952336144,-5.585411291371372,-6.511335182844572,-4.651278245652726,-5.007673707308538,-5.93050589834133,-4.755959709339962
0.7911590041767695,0.7715008740616371,2.7237346110107348,-3.1851514197984563,-1.659645823413335,2.158738497769945,-0.4896677891327617,-1.40444664099239,-5.810285997585662,-4.582011539676785,-3.179293982424433,-4.469226701137092,-5.324456741249669,-3.1683333779424068
1.3039868845670064,-0.4989036604389369,3.925059028980266,-2.3986224760743347,-1.5243202297912646,1.8436007530268632,-2.004601156684008,-1.307920761729509,-5.283460584880398,-2.9436404158867653,-2.765706374670504,-3.1400022977972704,-4.605071617622944,-1.677776200288644
0.3681844631602224,-1.7214470446678285,4.713310010889227,-1.8368011861626,-1.3878233961518447,1.4108020568004953,-2.882195008272177,-1.6086921972326529,-4.555638561525768,-2.654369441686775,-3.46765782563158,-2.4077758933225653,-3.8441554932855766,-1.2324980351992494
-2.100697854837968,-3.002237727491549,3.1556992456218995,-1.8822246692633684,-1.020814971768207,1.803336400227329,-2.004806641749504,-1.797009107273528,-4.109800874746622,-3.527308952253538,-4.2280457657332455,-2.654604818948417,-3.2777353386947574,-2.1059202472970817
-4.908227869519831,-1.121132064747255,-1.366480807817309,-2.919463900479661,-0.19220358178028,2.64002119842132,1.280720930600985,-1.6504857505042132,-4.207723008588214,-4.463697432765478,-3.943648557106489,-3.1223118731557875,-3.316744311861072,-3.729241184642394
-6.474348647026918,1.7006416873907475,-3.1360470848631925,-3.655348322807549,0.9706757974724348,2.85793929544966,2.0069018690072307,-1.527020189165544,-4.822987613389866,-4.509896251054595,-2.6634995676320194,-2.9314327725984164,-4.390215446190943,-5.118923015495053
-6.035468251666906,1.6954219030988722,-2.4385690793468373,-4.276103049640189,1.9100459466173128,1.558229687568052,0.3463093846127114,-1.844850836787305,-5.621587133449378,-3.651053922512574,-1.7009886933031346,-2.049362911212832,-6.620521105919735,-5.52405767109353
-4.120463252672341,1.6778668784921162,-1.116471648328447,-4.307440163947346,2.0145276028840198,-1.2747605933996065,-2.5536951788203237,-2.3896778663097926,-6.055964141027967,-2.6610472752046697,-2.413271893764911,-1.1738024145956345,-9.507743683608012,-4.809090260046553
-1.9954667041184704,0.3281404080199792,2.054287282935851,-3.461402324408925,1.1405137265183605,-4.9029135333364335,-7.841092063457713,-2.359648458402603,-5.630429916880814,-2.2588642472498286,-4.735701098663824,-0.7548110198180566,-11.89516781906002,-3.360962241768931
-0.6820325320343166,-1.355628156886266,3.046177498779984,-2.0520966869185866,-0.2021848178562955,-5.669953582914504,-8.055754815105505,-1.216370507746678,-4.234388461042652,-2.4311254650587486,-6.927044523522259,-0.3265756689295465,-12.384835085806102,-1.6857503728336276
-0.3864264184390613,-0.2449698889206948,1.61238070989752,0.1769598539621944,-1.1841685538449234,-2.864605658183637,-2.7544891439581143,0.5868419534470206,-2.3137294900179093,-2.512319307010824,-6.91571347155606,1.0415693845302378,-10.09349649847703,-0.0604975127577773
-0.639450136816226,0.4273239135902218,1.2504912061496791,2.400417238241059,-1.2329098846925532,-0.1823004804105946,2.317636923172336,1.8934689731343437,-0.715001950007256,-1.8363966693354925,-4.091450443293233,3.619343279906662,-5.328685066158887,1.4922823886011225
-0.7978762171285041,0.51317949876927,1.1053885381102997,4.604666785464577,-0.3926445558387819,2.8908356184478223,8.863558003964105,1.9622731217469396,-0.2489285829978627,-0.3041660243149628,0.1277763864118632,6.4376112084825365,0.3453430425115833,2.9494947957903683
-0.4282590439076443,0.1714897994651814,1.0730740118961724,5.54588517824785,0.7763755031900423,3.6431774016520144,10.00678454659043,1.279626547400632,-1.2094076948377823,1.584890378564399,3.5231328376864184,7.945620620314312,4.8959758248961975,4.072010604256271
0.5622600543767149,-1.328579026521693,1.625684506856934,4.868375589863874,1.631446614546114,0.6920535330117856,4.418291806802788,1.1608065834685457,-3.1373407578939343,3.145614606658171,4.963853377199733,7.309456616699354,7.077605733481654,4.5225430132824265
1.8947552661536111,-1.638721732468814,0.7708967009499639,4.611295191508358,1.8710989002453964,-0.2720897164917617,0.5054592187231602,2.433192043518323,-5.022675105527627,3.9594643810778183,5.178416478658013,5.085993337250073,7.241522069782436,4.248620074517223
2.9381945837907537,-0.943612833266319,-1.4956187170355957,4.431860542714689,1.6577019788167071,-1.126867004169266,-3.4764549674158847,4.447193802273491,-5.894487463578248,4.05397941000118,5.723423374811064,2.6437299419051747,6.95616695606345,3.7049087388218727
2.969891984113435,0.588648146199017,-1.4672396862566897,4.289254177053196,1.3864997442853344,-1.4296400345558484,-3.772781614922305,5.430098528315002,-5.444070002913591,3.7800021696140895,7.260414625392865,0.97416212108679,7.639118952805898,3.582041690049147
1.7596273299684544,2.190365057645793,0.6974953362928864,4.539875591528017,1.3192090738832647,1.03601396694388,1.3069833007149418,4.000625907525755,-4.183952340977884,3.5574032331875696,8.950769964687098,0.1030058176418986,9.38070219090092,4.245200182327377
0.0922660496274314,1.385909829933056,3.7307938754825214,3.818814476913429,1.4170007303269152,1.525929575715835,4.945163664105301,0.5816519522724928,-2.926752924310461,3.69503019573326,9.624622432619775,-0.3928260595103054,11.106072703408948,5.488187856568432
-0.4187554100891759,0.236673741949507,8.452121488364986,2.161617991847099,1.5346174381528126,2.3636713278065105,8.377966540141703,-2.568561226167045,-1.963050865540298,4.383427900305103,9.48348984992893,-0.4666740037483592,11.982542279073638,6.922003690440052
1.5822289114808594,-1.1106324153312404,10.399600580841218,1.7883271809420374,1.7573355388868466,3.103009835315516,9.397563905656956,-2.9074514071977475,-0.7054287833340371,5.781536014579904,10.404752807057246,0.597256406868965,12.626516815792826,8.555045356186064
5.930335539480872,-2.8202012717778184,9.2181246284103,2.580943598150576,2.4390998339289043,1.0478099831725056,6.645550434342875,0.3909407807444935,1.7526195751709004,8.000434918271424,14.248438445592932,3.3485974297796472,14.670903052634792,10.78261155089882
10.666449933372148,-1.3308995519364684,8.197993215350422,3.189892739183955,3.762043222481504,0.458280176254578,4.068840159805196,5.607761105599568,5.579384979323705,10.889935651756884,20.67637188419248,7.156737212197245,18.862586767310944,13.633280945248329
13.243237293459185,-0.7653110915311112,6.260441126790589,4.033841864682611,5.227671702532061,-1.1348820833497824,0.7360015268029353,9.609915734776234,9.658607106019634,13.821684473731509,26.73252253925013,10.18031657878582,23.573435082866474,16.116810912570955
12.37352799541316,-0.7915288262053292,5.092480946700047,3.378590766108414,5.768095557469424,-3.0035624745672997,-1.079853269580733,10.138112082581095,12.208167343222884,15.8195560436845,28.91769299465872,10.578205372696182,25.55630065803585,16.666109816425042
8.968483455174189,1.4845796292077478,5.1598727818175805,0.9001140503585585,4.649447499024636,-2.3374904172196698,-0.6304236695251161,7.423669094830672,12.14988047743944,16.132434246644895,26.09883997295461,8.004190278826329,22.7240990422602,14.568280803113591
5.325022908030693,1.8379890341542768,4.950868080542332,-0.4665803560024151,2.4144692895673865,-3.572335798605748,-0.4473775191078704,3.817060542712542,10.053344466334122,14.850568522540932,20.660891922032903,4.076463604964038,16.545530784771877,11.020667895633018
3.28316852961608,5.259246042444813,4.999479583179632,-1.071782818651837,0.7871357068465437,-4.290652742969481,0.2307745464864853,1.818766744879816,7.791109599005505,12.979757548027983,16.798410178525202,1.3535046886596065,11.59707993776064,8.523910385704875
2.993991438252785,8.322565209372081,5.579585872878011,-1.336507565480208,1.2970195999230578,-3.011012515281328,1.5440908501855304,2.281024388089694,7.175912045087153,11.809562815233411,17.365264687986276,1.5855721849898998,12.206871010183116,8.891235208108814
3.297370015366837,5.252088364120582,6.620966368339996,-0.6948168181194676,3.7126185354877608,-1.9610194155404423,3.264983308040465,4.277685226214446,8.722222122763798,12.063428091400676,21.894370955471075,4.569003380927081,18.864050059507523,11.663031240870115
3.13765778800308,1.6730229746535903,6.983002552136529,-1.8656339188326208,5.827233551351944,1.3291574420991,6.030946086674708,6.4678714102323696,11.49944464665861,13.514537478891093,27.24152159615154,8.402332254678523,27.52946910113121,14.489141760801196
2.5210158360396044,-7.030398202050741,6.609691815135255,-4.940355715498304,5.073798550433551,5.168042200887048,9.85214433842891,8.374476549561845,14.040686773904792,15.27976814683316,30.03272526417329,10.854793820546128,32.59171489998938,15.169713253900218
2.14237921368993,-13.50476927584569,5.001503503904005,-6.797801811002986,0.7407621471514663,5.823382405954617,10.3557408492955,10.275364508797786,15.409957746276516,16.402429753367286,28.813154291794817,10.792780544567163,31.06315919182525,13.408150447764816
2.270055928283112,-9.585185922853578,1.751637855242376,-7.906096056620905,-5.15809298552969,4.244549431471191,7.265928641184301,12.035623658683528,15.549912002269345,16.225329168186686,24.43392602583229,8.690719461048197,24.54948013715091,10.641175107461017
2.2137792239301035,-5.100791632584687,-1.0051274693100356,-7.544583807165804,-9.258537918843324,1.977994394771687,3.459420384668409,12.4253151550188,14.808798979551604,14.45876170517771,18.85279797009995,6.008327192008276,17.49164721726525,8.275845554769068
0.9786943007823404,3.70662291317456,-3.423880036483998,-5.034051787055557,-9.43180595635618,-0.4059554394762886,-2.152124211205422,9.949552442575946,13.2951428706525,11.191788167554993,13.595241095376156,4.027838029422888,13.374731429084653,6.24617346878305
-1.635805436829627,10.641192011190416,-4.933015769735277,-3.825148586659516,-6.452032331848273,-1.1436511145670656,-5.341513055759289,4.505753162656938,10.770217553401178,6.977313867019631,8.96796772823033,3.034384192169707,12.173435942801362,3.3753218394525826
-4.71332293311408,6.290320625947412,-4.981555245943481,-3.704897306617004,-3.333817461000489,-0.0375284820934385,-5.499443290776829,-1.8869273908977728,7.164818946990211,2.7832791693174954,4.289811702409244,2.3540258434001418,10.986914399572155,-0.9298875924620678
-7.013519934086601,2.537563891862829,-5.889620667419368,-3.7897555692965623,-2.851406466594348,-0.3236928689495436,-6.915059510848234,-6.276424951741827,3.1228112079514068,-0.425361097281586,-1.2539329706825573,1.0798454689990873,6.959119108393944,-5.556684213354478
-7.997845725039761,-2.6717578577447965,-7.428448446245055,-4.804786773345271,-5.264300132370241,-1.977644846035768,-8.545685352800971,-7.010525825360208,-0.1189285923549867,-2.31202925798576,-7.73495737621163,-1.1468748577219987,-0.2245351311965482,-8.450046035093987
-7.999936503128856,-7.266054041369625,-7.187219247263522,-3.550512634691961,-8.118844989681827,-2.5620679215517783,-8.54519395006139,-5.041523718701715,-1.5820852097578868,-3.4720865152334337,-14.126822359052062,-3.8750683903515535,-8.274423769070934,-8.578517601222037
-7.461000343543498,-3.086300905277372,-5.413307859065159,0.1467049514685356,-8.299426735824076,-2.3125193138581506,-7.304974916719412,-3.1022709517223817,-1.41645661415998,-5.03681984005139,-18.781037447492324,-6.210116878506398,-14.36840215042615,-7.082836435299655
-6.2113950115914935,0.9998667478273694,-2.858447198485248,4.25013700719912,-4.635411823741412,-1.413131558878954,-4.512799961677025,-3.4479029098478677,-0.8996398535960353,-7.790433002709321,-20.541018976906955,-7.450459436580132,-17.31975701977311,-6.320966563210813
-3.692181315928325,4.954553907993212,0.9462253255793692,9.514025490015992,1.1125161609652618,0.5967072638548184,0.2064830876394065,-6.087087467996451,-1.3836616421870414,-11.478648731170152,-19.710572738646285,-7.505237858514549,-18.05622978864992,-7.631457906832397
0.1040901310113788,7.306057563315825,1.824900949367506,11.536011622081654,5.713175977426397,1.3956722463248197,2.112742312801994,-8.921384643034001,-3.0254655824394696,-14.875245863291314,-17.990561799931307,-6.833800305212911,-18.34619974079239,-10.005364346467788
4.061516307092011,2.724138887974742,-0.6072520670264255,9.729328495321427,7.102776119139814,0.2695881306633156,1.001680134207881,-9.539800661819877,-4.500993719810648,-16.576193675653805,-17.256912043182204,-6.025674147137675,-19.187123020738696,-11.054950191309938
6.472414375468302,-1.2346303294309058,-1.4895403446018232,8.710025383077152,5.9058909739652,0.5956282907459803,0.5579608964697312,-7.114508280418462,-4.140699121682774,-15.93477320726262,-18.142802017085288,-5.3904213133482415,-20.2667882744649,-9.424827842720852
6.243101458934403,-4.316258606806899,-1.6918575133981322,7.417383649040398,4.549035429807219,1.3026795312935198,-0.2691310594806993,-2.949190241009576,-1.6134782600434114,-13.47511935478854,-19.706821269007765,-4.885389154674197,-20.70231937143777,-6.313603515409611
3.6481899145880448,-5.269861982924602,-2.305547856956748,6.099471003545341,4.84899733242426,1.0971800150868631,-1.874311330818872,0.545480978849354,1.3653905794569363,-10.544815052811623,-20.51478469390088,-4.404061336222972,-20.11990308703322,-4.568319196859328
0.0061194493428704,-1.179163780169813,-2.592207484741777,5.445755901827102,6.325113838039412,1.1491786101273331,-3.8724482079199016,1.4863236233459984,2.1175264753204197,-8.511106973908195,-20.07665335647993,-4.104494861094676,-19.03785160867102,-6.146402489768569
-3.2817975952095733,0.4588848288521467,-5.5252391064976,2.2761099747083398,6.765728860480357,-0.0996102936772678,-7.620154954125041,-0.4420919664420193,-0.8616081591741498,-8.05465078969305,-19.202664439341312,-4.383547664977093,-18.33636947053748,-10.321311940980175
-5.409424738375163,0.7618312312775166,-11.335957602922104,-3.3227272822445744,4.460433866294121,-2.03534414408606,-13.196560153823013,-4.07193915267858,-6.477477890745909,-8.944632846304803,-18.9608191093762,-5.441181217527805,-18.44042057118277,-14.288574559490542
-6.160366735347811,0.4974824934255915,-13.547068136353728,-5.660431368131604,-0.0125478803708523,-2.349474222631982,-14.725974591792731,-7.634262497645562,-11.616557810292829,-10.311421507952527,-19.40776187559981,-6.859424625823888,-18.985214223567706,-15.541623348474753
-5.615436281164907,-1.255750121678854,-12.424552499695988,-4.962877456918325,-4.084726217669271,-1.317359551381191,-12.011867814600398,-9.740502946475278,-13.387973971246527,-11.17867822164733,-19.522999687334533,-7.734997312074213,-19.20134084929754,-13.808670687057178
-4.105439239907121,0.0510272870328133,-10.126649538680237,-3.4072244714104496,-5.287688949588946,-0.1537122091258297,-8.688252092803385,-9.952448802482868,-11.26748016322214,-10.98267045277547,-18.46462604806733,-7.414212848901346,-18.623423663618052,-10.93481932539515
-2.378067635819287,2.1400653802216247,-5.219442456054127,0.2550711089661858,-3.275117948844628,1.3396795893643536,-3.3712196299426838,-8.810187806913875,-7.413236332146253,-9.870427710054503,-16.759315001446343,-6.2006328050890405,-17.51276629148469,-9.109453851155417
-1.485016888962048,3.248372241796731,-3.491199221422338,1.2456912928847388,-0.0728028752262464,2.161069713413546,-1.680488346839016,-7.422750523363749,-4.89903704002581,-8.610865097084709,-15.988376432622472,-5.269995980965396,-16.650267331497442,-9.203923547496942
-2.166838569577385,3.000902279068038,-5.338034145427399,-0.8367136987986713,1.5614280047693558,1.2656493524838033,-4.41637152445403,-6.82003564102399,-5.308545052121538,-8.072162804648844,-17.094576223754597,-5.711593687834797,-16.637861711342094,-10.527731473315484
-4.207888426141889,-0.7876045079428807,-7.066476128153103,-2.652944502383513,0.2445327628234639,0.0633629582420096,-6.596827284828152,-7.3565335960270755,-7.63856849458642,-8.522905951121768,-19.01595469550362,-7.504565524143634,-17.221256476283543,-11.788847991243896
-6.474544159168217,-4.8446342316544975,-10.081279404352449,-5.372205465312967,-3.12514694693469,-1.4979689973983312,-9.679485806195364,-8.519236466133002,-9.348441353929992,-9.315400580510053,-19.239272981538225,-9.408160468196987,-17.1994566496658,-12.108917231454594
-7.753936007580775,-6.122366762386493,-10.375162920648616,-6.530376454339883,-6.247288330455505,-2.639705773567829,-10.11749037899445,-9.330525254332317,-8.594602005653996,-9.370616058117688,-16.031780589208523,-9.937585068153597,-15.1461237077058,-11.305132920130388
-7.673286390960631,-4.431221739340412,-7.318162005976306,-5.621688240719892,-7.251075672828321,-1.8692702548882787,-7.015271094406921,-9.104465334406171,-5.725911631102097,-8.19399906539396,-10.32511755042884,-8.57076897675093,-10.558901441061844,-9.588060477096548
-6.832620815707147,0.603353611981843,-4.515774856634548,-4.816774044435132,-5.994786204669108,-0.5339964826394329,-4.55613173018066,-7.9486363385495,-2.809608567515614,-6.486292490910411,-5.32491355135067,-6.106840053838004,-4.574886432213708,-7.244683537337009
-6.047377127594886,5.287309773401665,-0.919464150866214,-3.412621159775141,-3.8860670376968383,0.6072933787995907,-1.7312156556371816,-6.541234217829028,-1.702970586846551,-5.5976865384444405,-3.9415901605983343,-3.900927255396397,0.4850778064383376,-4.572243864496404
-5.489293722651729,5.988875486111371,0.5341334377583367,-2.946103439690791,-2.5052230071013137,1.3664512967652265,0.9163515625004164,-5.360723889922406,-2.440876411883708,-6.159714369127329,-6.222588772185192,-2.7286589307378417,2.642731035855165,-1.9153936816082924
-4.5993011627276825,3.5443453798133286,-0.8424517459326799,-3.760570505446047,-2.2576066659722085,1.3425855586210482,2.77284407900047,-4.1220316309598175,-3.360012045783512,-7.202489226187736,-9.117845278805902,-2.302240521325976,1.778938358876081,0.3679940632664866
-2.828656819866975,-0.1649244975889205,-0.4606549325141954,-3.1261524848664006,-2.191846573196333,1.7188587488123377,7.101398984572191,-2.0469547014084704,-2.7631755626303387,-6.793741802957594,-8.915039025525324,-1.7688734482717747,-0.1637594812391616,1.984812554906344
-0.401775251861344,-2.257770219190166,0.98355988013329,-1.356799733375399,-1.0840108799292287,3.773050331537277,13.781800648131538,1.2068436200172743,-0.5418247386887509,-3.793846634621981,-4.321001194641653,-0.6061632833594959,-0.6649408329548394,2.7547045513983086
1.7140660054641688,-1.5346868939552043,2.454136941220316,-0.147070875832366,1.2145059773570133,5.10717208896667,16.27506929782303,4.857426328552339,1.7141433477150336,0.8837809756617454,2.42324476743339,0.9477746491440716,1.2732414223216424,2.667280760621228
2.6107418454668894,0.1973509228767058,4.704051358119358,0.9001315167341842,3.3884383361051533,3.7008248169531,14.727421873083465,7.330663817580481,2.1512891976169404,4.785977285547357,7.313484066362814,2.2431336082762563,4.173066478754139,1.98773745813296
2.205644521235355,1.313947115641786,4.504058330336886,-0.6920893423349254,3.61593090058308,1.0586731911621885,9.918847061804176,7.467025791278885,0.2794694965844702,5.849642089162926,7.72208255389677,2.891977499142341,5.237120134922539,1.2784319822958483
1.2361933225272712,0.1829347696801325,1.628341446695167,-5.44237077083438,1.1014790513050987,-4.072821531477534,0.1717692999530246,5.58406139502337,-2.6295397301447934,4.057530401169235,4.335215965952916,3.069406050469982,2.822866721443812,1.1647411974158453
0.5549315793043652,-1.8477623546070707,0.1953334002577336,-7.659302970948973,-3.079168354955671,-8.061443804252908,-4.696489698881582,3.398614517930224,-4.6009000643566855,1.4006520555210145,0.4478125138766233,3.2065009103086,-1.7932548352427542,1.931012555028909
0.4609533987661434,-2.409060754939406,-0.3717664935964457,-7.729942832142462,-6.542075839621738,-6.852765748898474,-4.4064986260886325,2.761276608232131,-4.451949376145383,0.2680043071064182,-0.6222374525150218,3.480546583034557,-4.993401911660221,3.298185747551565
0.6540222794408808,-1.850417234898562,0.3191742761301575,-5.191040846451409,-7.199410174985397,-4.402177600380438,-2.678899750209839,4.194031200481924,-2.5008470873187347,1.6813375041849052,2.125345841045752,3.66981368330155,-3.528330487784093,4.616550777730593
0.6923070137833998,0.4943028140444301,3.125352481984284,1.3582577112978975,-4.745865835194651,-0.4021853701379003,2.9416060837527715,6.441249704785447,-0.1047906016048894,4.726237068863246,6.957353585727976,3.4876663904013085,2.682118340081815,5.292986620968207
0.3833535183740069,2.935615690937579,3.921977149268541,4.030530871321169,-0.925385012701393,3.588701870874567,5.357262785306164,7.439828892480104,1.3874835658087408,7.401500225598731,10.948722371460516,2.96424695119097,9.989961404039374,5.057510902847439
-0.2188830500186953,3.055717690993531,2.8569176064548447,2.9251141157100498,1.6763593218383903,3.880627586613103,4.206163567276301,5.95661845926929,1.4161642896218418,8.054901360082148,12.107840417616805,2.4139281393775045,13.399666278537888,3.9206755910406215
-1.0002441386237853,1.8753596578771443,1.10239848303157,0.3823399761907426,1.4939826059740424,2.6009297925444166,1.5748130787866776,2.5862449534162377,0.3202090988326795,6.371615882135541,10.532460468109052,2.042663686714381,10.22644571825029,2.051561446550884
-1.8014307136709935,-0.3427368870773266,-2.255130522633144,-5.450082773135113,-0.8727926756311337,1.53633280305566,-4.408076718203432,-0.6903993967024356,-1.0549972858146677,3.403789251635542,7.979385980550488,1.6938640785743797,2.198885607381009,-0.1811547832384059
-2.285387758467349,-2.794589825335699,-3.103631610302454,-6.804515413732326,-3.150228155848447,-0.0168913543852426,-6.421571630945998,-2.022652107212516,-1.8711990694209204,0.7883406326471532,6.412798293450166,1.0682263436194757,-5.719724182387507,-2.1084732460267204
-2.0207571535668336,-3.544113753121006,-1.204987479877475,-3.276262390980975,-3.1960646888317483,-0.955706167348738,-4.21026624553832,-1.0474667768640264,-1.6807573256833763,-0.2917688476032749,6.680971376334688,0.1637685025574931,-8.916924366205793,-2.919897478968742
-0.9257606468271536,-2.570756516652147,0.6600433640916702,0.1999742246738608,-0.7024576922346903,0.2751492910919433,-1.0784517793375936,0.9827993096328488,-0.596998278283682,0.227547802967504,8.18050053680318,-0.6142456900370776,-6.296502506196981,-2.1490916238638205
0.3528541459319974,-1.446093770622778,3.4534108081812023,5.44251534215485,2.598503445064388,-0.0499725599586939,4.748588550695054,2.3193147812620887,0.783970460464519,1.391247147132169,9.544253504751584,-0.8417825598538817,-0.6004125399231253,-0.109289760486785
0.7241575325924772,0.0712315622509872,4.676998797713273,7.493149329769415,4.393713648142697,-0.7376008017003466,6.156486758938742,2.075711370004954,1.7099197833104758,2.001296019599476,9.6868649340305,-0.5119172883862584,4.110830806938307,2.192250734135209
-0.3870889588586386,1.223212603770694,3.852600230769809,5.511838745298933,3.674441250856842,-0.0325985671778902,2.5092469040256544,0.72451850822572,1.7201423805429936,1.5120873927799314,8.438806822298874,0.0153508695173703,5.532736949967591,3.713135523863783
-2.2158839922568183,0.2518136485172665,4.079267650299779,4.6934634185665365,1.4820570823339558,-1.3958947092863352,0.7035146646623641,-0.511577570407129,0.9484741988726596,0.3982132575378139,6.470854473680072,0.5029205741465952,4.297959391977013,4.128354570399971
-2.909906308485045,0.1810210153379686,4.746193935474706,3.7853362040359975,-0.0298539322428257,-0.7216258700748273,-0.829175519881112,-0.6659996871151672,0.0492906611222441,-0.2493190913164067,4.772720321938823,1.1656355112917316,2.7342870928062686,4.060163130278649
-0.933387748265889,0.6148482154251641,5.143198569521651,3.781469456607717,0.6481140840064894,1.1287931096392274,-0.1052008760649674,0.4304244748707404,-0.2482793349841476,0.434851095497633,4.118477234788082,2.3968055738353544,2.712614753471583,4.545962139131744
3.4417659217068453,0.6577924659827593,5.696834482921314,5.489474633344408,3.233366406784189,0.7439206589335611,4.091945195619299,2.287317526166892,0.3184340640278993,2.416160551360041,4.720516127706173,4.156202846029568,4.442092593278617,6.097056387115314
7.915510700487473,3.262868054324562,5.376623117891798,6.30782783088456,5.915479071082074,1.8596744666825165,6.004516420049963,4.140588834573474,1.273957974591478,4.672607706986248,6.056737201982513,5.709421062535462,6.7659749012836485,8.071706714103101
9.62422514563224,4.700817161811312,4.092302960178376,6.6507885407050615,6.721215434569128,1.2984289576730448,6.218396893398847,5.17518452791092,1.6119162572370542,5.707171607144417,6.939914853529783,6.061169117241462,8.158935363597973,8.944677248963815
7.2644959179952275,3.4799492443869897,2.8900174192482506,5.689773558075537,4.955499070058154,-0.6595780658788244,6.061827298412748,4.669377260784779,0.4124837930910847,4.367269866694004,6.037470788372597,4.715896000889224,7.492470542150184,7.418952735574126
2.177717078052128,1.6560679953959532,1.5562980964222872,2.8825716763240927,1.7415519240233437,-0.5033588248930803,4.4452304241342935,2.358718816645493,-2.4498405539912493,0.5678975351822735,2.800910463469883,2.0998376487867314,4.402525452933749,3.587138172553492
-2.5506069537957807,-2.282610867536276,0.3143033195900576,0.0901934513654484,-0.7113368950560228,-1.2854605679869189,3.337088701601155,-1.0832832093913476,-5.951508774944318,-4.464009531185409,-1.8067862164633517,-0.6594469971738142,-0.4574904419086887,-0.8669702193412436
-4.322131440533173,-5.516980597154541,-0.6452074670773287,-3.018602160840857,-0.6830936246834356,-1.1532686333437354,2.718434098114424,-4.028382750447879,-8.267013003927875,-8.643813239556124,-5.601220995103335,-2.3621414032031445,-5.355003672830463,-3.769188887583272
-2.822801088624448,-5.040485466205169,-0.5561187160935606,-3.705998287356537,1.6990964318143336,-0.1169379153950441,2.2469428787719483,-4.738415333388428,-7.792589743705578,-10.056650254691316,-6.606609645736604,-2.347972976971545,-8.090392214501017,-4.069423898202548
0.0188075783272929,-2.8143658374575247,0.8220522701905296,-1.3815952089418542,4.407943592247044,-0.6705817703374932,2.379063184280796,-2.6129009995096304,-4.291422404763385,-8.01958015534743,-4.60645940204293,-0.8226861372352561,-7.328117455196735,-2.602674616182406
1.7824080860704117,-0.5482367132128274,1.821653303679626,-0.5568998355738234,5.003306343155072,-0.30055529039921,3.304469155335757,1.212906990645879,0.6901932394023884,-3.502452824670229,-1.4070254504477413,1.202141979721036,-3.729045962840448,-1.2766309292587787
1.494163344184265,0.997471069754053,2.632036418497011,-0.6061987408281271,2.624238476987572,0.0496806302940004,5.20603672351654,4.583639076106351,4.653799265847933,1.4353088737923003,0.6104172778747277,2.404978259683877,0.3370121781561925,-1.360299813245929
0.1787713808760573,0.7353054021275769,3.580369661164988,-0.2161590216593216,-1.1703304045271852,0.1660816828998746,5.836626624391849,5.870941166623224,5.828788673459009,4.882183002039594,0.4918358916439258,1.977117690570232,2.6263244616265258,-2.387934533254056
-0.2614820339985089,-0.3587812377113096,4.351215788908557,-0.1341138079806753,-3.5556840968346357,1.1449409657932328,5.143482561247316,5.074622571546332,4.481585087909521,6.184283784139455,-0.5045159718192975,0.3227112500096201,2.951715562946427,-2.6309014758588143
1.2933115841409517,-0.1645658823372342,5.794451532373134,2.763781345965911,-2.701497522533643,0.1348767806164632,2.5912672299791746,3.577219995585561,2.732334899492442,6.184596109208128,-0.0554808607734491,-0.9865612250801684,3.374753904775619,-0.6525164957395901
4.412577245948415,0.6770086128570566,7.918209582583152,8.770321632549201,0.8166471990937898,-1.766333115288935,-2.5276504110903537,2.8654371028918337,2.890914972163089,6.440614001034351,3.189079219244868,-0.2188630285163766,6.283698106778657,3.471193857580468
7.711155728234217,1.2343373310735803,9.01371899827632,11.180865340273206,4.686641350539656,-2.6051396895111365,-4.115093008657761,3.4029191713591844,5.611794212155522,7.990806786411243,8.480632255796857,3.154986896863978,12.012205226517588,8.264012400871794
10.054328035891867,1.719494967809349,9.133812164395222,10.31488094087138,6.919066584059864,-2.0935692279632,-2.099666373759207,4.572273217607236,9.406637639513477,10.580157868393698,13.629388655946196,7.827852884270579,18.221520520698995,12.025972684637155
11.25911413261639,2.1529066088182542,10.301673849138432,9.143808713248037,7.34545845056084,1.614557145482877,2.4365231683731188,5.517341101157228,11.921011928790747,12.92326125764552,16.670805142313853,11.397106888054488,21.7003943872416,13.93863365554134
11.840255566606755,3.211685069793916,12.276347058908582,6.286944884077093,7.239186116369122,6.654517966859648,11.102234678221778,5.907485051938004,11.836231317467908,13.75878561085576,17.0086895213049,12.009644719194696,20.962595316627645,14.225175541160532
12.245475973148697,3.9379555562385606,11.88785975146179,4.776984531266107,7.620440535680398,8.361450004088512,12.85067664577772,5.887125670914801,9.735592808100169,12.781327362070838,15.233163086509675,9.6272269001612,17.267042306645266,13.472642045118253
12.33182047678617,2.80264335266215,9.242906238213225,4.9875107511068375,8.041216219472068,5.22719809486193,7.161813293110078,5.441268272963181,7.283918630254551,10.646324396203982,12.1540975494386,5.900536719343603,13.2260459241425,11.932449227869602
11.45838500638101,0.2271044903390761,4.557629804144968,2.991765555035188,7.052376799385568,-0.8307514655061422,-0.4629895985241624,4.0616856606873935,5.64168967371339,8.129905829528585,8.181635342974912,2.8073595651431367,10.477657709820004,9.467598280770332
9.025480229223763,-4.035295778479494,-2.985877861540837,-0.6134988495674368,3.8086458153196983,-7.763614427646874,-12.781284641513004,1.2421404000281686,4.658816495345569,5.379674940314602,3.574466225534672,1.244029600075433,8.68332039228488,6.078399645333251
5.047680220027783,-6.722331618630128,-5.865720646555098,-2.291457807434756,-0.846998539369737,-10.165215834436744,-16.643169635483233,-2.661575872201162,3.499933331811143,2.1027133202659263,-0.962021068589794,0.724269107526694,6.628096171260715,2.3659538456112514
0.4175284165734463,-5.382020336387329,-3.708551659693676,-2.422908516307253,-4.893988311207049,-5.891199250772607,-10.7473221438425,-6.215760328675515,1.881234845002812,-1.5005097620528565,-4.205659948122133,0.2767001216754485,4.032196056418715,-0.6115374488701331
-3.3138307567455683,-3.185098478764707,-2.558269138523102,-1.9665088442382528,-6.711680594728136,-0.541224500300256,-6.186526667834972,-7.778766967588269,0.5416533799571558,-4.172996848123799,-5.125724084716467,-0.4498155541942257,2.0719307115094163,-2.011562865757339
-4.633425727660288,-0.3523104419709311,-0.7500095045764257,-0.2177533801167401,-6.212370983836262,4.3481616512640615,0.2044030055822083,-6.756099703477462,0.4568167830712824,-4.274713431968868,-3.727322444504564,-0.9446727406465244,2.105494184273815,-1.7965530837307369
-2.9698649687268723,1.668445138172658,-0.280187018686951,-0.0434894783766597,-4.57306898062542,5.762128726617151,1.685653101877968,-4.045972176674747,1.678625252334859,-1.2696930348889726,-1.1739122970208142,-0.5733916098868022,4.047499675070447,-0.6937788042210036
0.7483962928729881,1.0524454767292502,-2.0843314116584004,-1.6236492765697796,-3.034281455360443,2.187850608631678,-3.685582143123149,-1.2394555389752226,3.100220029124454,3.3946566939320184,1.0037595296714357,0.5880718704107686,6.174155704029885,0.4209357228442654
4.411900810786774,0.8927380184959861,-0.5474146324782552,-2.2717122167065,-2.037526945062313,-0.5178453105793146,-4.009843645303662,0.6144555614401939,3.466949289345579,7.028241695879403,1.942112256751764,1.728019605360058,6.602120779078646,1.1255643265350823
5.926799277087262,1.9917448332425056,3.891082691893483,-2.5861903166079934,-1.4125594193586226,-1.4895413069559114,-0.9168543131357908,1.4909290562997684,2.6140526143439926,7.57941873906438,1.8493374985507944,2.060116871330352,4.960227330005427,1.5186165120602393
4.553016456914116,2.4963974093474097,4.855816315943031,-3.1341303709442987,-1.110587585251484,-0.9505376501680902,1.2979603240401767,1.8345356790337493,1.6275304588167616,5.080747381455296,1.529656485050349,1.512360632793976,2.637681300741182,1.807707164297648
1.3733747348854912,2.404064932189602,2.973215207728433,-3.5693258512653308,-1.466375999469792,1.110966837077338,4.51421165786051,1.8244286911826548,1.712081493360702,1.4592057182654496,1.566152714124888,0.637447778664388,1.4501196230748403,1.9469001003895112
-1.539675904476289,2.098306584010861,-0.9091679618636076,-3.7802723749912817,-2.6657674481057136,1.2714480345615813,3.316006733941536,1.3713568173874136,2.892916420943664,-1.0429354054902689,1.908108716641176,-0.0483198832521853,2.040253138635419,1.713688338418867
-2.649589719064464,0.4742694541453565,-8.156821469458542,-3.744761373583165,-4.141588198357967,-0.1921745491611584,-3.062961590275527,0.7040894022701681,3.877590915732784,-1.4677896460847304,2.108921253065078,-0.4985549527219368,3.415452922270388,1.067929706995077
-1.976013430921702,-0.673007659063698,-10.470619868372602,-3.505281155391549,-4.783766000631315,-1.3194915970394892,-4.941268783171854,0.5716404047398598,3.250145336459809,-0.542862015174954,1.8353646648378463,-0.9229325439432744,3.8594375917625854,0.3185243933003132
-0.8400206889545654,-0.072810149703286,-7.508350971606333,-3.0063100601870887,-3.9196823898145103,-1.649999211891633,-3.1934124564736583,1.552875714191243,0.8461116994536184,0.2216633244128543,1.1285076872078,-1.330262057249619,2.305600974391121,-0.119692026874468
-0.6462237980642667,-0.5949286956443034,-5.019089060596125,-4.259296446765663,-2.061295099438737,-0.3284793526909174,-0.777111069591355,3.1823401114755554,-2.002614423582073,-0.1611616604770774,0.2762354879582256,-1.4753797248053924,-0.9061186674951728,-0.1030619561737895
-1.7655500822753862,-1.3436528872042446,-1.1323739491542857,-7.450522227330161,-0.5428397667235468,1.27974811787809,4.187106979030365,4.039390669089276,-3.552387472141879,-1.4851442142711164,-0.453456395448006,-1.2514935103994258,-4.299967991970942,0.140328584213341
-3.3919105212444527,-1.5479735275999598,0.0194047300475868,-8.269202143526948,-0.3308691995785948,1.480046420949325,4.458177549672565,2.9445423151963226,-3.016657431765865,-2.692883822484471,-0.9116695674792404,-0.9613343557808722,-6.195279640796161,0.2700207771053602
-4.341419725913229,-2.239146396335612,-2.520548013439225,-6.939994221332244,-1.186160004896588,0.7046525867942055,-0.5078715878829844,0.1036684538358745,-1.031293602783521,-2.816400571396344,-0.9965090623818008,-1.049043949694365,-5.663754100455206,0.1455575568902229
-4.018961478061996,-1.7254460816039068,-3.112540413666177,-3.770404185610139,-2.005144913118867,-0.4706795168274186,-3.352959981163093,-3.00139347456804,1.0258645516325942,-1.7317625432550656,-0.6194019370027259,-1.593315959695123,-3.015877003920353,-0.1165850330044424
-2.78173552039543,-0.5841821791872011,-2.795829227702431,2.2814072765583764,-1.944575160889543,-0.9088692581017704,-5.576322235847232,-4.869178904770219,2.095359537747539,-0.1830363684601685,0.1777496440910919,-2.204981041495381,0.3904775198862111,-0.3347896412141882
-1.5313270989379664,-0.0198761319700773,-2.6191447988842955,4.666534700213026,-1.1584234765580843,-0.281126661079472,-6.158207802065131,-5.108612065213812,1.9741999834217816,0.8605780865153063,1.1031898397742932,-2.4734774070804377,2.918493808398063,-0.4578048023139587
-0.9686819665634996,-0.0221641577937734,-1.7439082061133158,3.208422784863861,-0.4600869846249615,0.4960816013176585,-3.808063989445696,-4.435852853420041,1.0961098734555357,0.9354674755531072,1.7229552473312228,-2.41102761193741,3.5878263481540618,-0.5842586352038452
-1.109924821497616,-0.1454721124443176,-2.0065469014543,2.2901825739340445,-0.385518966402385,0.7911942600652478,-3.6123471877138993,-3.7992743968259663,-0.0110221066662283,0.3051556926365339,1.7935379165907808,-2.34834997627622,2.5962098949414543,-0.8387121913601661
-1.3946639062966053,0.439881191599041,-3.460039566668807,0.4716937353422566,-0.7076852542593954,0.2408895976834241,-5.141253971156063,-3.6592768311188975,-1.0826427490675383,-0.4535657968473252,1.4927323156424563,-2.462056214875009,1.0234336471074617,-1.2561241200073263
-1.2661796164299268,1.1718202227703227,-4.216823396380991,0.070828029790244,-0.8500153427574073,-0.692465568599657,-5.182427090293887,-3.9513739759629374,-2.130249500467293,-1.0320803177183355,1.2557856706427517,-2.5839705542794,-0.107806288094558,-1.760964450422886
-0.7544919657016997,2.0201513852622246,-4.589799794531893,1.727192377612335,-0.6403586016020739,-1.2398216119154537,-4.52866580227218,-4.371325384188793,-3.266675547865951,-1.5647592874299612,1.3041459286931063,-2.5623219425864363,-0.6841372883050951,-2.249357036560568
-0.5521551103872433,2.874333429729645,-5.643685707762262,1.1212462739519184,-0.5284852715901316,-1.077949709801323,-4.212946347164202,-4.477398330008708,-4.52556847775324,-2.269948165287936,1.3600559357818227,-2.659936104225597,-1.5050178896836606,-2.703711575082245
-1.4398488224194566,2.340229597779523,-7.1390632701646775,-1.2423750092439734,-1.0415426393331,-0.2601648016946959,-3.8721605354180695,-3.7000485117717385,-5.75742574692546,-2.995448762128822,0.9402371735949516,-3.327613391176115,-3.3584063715776207,-3.224289270591644
-3.50611069382591,0.6845150262559272,-8.676416847204704,-3.2057356610337586,-2.095781925410021,0.7174709385733863,-3.474537653081916,-1.6701695566066128,-6.644507071216681,-3.2073460471602893,-0.0062971127832174,-4.466073761933329,-5.991794751484889,-3.906528472928244
-5.9070377538026015,-0.5437099307726982,-10.391373073582145,-5.44213213382659,-2.9210442612139182,1.0986141427805625,-3.1361768021428644,1.217841323040968,-6.859663490369796,-2.494189814682784,-0.8583028129910133,-5.085970024417035,-8.051409384117106,-4.658034167589909
-7.518492139184474,-1.8416814230935947,-11.028814643702152,-6.398173262256172,-2.7105035169078,0.426016594067424,-0.2354179660071163,3.692815202801477,-6.2971629679714844,-1.1037622670401994,-0.9256823323203278,-4.041861632184819,-8.248523307042298,-5.193963802851217
-7.96727670385188,-2.6789644833684907,-10.413731367664935,-5.668947021938823,-1.3920153686868986,-0.3625337663752959,5.456997247199892,4.378944681593179,-5.193833107576577,0.052627798311299,-0.3821545050907282,-1.3400857787763591,-6.74948988945113,-5.333652625747705
-8.025543599906351,-1.477811143216066,-9.398680553872351,-4.7882815410842365,0.1953756924758547,-0.4970841638468638,8.294909269209562,2.923777660082564,-4.011901643135664,0.0221103941547688,-0.4266029744514359,1.3529254871366323,-5.334181671296426,-5.349989708024523
-8.85689011444109,-0.1843111712199469,-7.625486038433466,-3.27800109634147,0.914342853701906,0.0905168364175265,8.558556438357227,0.41678031512975,-3.15389938127446,-1.416017454882354,-2.197222320216192,1.8507806378583576,-5.893518579840556,-5.907234499582828
-10.74752702902226,-0.2625940748248971,-6.483391527274029,-2.130561828443376,0.2679708618096224,1.2517852097940412,7.818021429173957,-1.3664598631233202,-2.719716882373742,-3.458609033094028,-5.352926221627384,-0.5270754198606697,-8.524178182728015,-7.45388112967055
-12.587873263557656,0.3535438902046235,-6.142406827974485,-1.5873732628017387,-1.0893844014932874,1.394303027721752,4.820213161509975,-1.2544486183156316,-2.459677401078089,-4.745369532700321,-7.885999937092501,-3.9440233260385416,-11.130205040747258,-9.585164021479162
-12.734694279485826,0.7160697892656769,-5.257401178004757,-0.9894802371491208,-1.755955560770527,0.1200820121370193,3.969388677875854,0.5613777911852971,-1.9315096272169257,-4.302410986348352,-7.709869234700816,-5.309106511021071,-11.18154844664068,-11.117379490764506
-10.535129079986998,0.048077062126433,-4.160414275007138,-0.66336081326454,-0.7091710098622492,-1.3084360169192315,5.45787437752036,2.7803212393203154,-0.7915397949686565,-2.3223836532613262,-4.721557454031826,-3.0041264409039528,-8.173045795862496,-11.007948416716587
-7.08989784197302,1.3993589634650183,-2.480067141800306,-0.2688582515537441,1.6932786127161314,-1.4402135717234124,5.678005556114764,3.896044338348197,0.8801881251711876,-0.2002260417550285,-1.3180304236976017,1.344350299056874,-4.467895264273459,-9.348521955122283
-4.517541726205003,1.3199698442027292,0.0022990328258456,0.2167262885052919,3.766166477773965,-0.0046979751225127,5.546918744763231,3.088476876955964,2.4105918875031573,0.294396012712296,-0.6800730326198803,3.9022296105726113,-3.59452126132512,-7.45635264569373
-4.378791177236515,-1.0096710903413166,-0.1441884338889021,-0.8145321644072286,3.766456006955004,1.4764109187757812,3.666920532384833,0.6679424466354495,2.7643861409486625,-1.785333847474751,-4.288102233165555,1.8365360178670291,-7.426523940850483,-6.90812590607106
-6.6402430390032094,-1.63178036615951,-3.058980651733368,-3.4347177896646808,1.4187815352930997,1.5466374635833815,-0.5867348421527444,-2.098599063576541,1.2065897701209352,-5.848680711525475,-10.909424877081214,-4.112729065638916,-14.717350162021791,-8.381044300056566
-9.951680172160076,-1.8386226363605167,-5.280528810267948,-5.284063801379111,-1.6910279800629553,-0.2455870756524045,-3.9270817969591376,-3.76478239390034,-2.0234736841408214,-10.135751932710988,-17.872079710631333,-10.13192687282769,-22.186024467639548,-11.308646320287304
-12.784152194706603,-0.2782500285490663,-7.485173342767778,-6.611145259705933,-3.355869315199492,-2.460386757276562,-6.722294896708155,-3.738334174904141,-5.66697833387439,-12.962613375292534,-23.28334284447924,-12.55235288321746,-27.056232065152592,-14.513856692921564
-14.34567201284055,2.664167092934105,-7.755657968659293,-6.469291680344512,-2.591478578881535,-2.9762725251186404,-8.114436883267135,-2.828169260755054,-8.246790665771265,-13.890120666980367,-27.13257866608988,-10.8498812170269,-28.82874943714676,-17.082894154627994
-14.642180545135467,3.3261373545394077,-5.315011235041975,-4.24367712747368,-0.3997935329351278,-1.372898624916406,-7.331151728487054,-2.693590241053556,-9.132103265291374,-13.878245648830124,-30.52542591636292,-7.703684730157789,-29.011269985377147,-18.70709489130296
-13.957978515399068,1.186950518647632,-4.675777083729123,-3.210872318367928,1.233177292203104,0.453014432946672,-7.803871790179469,-4.4761192105061625,-8.929989568883427,-14.33981253561523,-34.13601615630013,-6.261584517989698,-29.41756126464601,-19.42402834693277
-12.44852852237386,-1.9715364329808829,-5.352175864628074,-3.1031545606576745,1.0863863057737468,1.3972780812752217,-9.221382058566547,-7.78470465267357,-8.836768555903497,-15.948356692838454,-37.46651918248883,-7.389156271370439,-30.6768408759514,-19.264900589717403
-10.190837769394278,-3.465238791125896,-4.718155597215588,-2.453852031024532,-0.4616737644201407,1.4064217648506043,-9.60760327628226,-11.011167787023629,-9.561772118006491,-18.192550984544845,-39.39357561568602,-9.425215170900463,-32.04967471335097,-18.20108699455917
-7.442954595756291,-2.523077405686977,-3.45744694710737,-1.850874412193363,-2.1194835668377454,0.6416108572048577,-9.50943471055899,-12.682459056428588,-10.805551723025651,-19.91187249681029,-39.15186682912016,-10.250874736338435,-32.333489325814874,-16.298225722145524
-4.682321894579971,-0.123815957932673,-1.380291354868803,-0.5976324012737705,-2.9557993916576386,0.4739651487734229,-8.73401675966421,-12.524871622625051,-11.670362482204007,-20.193456322223547,-36.72952008641192,-9.276398989222637,-30.84610657307153,-13.776030831508033
-2.3252242843109023,1.5924449467400372,1.902460936640858,1.4663327257191665,-2.9633697636048506,0.9524334295448034,-7.004341382409784,-11.298410002231517,-11.48417737059767,-18.873091987015297,-32.55510884116534,-7.475829538949974,-27.718949004666964,-10.892357958028123
-0.4301842974474485,1.2158145044021034,3.5261454702938027,2.43840763590229,-2.64273368685871,0.632409213374223,-6.616142041984069,-9.825399938212469,-10.267428500414988,-16.43823160465201,-27.12225235562244,-5.951732581696128,-23.534406325650465,-7.82579935157062
1.2818126586009182,-0.4931841269581075,3.439663292077093,2.3827818162035803,-2.38896532033775,-0.3985162666687374,-7.618750068364141,-8.38970779115825,-8.58037135933088,-13.646849226381326,-20.996323087091227,-4.90646909301568,-18.86363396110585,-4.683910463592369
3.103673817802409,-1.325817436754252,4.118922310546059,2.621975901885893,-2.3585489014649497,-1.4354526229090132,-7.817472975450999,-6.992663025822516,-7.062877330512411,-11.16920971879066,-14.913115705989275,-3.966324625330397,-14.115490877604271,-1.5560766953298
5.0572919275701445,-0.7144319973206129,5.003316073847524,2.801978411862899,-2.619839801444908,-2.8829573423824626,-7.646294438419623,-5.785433377482839,-6.045017731178575,-9.285130098833324,-9.464202166341728,-2.994429783672277,-9.597226894740068,1.5126360166815225
6.960191319760977,0.392623100336559,7.0280972361457135,4.083699303319172,-3.0523300170410046,-2.468225328883882,-5.87939897175773,-4.879038053347454,-5.347248052935829,-7.647485427537788,-4.486212205030856,-2.121979577358548,-5.426138506747964,4.596611898200063
8.800378817738778,1.7115092682836155,10.662524938497375,6.758959477946659,-3.06549679407037,0.3273476882995588,-2.024268050164474,-3.781928650529874,-4.288564463614605,-5.345932616990488,1.0768256311816558,-1.0375232358472992,-1.2178117799132622,7.885779027702334
11.03653215767952,2.349415008735924,14.510716592494209,9.458290081425329,-1.7752889485007977,2.497435516029653,3.173628742642003,-1.4728492312995058,-2.0221285802847118,-1.480948232276809,8.34213961833428,1.2574271658830476,4.0278857757335285,11.570378860596474
14.43080011269687,2.330214713984648,18.93339650682489,12.516788739424484,1.1620884580539226,5.80019707861477,10.242625230791594,2.5604603719707093,1.7999990435466202,4.02896011539616,17.26014214811941,5.544524573707086,11.380157273683594,15.702570024991914
19.385010519530947,1.488642766187325,20.38934043146865,13.015562095389605,4.845338541245763,6.495212771578613,13.39197316694382,7.345672009615303,6.465254065602402,10.111085581362175,26.22361380202356,11.1937017461314,20.94174068575483,20.09290941803298
25.21519098165009,-0.270807025844587,18.349490113194385,10.47424669228596,7.508448736965729,1.92998464464384,12.14032459982023,10.813468903460098,10.38301654243604,15.115644326429225,33.095570382676655,16.11748032926858,31.209105064892224,24.222022045911867
30.01597755565991,-1.439194240155582,15.84224662983665,8.53734645166135,7.850569066686113,-0.7869550605013776,9.98130116437162,11.439976630053136,12.11598648259275,17.90537579901044,36.79162237639514,18.1708693480199,39.60361368210363,27.219918941040792
31.484855945035797,-2.516038955867891,11.90003463759528,6.5020061668094495,6.062919358611575,-4.52594168552047,5.398613060979789,9.557966201299903,11.483708526689492,18.535476970578067,37.89495686146928,16.754654859661642,43.97794540487732,28.10803317035107
28.38070258100978,-2.1532268103461583,10.362144634732006,6.202321840470358,3.533015574581798,-6.233385692907544,4.74860723050823,6.987891411183977,9.713284454540153,17.989230612436828,37.74329560278353,13.180292822924033,43.94551712214152,26.38988821663422
21.6422844557161,-0.2238879539830382,11.897763152570196,8.427262847669882,1.606087204605405,-1.946908795318855,8.779403192059256,5.427281805777394,8.440294867069792,17.331691254981997,37.05619546275027,9.608261098622496,40.97758432118811,22.651672225368756
14.184318787253837,-0.2244588925987106,12.040736242733402,7.831755191373539,0.7280735836742736,-1.451017980131515,9.990089402890815,5.314039356025473,8.471738054336404,17.087055606858563,35.638657547434065,7.621588699242043,37.30432693262161,18.543922429277632
9.241090659653551,-0.0277977494674103,11.746331540776715,4.798162057297271,0.7053086416869245,-0.9395628710064724,9.74996550831002,6.169130373296376,9.424565878043396,17.234747744741238,33.39656947976188,7.535636693832409,34.61416603544269,15.870077507586236
8.3202658201356,0.2437231586011694,11.572919553682254,3.28315162819784,1.462219054885372,0.2488872524228977,8.79938863766007,7.623516927609055,10.420848778629791,17.52901983828984,31.267640710777005,8.647213042856745,33.45709890438643,15.348408885585776
10.311479786546954,-0.3558682642090052,10.899769767904292,2.447804934689209,3.188582649453677,-1.291965296430922,5.924163452568513,9.657899163071626,10.98201703985734,17.67642431477964,30.658286388913087,9.896556696124316,33.392825575392195,16.101458942422337
12.49180205771292,0.914182525214336,10.277924962433744,3.6236836271262542,5.6841612264277614,1.842237713789057,6.151773759226779,11.808776591984795,11.214852412313787,17.318057161002667,31.750668945062788,10.434332478625992,33.38204636903124,16.41901585223328
12.62238829867852,0.9644196672011546,9.610778502704935,7.597749903156692,7.837905980563235,4.8762460363613,9.578042696865182,12.638301270569404,11.275789052572035,16.11698056441743,32.616790445655695,9.9400198670887,32.16693434841176,15.189652307721367
10.40513688064837,-0.2527346911656276,7.625687436163125,7.115533673953989,8.134568427009262,3.930952772984468,9.201374919695612,10.627450243106642,10.883139889941589,14.072690723742362,30.503662939080343,8.689492351269335,28.808868084691817,12.734039353696268
7.181307025910294,-0.3107872533132437,4.262702357054509,2.2143782396748595,5.913858470760261,2.068298859054603,5.711276691869735,5.880032890913872,9.501198533847266,11.74571635845287,24.35610190602212,7.327960145347989,23.388050615361617,10.322425270315897
4.371120389524565,-0.7698971960666325,2.377044730527853,-2.8812277749652115,2.171002713843998,-2.5275344322634457,1.1873613369787617,0.7389283602237757,7.007533345823546,10.008980217130198,16.1022447356979,6.399052812887386,17.300681053110374,8.913947141216937
2.2322526412294854,0.656321056580657,1.866695726243704,-9.715539885724532,-0.971680028153429,-5.766313058006629,-5.724253379584853,-1.7265938821015236,4.103439626984507,9.407364304066984,9.26511505239046,5.928187774859151,12.562394010340824,8.361072379197434
0.0389992807831784,2.6938556463192502,1.1813124792841807,-11.72796984493851,-1.767597073523557,-4.225249710869799,-7.162124872140641,-0.2042699022116139,1.977485850857052,9.687384412247903,6.114287929744526,5.420295461755819,10.396043162150198,7.777728978141466
-2.7167501376047056,2.078839586094453,0.901935370659849,-7.936284927799143,-0.1091327997436053,-0.9502834115225453,-2.473688339955796,3.71203750455086,1.462671987724116,9.97936672952407,6.046218711795802,4.3121974697676,10.280089883133003,6.559281695790034
-5.47827397914633,0.9522189224260008,-0.9393535984411504,-4.969108623321085,2.410370380962295,2.03150952156745,0.1743104509047723,6.819162834870326,2.4097627203865954,9.513352774043536,6.621219786547934,2.49747356161636,10.413769646209207,4.932427899655259
