AF3,F7,F3,FC5,T7,P7,O1,O2,P8,T8,FC6,F4,F8,AF4
4.288308186207157,8.777050610912504,2.057191631043019,5.538690183991994,8.596410177589151,2.9592992113237737,0.0474111402830867,0.9863598399183668,-6.782158782433877,2.4247338220254,-8.765959205022709,0.6409441672698932,3.2561268700893296,-0.8843947626649813
5.835884651194947,10.801923798518384,2.6986562654349195,7.274252467039521,9.27346602787669,2.6979623753302,4.421832212961404,1.785895099550268,-2.837603307937353,1.621962013959541,-3.5009873950998105,3.1881215775489467,1.0550619484565118,-1.2552209504873266
7.906609173604242,10.730946608051031,3.9837796029284314,9.745506078031177,8.274554497967683,2.95272965065277,7.519148718715352,4.293452167713017,1.4849001879015218,3.639192021948598,3.3188500086069683,5.7320467668509325,1.3265703530697506,1.1748365893896375
10.456609606212783,10.929143843545658,5.434496444771993,12.27164022545497,7.076972387532429,3.382674532667912,7.167620325808928,6.257330701759383,4.109029899279481,6.274331068032488,6.781725029515418,8.80865052468164,3.3657972055576884,4.388149246016724
13.102082124113592,9.770010559006971,6.606489827216034,13.921387908002629,7.647138931118313,4.3206611207419385,4.10922002745481,5.8384325936325725,2.775459897113392,6.553553614174895,3.94224787555178,6.2877309569434825,5.595563012125625,6.64096694202628
14.494932192162125,10.306168386532049,7.179009963386344,14.108595838821548,6.191389677702088,6.036594694266466,1.3951952332294724,3.171823914559974,2.1627672897173977,3.1013156960814627,3.377098206864684,2.543451837120116,6.697941970289101,7.537408081316752
13.09497449739691,12.652301293970574,7.027764840094098,13.053697910967376,4.677471460777892,8.645665248930118,1.8720283522951344,0.281781368808182,2.848496636983449,-2.667010913279702,2.752871157311555,0.6898094156165313,6.197958304953173,7.884688079046571
8.807540092648974,10.659049808047678,6.321539874085368,11.580869147993129,3.6004808082075983,8.753978892788275,5.791266609226496,-0.6335167334578888,2.2709498024143824,-7.63941573877187,0.7755395685708085,-2.526994506064589,4.178660860343124,8.498248960047635
3.697178512922104,4.541018964664199,5.457422725324957,10.295625842955786,0.3848043081034404,6.168977496384508,10.493433481582947,0.8903526664293224,0.6158414887727353,-9.463876461131049,-0.0958651167304873,-3.5675894584773387,0.8053555801670447,9.09669924387905
0.6346154005197775,-1.1386606513412827,4.674808862526707,8.845748598730438,-2.8619640784153075,1.675840966612664,12.360169739637149,3.101592075527691,-1.5804665754529357,-8.261677393968489,-2.7001234993305943,-2.962956715696169,-3.61225551252046,8.364163183824063
0.8074899401690505,-7.508970570141857,3.600351414815216,6.040403367458668,-6.109378407174788,-5.701920760663463,9.393598875035629,3.4030227998002465,-5.836382290918264,-6.224789520883152,-6.298729622336377,-4.794180870120086,-8.159039208621998,5.159746038192814
2.4271346343696747,-10.396123857152077,1.3191274926010532,0.916046495331574,-8.289474896130423,-8.061901038587308,2.469657797486845,0.4894861799396297,-6.921976293149932,-5.608420591477045,-6.133271167110664,-5.324356772198203,-11.277030260965006,-0.2440341232286931
2.1121774172620915,-8.72349748795055,-2.76060685261763,-6.063182438850811,-6.8059921910165535,-4.93604775891172,-5.387344947371701,-4.446126739154486,-2.530236590468184,-6.918814060213861,-2.559727387120961,-4.50807218830664,-11.61467069895836,-6.045144232940645
-2.0428926535363034,-10.457555496580524,-7.864514351756854,-12.762240891810166,-4.078359934210663,-0.8498489444628402,-10.827165173926184,-8.40984526192355,0.5369958349195438,-8.744839697689287,0.6157018156992724,-4.973606519030272,-9.177335813102616,-10.035288335259043
-8.45183490630235,-14.68446759349473,-11.762191966417475,-16.500075549913376,-0.1878732504406208,6.171392727694222,-11.766099878397617,-8.72788069017296,5.037146633099311,-9.174633471133502,4.678611402049638,-3.347324253623813,-5.629017607638025,-11.006480400240653
-13.0562964189562,-15.15384911692514,-12.135111687617314,-15.82378297984463,2.109892600691245,8.30281262665346,-8.094032299578643,-5.038657375321971,7.0699807006554,-7.476311938255752,5.99352244614076,-2.1008102466888845,-3.2269162369692435,-9.359976730456747
-12.677311103403854,-12.88809516834596,-8.501325559520854,-11.604105435356065,0.7765157533549153,4.616286376963945,-1.5896817560424843,0.3321589921383703,2.7549328993480944,-4.690660237390765,3.1415265883826087,-3.099009972740194,-3.1560088617865403,-6.636238586260012
-7.828510829404761,-6.2848485317250296,-2.978851890888216,-6.582386080371409,-0.2400268038525006,1.5209810381156623,4.752429849452633,3.943735979352077,1.606456322067796,-2.8005845209770808,3.027782671073656,-2.752428610056356,-4.686277820253097,-4.5248632796323465
-2.4929426908317147,6.034458937787633,1.0544189665992654,-3.660059894780772,-2.2619666326190027,-2.95861879320734,7.973064889546232,3.6523245212188895,-0.3770820611518278,-3.23671005847162,2.985620650211056,-3.2100408105174774,-5.908159931567108,-4.064455359493881
-0.9787148589223318,9.548974488822946,1.4979453588271785,-4.130687357842833,-3.2844059212384944,-5.130626453956807,6.711654461156229,0.094138859996077,-2.5545877895018,-5.838016265874464,1.9733688720304372,-3.89791432141565,-5.405446934861233,-5.306727389739019
-4.479613871799252,3.9530962306391486,-0.8571904807498688,-7.0280023036761134,-1.565101784405839,-3.985145613895503,2.170946342637878,-3.8788090676788487,-0.4082357091724224,-8.930584474897001,1.5945856507950604,-2.9829194450455274,-3.418044255287811,-7.345185038837284
-10.172045773513815,-1.2418122071654385,-3.0832467200506724,-9.913013624273017,-1.0191948457659958,-3.432504061818953,-2.519399350367604,-5.383579602039218,-1.4924806256470808,-10.410184434325611,-1.4228799838827753,-3.042657523690287,-1.5604607493970977,-8.637185532487655
-13.476917227883948,-9.244130602452184,-2.630845823637795,-10.46628833150735,0.2855312869958398,-2.3536509374365724,-4.461773272685437,-3.621335023826763,-1.5516060866816264,-9.127465820153004,-4.661609295090555,-2.9469521697246077,-1.4584800409791328,-7.691429691655978
-11.514132715700862,-9.608033597747523,0.5720857159748469,-7.842414923489781,1.5828787660662085,-1.001279124162751,-3.1113911348344923,-0.2961906399026954,0.3762330143457677,-5.720965132461948,-5.264275824382288,-2.4334689530600486,-3.5081479997571705,-4.007576457607808
-5.003376008622768,-0.4320425085509587,4.228570639455171,-3.0270027146695653,0.8595302090586079,0.1855206644496227,-0.5073026266784977,1.9088886824166136,-0.3809737357528435,-2.3175782014917674,-4.176064468438719,-3.0266646592225555,-6.6677913073953885,1.2959970560409428
2.6154799912206403,4.77973922071975,5.786646088821935,1.900963294731258,1.0853976193781731,0.7895424330561482,0.7062578631610628,1.4833134942684951,0.4091472357801252,-1.1608727428403087,-2.4759977378919347,-3.190564788190359,-9.209972079566558,5.854720676722304
7.787440163446503,8.506717761972181,4.604265038489654,5.077059676693684,1.079243026040888,0.4979512354303236,-0.2762720352831092,-0.8755384566420767,-0.6207811252912457,-2.977954550286351,-1.5443068458393272,-3.295822418960972,-9.689685706470463,7.513711176314264
9.042869094578451,8.126395093727556,2.2829445983064667,5.9147042379798975,0.1872896196368871,-0.1310185602039521,-1.7881548147874695,-3.0487266856742834,-3.191974115662367,-6.262767184105134,-1.292551814163737,-3.19780737701496,-7.5205961835554,5.9725544789784175
7.420590572507516,1.079308466861545,1.0458157886955377,5.265184509973006,0.3312546927344184,-1.3556498713383422,-1.463136819992532,-3.2756590950114672,-2.5927894997519445,-8.174793221676477,-0.4463776305443617,-1.167216911174202,-3.0960706915661715,3.282545315571747
5.30854990347435,-1.7296093455999664,1.772223886031842,4.578411074771626,0.1258611357421224,-0.9442171946135066,1.305412312290211,-1.4080988923852076,-1.546541516873528,-6.56096024462557,0.7648836671685592,1.2611469061051568,2.3445304746748885,2.5431794473073683
4.834917013560803,-1.2598186311528086,3.439161058062896,4.656476089343499,-0.8176155091559392,1.3280127606590226,4.599354050339715,1.2342019953113026,1.909192773689752,-1.5952822703526746,3.66427356829593,3.974956730351821,7.06859205864822,5.557352281438654
6.77354984688049,-1.4444698746384743,4.2625415547073375,4.948132888685912,-1.1009409277221496,1.6489078996263418,5.614456327777914,3.026629656647318,5.397087533414799,4.312628333026042,5.865699360155974,6.130026268702378,9.524404721939495,11.20245083184509
10.269977463452117,-0.291954364219473,3.2857359525048966,4.003840216156794,-1.4915497913762354,0.3688960122240865,3.097496578082314,3.140435254965426,4.432551109717403,8.317533890085276,4.798510999095951,5.77684731922286,9.165783746972588,15.916405351922764
13.294179291510307,-2.502376331925987,0.9731679693666532,0.8154596827141034,-2.514593797796097,-1.9832441340920348,-1.6916446093389617,1.8215065585424275,2.719373241683536,9.172655533442452,3.736759105898967,5.063591058791531,6.852753507666614,16.135671157282523
13.64531561438944,-8.571954368599663,-1.4714229390644462,-4.0100965876605885,-2.995477731116024,-6.2130868625001,-6.219413022680364,-0.0703537083303684,-0.4202881817972921,7.845295116711759,0.934456469289711,4.049179546742197,4.295257440040386,10.937906371772517
10.176565531624046,-9.613729212969387,-3.144678140661652,-8.298204367960023,-3.1354899372286207,-7.301467088920597,-8.728952069803537,-1.6716189487573412,-3.097234413931452,6.355471914195024,-2.0852373248421143,2.8593375673704,2.7675558791809625,2.853034684352876
3.5836565527373327,-6.223834409728931,-3.853786038028927,-9.71409850325783,-3.7139396606712616,-5.026633641916443,-9.161493855091,-2.45443674389191,-1.8794004969909663,6.018747054247254,-2.0056886057459486,3.182483383543034,2.113512436140935,-3.882087923458569
-3.896372828679489,-2.15231759602838,-3.8108227693289214,-7.518241802142102,-3.7900479170690073,-3.521570091740776,-8.413490680433814,-2.318670982235611,-0.6960102448983696,6.632506236512558,-1.1335761892746388,3.1356490764209224,1.0054020359868776,-6.389785477678101
-9.84375059402729,4.346886958482922,-3.25543387046834,-3.250761252288188,-3.4769205934138987,-1.7132175462809922,-7.124861932172934,-1.612363066824284,0.3147002980235614,7.0918193535714815,1.1685257164470657,2.463167299647733,-1.638897306534593,-5.22175542133842
-13.127185933143569,4.6935353092011365,-2.4616689096653306,0.2985869476670091,-4.147036256200153,-1.699985684080776,-5.41334520382817,-1.055835829420806,1.1872987735539486,6.594158604447407,2.51337802650543,1.7903814925858106,-5.333804707468873,-3.814534328759039
-14.337970798586802,-2.0799044157813977,-1.8945891334244955,1.0889192693739584,-4.504228785101538,-4.235940449771294,-3.600524703190165,-1.3970194892346854,0.0274160590001342,5.258116082745486,-0.1655250577037764,-0.3418165511689047,-8.138580633712058,-5.706145424976796
-14.895458114486338,-6.9546028195028535,-2.062136536702665,-0.8018496794952394,-4.423946841575035,-5.274403058431298,-2.694451043316473,-2.8580510655621363,-1.1682785091500556,3.7789382380256176,-4.721136576483668,-2.995750976704191,-8.300535569261868,-11.661284491683167
-15.714949029543,-11.88251309833552,-3.0836902049456447,-3.522711638075429,-5.336251542918619,-5.368648677689526,-3.6730501140599854,-4.814345804770973,-2.049167814028814,2.6826276173226584,-10.370010621687058,-5.489257037691765,-6.031667856416969,-18.97297125631078
-16.627762819428597,-13.702949306499862,-4.504933913613948,-5.155514625846554,-5.185015824335742,-5.045400110736234,-6.17090748335959,-6.131700926087049,-2.4311436788856966,1.9480576066953548,-11.055168129409424,-7.11167907076167,-3.6933870432608047,-23.51225433358494
-16.8864863621031,-10.716442130675755,-5.666092029426352,-5.2647466096667,-4.466046490478549,-3.573065744545183,-8.150799050173644,-5.994799486385197,-1.1161625396536714,1.2434249499336127,-3.688889461396189,-6.2775822840573205,-3.934601540092292,-22.875600478972665
-16.055045435512902,-11.613151800126776,-6.2653475475869165,-4.969106438672458,-4.4792584528480015,-2.8087797870519227,-7.318565498237128,-4.516962232704014,0.6290533618609816,0.3884249564810558,3.4231316291444087,-4.445528970821673,-7.2388308383988065,-18.109163631237184
-14.348072602366624,-15.520779501877485,-6.474739116685351,-5.580079313805063,-3.2226435921562127,-2.6997694696646177,-3.1948575658305955,-2.535699620732042,2.762720244015868,-0.4261229993806665,11.02782177691779,-1.9963639513985745,-11.082585984549317,-12.678112905433942
-12.26049760425018,-17.689112732697044,-6.521422090946488,-7.176348657889664,-3.248079353947369,-2.981910405598897,2.119372225743506,-0.8199279051387771,3.72803501941072,-0.8139135948516807,12.89038226023087,-1.1263011430681735,-11.753498639724828,-9.69073965810414
-10.137584904965182,-19.49316449472965,-6.34652478652928,-8.518358250650733,-4.97819708057056,-4.0856279347789,5.335385137137229,0.4473124051484716,1.9883857404254688,-0.5771764813896642,4.908665061752248,-3.350683158274345,-7.625522918185846,-9.8154825350398
-8.268618518152328,-16.612417053689004,-5.873513505504945,-8.405760592018478,-6.143428219629933,-5.005829119005418,4.379782110141613,1.3695425765526932,-0.1800668487180787,0.0134575664663125,0.7577481177457921,-5.966045464957396,-1.1922271754362102,-11.552595479558946
-7.299411987694339,-8.012689525044918,-5.577591981072153,-7.150099871955985,-8.909340901096872,-5.807967385139189,-0.2044476558425136,1.6782865072681723,-3.050737071697524,0.2765155617213278,-3.7665596398243752,-9.604371156907142,2.1809599402652213,-13.27135478310133
-8.225001265307696,-3.1279966363148146,-6.483596938575218,-6.634080338433485,-9.347148863381037,-5.423402965694048,-5.82780003364951,0.6824745587704553,-4.500590610228846,-0.4573508006056797,-6.35164710601908,-11.41410945556986,-1.7193816450460455,-14.841305419095232
-11.623740009074726,-1.1898963591526857,-9.242710004625202,-8.690783167862785,-6.602299908149518,-3.5171038274763835,-9.6276325018328,-1.8910508792315448,-2.6546353299361165,-2.3070705908502784,-1.563105632617688,-10.326859885685266,-12.181657298789515,-17.277234619898884
-16.715886838386105,-2.4888052893663946,-13.07391696831884,-13.158457703452992,-4.337400152948604,-1.6191445425844084,-9.955333246089674,-5.044824467131249,-0.5615976783926155,-4.584130355975475,-1.991547208784585,-9.885751206589635,-23.3071194279848,-20.9630163641327
-21.25639589547694,-9.21723847380245,-15.784616787382728,-17.41154133792369,0.6085389211924384,0.6010560488330763,-6.785560335095509,-6.77436705680013,2.0452139937548397,-6.07489297613448,-1.6809967927371905,-7.874933737242382,-27.956765400290085,-24.482921524314687
-22.70575194129393,-11.367532803438406,-15.189458276483322,-18.04172322361068,3.644903398067092,2.274222200409429,-1.3588176696329426,-5.51808749123029,3.464496136702441,-5.769219125340498,0.6842477908869916,-7.0382313045471125,-23.0729700896171,-25.43996087780519
-19.97077766507337,-9.206230099604936,-10.843756796580276,-13.50911306167699,3.9970340822389336,3.0852847509529595,4.375472316959889,-1.54074068010536,2.068026757104223,-3.562684956984006,-0.814957617869243,-8.710887253399115,-12.068739394964735,-22.572188492399214
-14.325428281363068,-5.236230941114426,-4.564485361646343,-5.606277608759849,6.394724147298144,4.293991789656902,8.408255201448776,3.0925780866519625,1.1834169255709053,-0.4157778236602181,1.7804220892763432,-8.675311088434846,-2.1767993020589644,-17.09737648711466
-8.674919850514659,2.841469617856644,0.755005760757041,1.5573447513779084,6.526173430856061,5.621486982183311,9.460741399955824,5.950262410245735,0.6714888558486208,2.128623097870406,3.510301197994705,-9.887957200283962,1.1170083902790404,-11.950795348944016
-5.599376368900657,5.4206817877920415,3.058370542367573,4.387854565181106,6.44434736435125,5.696108336491926,7.628802676425344,5.795217792612259,0.3183967390717558,2.7542923622135502,1.7805828821756575,-10.166070823608406,-2.08729121004762,-9.552751816456473
-5.602714226573456,2.108910665640056,2.2749637273999044,2.3139079234782907,6.081363594762289,4.556790406027691,4.315388119167064,3.053505570570312,0.8638939137892852,1.038238371705594,1.302338774499885,-6.716912083720231,-7.040050078046705,-10.014363334842292
-6.843812040312486,0.3805001876799516,0.0263049854790233,-1.9286309934266663,2.415905572970873,3.2110772080256624,1.314818444824728,-0.8341695211072531,-0.0587604640453061,-2.334674352010175,-1.8236431492372132,-3.863798362434349,-8.79624629625295,-11.151271246760942
-6.474207523263354,-1.8101005816291125,-1.588155654639543,-4.369550032565758,-0.6525352770528013,1.386980852220283,-0.2868965866645023,-4.284402527057045,-2.304788285355504,-5.856601740111142,-4.409822031742545,0.2436303109262959,-5.975286363748725,-10.073045946460503
-2.5390577525055624,0.5895614877485825,-1.1370412358509046,-2.5789281647182327,-2.111175929146228,1.1435989222508751,-0.5124164414101151,-6.012705115501415,-3.2661413390463085,-7.847084449477201,-3.4573210300309167,4.648789768838266,-0.7563650554049076,-5.019793774386323
4.884218075852369,9.013156188571116,1.6381600662642797,2.916008105648397,-0.8478916003167398,2.8223980362441488,-0.0044201347508256,-5.211134459286934,-2.452080437148929,-7.2328580959188,-1.3971678762133128,6.663888114532762,4.10602636297308,3.721261028332473
13.878406389781256,13.636515787056004,5.907717088134033,9.392300580922768,2.773159713051826,3.966576764162472,0.7076766756860531,-1.871401899552997,-0.3382942640435498,-4.115866370638509,2.736128011640145,9.393228583490547,7.807391277556296,14.100762497778456
21.84880521541092,15.590400376907615,10.207373206572385,14.027132180992194,6.410217174179483,5.083552755847233,1.481054908082347,2.907669699848109,2.7547939984055727,0.2255981938074001,6.7241433760845615,12.272480188345664,11.264318200062494,23.393776147431517
26.843630941121468,16.965104892863895,13.136077963763247,15.670156328769137,8.789045777748779,5.744776061725634,2.3341855055437,7.240343296970328,3.928181182475935,4.02473065342933,6.593668400240975,13.90387143628426,15.09911304233582,29.487664341580103
28.36814376274216,15.928653156028243,14.086258486956686,15.1523524552233,8.660496948226225,5.521528681677042,3.201786644865681,9.542173293720742,2.078810263970314,6.060182532551725,2.775106468086325,14.495723242783267,18.516585154400488,31.799157838826105
27.39508143965645,16.883955602736535,13.551685215250648,14.216243743119612,7.672237169479901,5.778990628793812,3.969737639889912,9.584962995316063,0.1370570512383037,6.337149836246422,-1.5880016742846903,13.76152711782192,20.266993833022724,31.35952620357997
25.616998147553502,19.87820886455719,12.659784076389071,14.083083717009226,6.9414534496936495,6.31620199943798,4.610553703098664,8.502573861562407,-1.4732244805365418,5.87919018191976,-5.314044621047964,12.02658611850189,20.259660445915983,29.97526996341034
24.3422025866602,21.10992476987541,12.21325779930562,14.73905561178204,6.886120414706308,6.904056559157921,5.157852687200588,7.674366120055861,-1.8874130959585296,5.781038910294711,-5.753210359328578,11.424533968134345,19.755541122088804,28.99886702252704
23.74818088053884,21.36651020916886,12.102969419086769,15.339778018791014,7.772792399267117,7.767891346340854,5.598741451269357,7.553055356028892,-0.5892737321296584,6.327742094511075,-2.497766269497473,12.622403108674389,19.96653402183193,28.624211513035405
23.100299048588063,22.94315560840282,11.700910032326387,15.26003245296947,8.79150427738596,8.472226882328664,5.929493079920904,7.562793938915233,-0.4616160620073832,6.953982721049309,-0.7220859602673517,14.169303965081845,20.8592890878241,28.24192440299803
21.78158995025887,25.46015103479591,10.825174488637494,14.843118922995078,9.814046471382806,9.027193346193274,6.34542063007971,7.045904765330599,-1.59673567204224,7.021207047045404,-0.1918429258741567,16.164037976534274,21.530488933448797,27.43404395544549
20.16799666470901,25.4019147365321,10.203285398795602,15.176577896062838,10.061364621111712,8.9711989644365,7.214059316227329,6.164402991702648,-2.303202213204881,6.607527070107944,-0.245785256463455,16.734804424086597,21.54015577333522,26.59512475193348
19.40292189616964,22.8705836542522,10.835699923847628,17.051665784433748,10.128336947628098,8.150619987292789,8.680086934752655,5.771092609832349,-2.1392250144579448,6.477759435806263,-1.1827215659941248,16.410576962128037,21.429615687909617,26.547360832929527
20.196134341892154,18.0613622194187,12.871338767268348,20.01987368132736,10.534665165319511,7.432610083747594,10.276296980337484,6.427158378782842,-0.1749798594443739,7.243126040877009,0.1617953561104512,16.747721330506852,21.81275646539861,27.545569743128475
21.84510991644271,10.048180092175569,15.197163604777346,22.45007992463125,10.160513064281377,6.689690798113968,11.0610778244747,7.668732127048169,3.0774635802578527,8.57934541379386,2.581576416524296,15.781751645768392,22.321120829008905,28.69697471637593
22.57918701620501,6.714601885583641,16.24210621895516,22.64667552408499,9.426224420162836,4.960229822962875,10.293682995909096,8.32453433389122,4.296884440584161,9.345788904680171,3.2332220989181955,14.477494377100289,21.80449326832025,28.45133313739601
20.99231957805965,8.403425277307802,15.232105942818528,20.114003646199706,7.894423298017355,2.308913809349233,8.048075044803221,7.563030686179727,2.593687979100673,8.550957921478922,2.275020421065927,12.239133721582908,19.56202548607731,25.79529272104316
17.175572808368678,8.56357335087642,12.682717533979757,15.855303995947606,5.082259074254963,-0.8266867663867274,5.147078577541112,5.584796091830826,0.1110182269096766,6.202420477193975,0.3261412962438111,7.662948736756791,16.058598352176467,21.0822953197298
12.469056822360455,8.886839508111102,9.761762336742224,11.460583744414327,2.0431104704897383,-4.640467486027669,2.460810156518229,3.2900860028267447,-2.4877037280054464,3.1987540271207684,-1.5365435822195754,3.0649700002339437,12.297488988125227,15.744272249076872
8.155468695052944,7.090603728389328,7.262677856858347,7.817696274728949,-0.1661684714331946,-6.271056366211467,0.217738466983663,1.3309048231225724,-2.890205903012772,0.4004029962687148,-1.5278997656140456,-0.1331205391200698,8.71770112824905,11.105039837144323
4.462329820776938,2.08144736620544,5.174303434553174,4.617299631272476,-1.4966474032522783,-5.408696048488136,-2.023926172246175,-0.4125034620558223,-0.4288135777286512,-2.0971357953041805,0.2960063818949159,-2.4873142847875744,5.051209124499729,7.347151163266576
0.8249398185234709,-0.9005183447567829,3.0728282683619947,1.048614521626393,-2.6352660494709426,-5.79321626103362,-4.687335393348245,-2.3861425044561373,0.5305880380504202,-4.667260046134378,0.2883837631389687,-4.173185163959577,1.2223264643873717,3.584220273066747
-2.970026878723257,-2.502523356841008,0.7538587319506791,-3.030554442995274,-3.3265624701629624,-6.838529088330512,-7.363192643955433,-4.469517527121347,-0.1369090369161377,-7.143240872494626,-1.55187265041372,-5.071533586645281,-2.014258951800074,-0.9862948405138444
-6.000349675347002,-4.862039346414889,-1.527059916924768,-6.585172775541329,-3.6221979684974097,-7.239405624406228,-8.6686073825534,-5.680102464312337,-1.172627738411137,-8.29968412197412,-2.5213876442387337,-5.806425335821404,-3.633523630255105,-5.917655381287671
-6.667239458429066,-7.147428459603342,-3.316317022511519,-8.099943715372925,-3.504134416152948,-7.562885333083344,-7.140696875868926,-4.939290377148323,-2.12161243551686,-6.677557031012512,-2.1822417545035164,-5.264798005732009,-3.4363112433810885,-9.55068252519712
-4.110466957404363,-11.89712753156701,-4.3901893310862246,-6.928290192771355,-2.732279711277835,-5.34982542517071,-2.6765210696598425,-2.2310311361042565,-0.0315807560314979,-2.196411895138012,0.6255610839633619,-3.1864758422909736,-2.3008355666588085,-10.407098306587695
0.5813161805754978,-19.52794783966689,-5.009162621899154,-4.145575961112104,-1.1903902109910651,-0.2771198708454263,2.6843646310421487,1.012800862394701,4.24503438824239,3.035833630556552,5.478717253081798,-0.4294554646348477,-1.3032711393003584,-8.739183786731768
4.4550875390031885,-21.609309448915475,-5.869500275246249,-2.125537032986992,-1.285989460960451,1.134895465212685,5.621710238343537,2.794086419258251,6.372015336834911,5.817717434964525,7.26036008917882,0.1584860176328799,-0.864612732743379,-6.720564987385571
4.303382054028907,-18.185535218848976,-7.729266281041291,-3.028165675178609,-4.403163155732622,-0.9363645870302484,3.785919118882302,1.9863113200384843,4.568621494529718,4.202334167262169,4.071384595168041,-3.1254973317992305,-0.9749088909157556,-6.884230384029902
-1.137194952872119,-10.27598445213331,-10.81907774559786,-7.265535624720017,-7.570680851103578,-3.486199568677089,-2.226267904840644,-0.9227060651138768,-0.0451311737978616,-0.8748659683832063,-0.0777609618921771,-7.143704281568705,-2.014230204279446,-10.081350932266291
-9.979599790377245,4.33672911215252,-14.390049886792076,-13.080464950260025,-12.07387283549036,-7.919772124916923,-8.966784807630962,-4.367868178598862,-5.698995158143717,-6.188290770483623,-5.22076449859539,-12.821680549134058,-4.797748493125512,-14.762216801193894
-18.07411615702835,9.40117172645594,-16.890558383810877,-17.609068229161572,-15.219429848463632,-8.816175180543937,-12.509785839754304,-6.937163856684776,-7.726177840751747,-8.61798706190665,-7.79289904323929,-16.55734449428335,-9.462695693911268,-18.22730412932883
-21.61608563263839,4.220998534223237,-16.904400348924533,-18.72174878033185,-12.850718029473637,-5.567150301104333,-11.27210848218845,-8.195390370435977,-4.253107387331577,-7.343067175888091,-4.617102975136156,-15.034314532465734,-14.522166581891833,-18.735483463617044
-19.63641106757756,-1.3721256142353662,-14.25201130399413,-16.342765456321573,-10.189444993426926,-3.3280438451169827,-6.9406073261161065,-8.56086545789423,0.2666849447064644,-4.087846483800245,-1.542905603450294,-13.948203442701557,-17.574714946241198,-16.66463081211593
-14.435283393845738,-11.223714719170346,-10.287781938436162,-12.313246189498392,-6.876589896528126,-0.8253903097328923,-2.8107954643975805,-8.628910036482383,4.1672665252799534,-1.4518879553778683,1.5797418491147472,-11.792206768243837,-17.3424738080398,-13.884344787402126
-9.61926202640555,-14.583448573279153,-6.984709150504984,-8.955391707079485,-3.292155857229841,0.0761892819199927,-1.1199706296100729,-8.684077440589338,5.062285898059933,-0.9257181733623892,3.716895796193898,-9.194839752367182,-14.982277276114532,-12.10649092778124
-7.421031313822757,-9.809939351841653,-5.506983307186628,-7.488688617925487,-3.6981924078785418,-1.5082423990194678,-1.6950473814831837,-8.711143504542331,2.0034961272542966,-2.176682969257568,2.0475942882340696,-9.825630689256432,-13.133928209853453,-11.715199793803915
-7.5308827809497,-8.4617501471388,-5.517805198446821,-7.512363843248154,-4.356400955369594,-2.126784102980051,-2.818421409806046,-8.639468263650187,-0.2806921870453537,-3.858663352336349,0.9638091265257658,-9.607183886673596,-13.527409947860068,-11.920136418933708
-8.172855117415342,-7.9513815623184385,-5.802705023829274,-7.815930361960661,-3.984936428635989,-2.393721114246137,-3.143452150162401,-8.468563291621187,-1.2015775245860385,-4.940022434391006,0.8211175189131749,-8.413697530216748,-15.56184034746995,-11.811346216319066
-8.075853834193877,-8.391687150492235,-5.517439157085761,-7.628253451837532,-3.9607736868280585,-2.6254625143528707,-2.7616775862555496,-8.23370137544978,-1.327903869490841,-5.391238087514872,0.4109827416617736,-8.393682033459703,-17.26620542842164,-11.210729602987524
-7.385665393916078,-11.48794117209392,-4.811474240234547,-7.130259887586499,-3.2055190404657288,-2.276560097897023,-2.640286823202164,-7.980752225953184,-0.4668010523148436,-5.873803479270876,0.7397965734626705,-8.113518254587657,-17.532104706742427,-10.609374154848414
-6.936409795782456,-13.104379412071614,-4.333697343691744,-6.901401008383267,-2.4019447231987354,-2.4181249896503427,-3.3084760483057014,-7.799553037328797,-0.850632393338222,-6.936641288226939,0.4540933369501087,-7.84484071931527,-17.22320004714483,-10.44718864191991
-7.066679914252987,-13.700532427092128,-4.350397904983392,-7.084355027348439,-2.210085751083654,-2.966405576700036,-4.24400457565112,-7.790560314051653,-2.243612873824222,-8.4799326087292,-1.047444690835881,-8.640892298532213,-18.05196825270913,-10.591466829536635
-7.415920054319967,-12.384947800847351,-4.529484420511581,-7.246759288331026,-2.498586045680685,-2.560766274603647,-4.492727911301545,-7.903292280126806,-2.2839243107797818,-9.879216697379247,-1.4417213387581354,-8.380877609058304,-20.491619120167293,-10.561753735985256
-7.747972659447228,-8.245339632229287,-4.544033887975742,-7.021669878285234,-3.0168365520966054,-1.2889967179236803,-3.735757894980351,-7.8070910494423345,-0.856419690751643,-10.523927908576312,-0.1646692178575385,-6.510964072798508,-22.893079213322014,-10.188433958536809
-8.54153543435173,-4.50683476471762,-4.597061931418098,-6.635500374907354,-3.3435697225919307,0.021683937487016,-2.5967463180265344,-6.992568500618441,0.699197582058283,-10.201875210740946,0.9057505735003532,-4.526634651609879,-22.63407422961612,-9.858627762532985
-10.416132191080258,-0.7519697263214381,-5.078117614414635,-6.565444803941544,-4.280843812982151,1.621890684467482,-1.86366424628876,-5.082781675996358,2.3502940179795804,-8.982282654829447,2.143025553905687,-1.7442877252768108,-18.171242801871017,-9.952858172423294
-13.008900074328317,-1.6683734920821,-5.735609330208028,-6.721357669035653,-5.130998112314137,1.797174502259404,-1.5208827303664094,-2.121106750967975,2.1972615192461653,-6.846650686030866,1.4241984567674175,-0.0544982471161649,-10.23679629444439,-10.082192606829024
-14.796096257477224,-8.363899659783485,-5.53895537730924,-6.290075354347451,-4.4157338129432455,0.277730534219418,-0.7484147857496204,1.3615822532270254,0.1810618835132609,-3.6755556245224295,-1.9120678475793391,0.308683942930375,-1.4541957901159197,-9.161181510721663
-14.38732144498421,-11.715634092567347,-3.700658704692499,-4.681301900824582,-3.680974989259198,-0.986479620659702,1.0076075756493663,4.519797830561513,-0.0529697426044242,0.1985070848342385,-3.635173453973337,1.211067368927628,5.065076458347061,-6.519393042625328
-12.027734325567817,-12.713167350078669,-0.827285025813369,-2.570537788246358,-3.0439486315364324,-2.4184004124700365,3.080666824572272,6.522230005129578,0.3560048202636678,3.5038589675592053,-5.127376768517918,0.954739184295138,7.218167498171847,-2.945166294391731
-9.523447172682625,-11.068058077284473,1.3084966168388874,-1.6104684225406274,-1.1591763305105818,-2.827909359166046,3.985216515517944,6.9507113942679375,0.8880080283380454,4.5228402201503215,-4.561892126321983,2.2934857355388782,4.949783435403365,-0.298688090861317
-8.400318930146671,-4.804848755293021,1.492623281639606,-2.7391052492514447,0.466704931121139,-1.7987122723952131,2.9884945474039206,6.110825454495661,1.5205380260040249,2.545386647062111,-0.9774722226601824,5.731559381977196,0.4795723335215935,0.2462051474011701
-8.12197127221909,-1.2191401910504396,0.5961443486798839,-4.749041459075015,1.6903427583762634,-0.9350905543351268,1.1969768882447127,5.007595026206524,-0.4653817380925535,-0.9954551843711332,0.3668068206196592,7.802447081570779,-2.6312159748609645,-0.3683808138394475
-6.387698826901961,0.1002435992967479,1.0999955624436009,-4.835329038522179,4.498739733993809,0.1499051040399173,0.7799047179743877,4.839637855352242,-2.8139417600006658,-3.1063726578036253,3.184261535326934,11.691082177647797,-1.495054628169035,0.3491890631002032
-1.4545849327674425,3.8702711518940536,4.77186565223275,-0.951076426938096,5.847725985914378,1.330352618529548,2.8567181418945324,6.234551477250251,-3.0498640550597917,-1.407190907168303,5.534662543895895,14.47763888893166,4.106904518061384,4.143757295323376
5.769386498698195,8.853711796943347,10.695377508122265,6.134575999897215,4.275704112870898,2.382751519017648,6.158644122593288,8.788645502641488,-1.455626068292834,3.9454814779016742,4.2830542246408445,12.822503524924215,11.40849087807078,10.130061667833996
11.994851411145005,13.32301493891021,15.66927104004925,13.049759911560058,3.089544068171277,3.215371954347354,7.964295754245087,11.305789714654406,1.9503772977912703,10.362989999317604,5.346000227915073,12.04327319372501,16.598938393363255,15.177513010215064
14.030840148160998,17.737862155702008,16.718107580978376,16.210355680250085,0.4396417859987364,3.6737512603291687,6.512214749050626,12.585908628980262,5.018266321463617,14.8841109284843,4.063953288963011,9.999937039185532,17.59695439138838,16.274192316421324
11.1827434675056,15.437999931726749,13.401688227818696,14.351026166263882,-1.571359232148476,3.320981129434378,2.5470852208108705,12.1576386793025,4.8327222861192425,16.289981503099618,0.3786330868192463,6.058167882831694,15.268046895211036,12.762287630663554
5.495796581269242,5.458152629674935,7.899316023635449,9.189946183334008,0.4180794856064411,1.9879619258947037,-1.4374292018190251,10.43915661250452,1.802126325315005,15.470137456396571,-0.7510326636719145,4.610983039943574,12.064366314506543,6.645282889054895
-0.0469515966471724,-3.973996245773396,3.043247308591998,3.9398207778636647,2.108978512055021,1.0070438310742502,-3.352668858969009,8.307762903644326,-1.114992543471729,14.027239806905987,-3.040708967951704,2.243927102838863,9.557298906908397,1.0215227396531774
-3.50641210604857,-14.410711344280552,0.2495541581748581,1.027858649733771,4.1323001020794,0.2891635863184211,-2.932404389559392,6.466494571867528,-2.880493301607541,12.672330385469426,-3.798774045409237,-2.3231191301781284,7.351656915917848,-1.9021271910601616
-4.60294427558887,-17.245452129010573,-0.9907890581567074,0.6799729892368132,5.6924701478524335,0.1881780534219496,-1.3526526609824805,5.02818027405478,-2.4062295738715385,10.85140593879762,-1.5693346157905106,-4.162696996720688,4.292238759499217,-1.9036007041361271
-4.084554541798326,-10.212242727615942,-2.087214495799043,1.141272418690069,3.856019594223602,1.0559738476776237,0.0672517158028558,3.5247304383299487,-0.4093655268267549,7.673062705312225,-0.8698937681103239,-4.68399636225096,0.3877572807280867,-0.6035671833155207
-2.967788167057119,-2.655914346975768,-4.033649176755603,0.1848407238616638,2.148055550216372,1.5694307785409285,0.6258055095911756,1.3417408737164047,-0.901014687964342,3.104950541656132,-1.849319771350172,-6.071565244078872,-2.772806488054967,-0.406769876576921
-2.2564368299646005,8.098773043532107,-6.816496920173742,-3.1183660420596944,0.2005574039086047,1.8882939030006785,0.1299372349011052,-1.6194553818675588,-3.67178128284684,-1.6001103618526695,-4.228141645174708,-4.715846972254248,-3.56665748952833,-2.987531715308941
-2.7911746879336867,12.553747108031372,-9.610773586709875,-7.565530200610871,-1.4132874373388118,2.2710078029928646,-1.3401430136533183,-4.512982672065192,-5.594987706709944,-4.570227406796766,-5.96607224781653,-3.424676988360833,-2.102645018529135,-8.012267759814396
-4.772728847752783,8.73794455672299,-11.287040564445922,-10.590220766936898,-0.1497744543134128,2.480022525351666,-3.255664177388936,-5.839802250549777,-4.511288499561202,-4.573646283525584,-3.515642047424493,-3.881508361387076,-0.248598809282579,-13.024430770821644
-7.26097884644097,2.8233562080206966,-10.92473229517578,-10.1838966051839,0.9718377293272222,3.049899033609562,-4.511503113160428,-4.47007024585429,0.059284972901325,-1.9486330038766568,1.1583305658072032,-1.9606392101569017,0.1537931827188989,-14.9486946969764
-8.436763761723052,-8.222272369524202,-8.282670076729387,-6.524726241160818,2.230781668509372,3.9800807520909873,-4.042631968600466,-0.7327429799150162,6.659833580112267,1.499164860644301,6.644235362137371,0.1501407180825353,-0.9690465165382012,-12.357551119227868
-6.799485246757424,-11.817137119863622,-4.07999164251326,-1.910303285346889,3.944391196482455,3.954866623833881,-1.862146575217249,3.401929847690651,9.532680122566834,3.6421064408054775,8.664403109156913,0.2727309433448231,-1.990012740943433,-6.680248691012963
-2.39908780412026,-6.753541489374305,0.203060891141801,1.0410877520284458,3.779461615367232,2.9776550376132467,0.6429871847488968,5.422980640905563,5.842889548488089,3.383374472037188,4.570861533164152,0.6801942026234078,-1.334842018645178,-1.194921321293705
3.0194942624458374,1.0062648984440796,3.0700968478651864,1.3780149453336286,3.705116218196544,1.8774316329058671,1.728214291814652,3.941717068308522,0.363705036318995,1.1444876516810325,0.6141157342452787,0.6624824267481033,0.8731857731889878,1.3847215227384757
7.189740190825509,14.930042312790016,3.873869800113949,0.2853447961492072,4.377486840210192,0.3720738274778765,0.7790341930493163,-0.3753829918026277,-5.124401427206815,-1.8091085327822576,-3.003761055802922,-0.948120253571135,2.8800424044617863,0.6891519295208912
8.872910610053466,19.3428334092818,3.139209213417791,-0.2347688814216528,4.223097232894067,-0.3138086501643867,-1.1871954375904572,-5.336496295253365,-6.881646667444374,-4.429985005112549,-4.654453717337958,-1.0072039327319149,2.946009213090532,-1.5012316037048985
8.532315651524339,12.990708953807053,2.080476687665401,0.8794129656667211,4.414503222714948,0.0178132622832733,-2.472977157745051,-8.739356572611825,-3.170881034118146,-6.338879311444909,-2.647679526461416,-0.2174074598008161,0.982865870132226,-2.925433306979693
7.663784162096503,7.387071717888084,1.6913167321111455,3.1047539454689,4.961691536910071,-0.1206765282058531,-2.1215507933326467,-9.663486012826429,-0.243021364005487,-7.489565708827961,-1.9889936063908096,-0.899759372196933,-1.3754492162484588,-2.3969204919377205
7.474094494513455,-1.2391425900632134,2.134322947616805,5.125354738632312,4.512901302749727,-0.4386443659505856,-0.4864634288619562,-8.663251403833991,1.4667008631422451,-7.762230146675098,-1.3769651527325948,-0.3897070701161473,-2.2670685181233488,-0.191571248797441
8.059600681521891,-4.3479158775313,2.8569256012095448,6.051497433285542,4.128826777911793,-0.3804064227814224,1.3453501743276632,-6.966123176953602,2.3529386753087147,-7.0669219120487305,0.4178400314235561,1.1035482484820116,-1.1808178940524885,2.552582500620396
8.70178903054877,-0.0364343752127111,3.2430032382559237,5.954653430622852,3.8082914944865447,-0.1315245826914323,2.514156651467445,-5.487094439551802,1.3922713065430057,-5.663130776896139,1.714035233996857,2.2242444070924927,0.8605170537385938,4.72607727833757
8.854232270454553,1.1846538439322465,3.1919512030542947,5.508284265038739,2.585000901451639,0.3559407774138254,2.89444370032826,-4.390162719524103,1.545285923769688,-4.051327066317217,3.307100192601528,4.617482086143047,2.567570839798502,5.953471533289147
8.777376647552241,1.542726018534803,3.123406642290302,5.3125216378516935,1.5098862937010715,1.150461413592861,2.968152791094244,-3.3282790407083738,2.768186642718498,-2.463122471262352,5.151697136300691,7.88666565230246,3.706340410950009,6.836357220669473
9.152289997904235,2.657750678573452,3.439850497499122,5.493213525612113,0.5939447085341022,1.2992880234511328,3.364710219638795,-1.9790674753087671,2.640285219538696,-0.6978710764701503,4.6955239598091625,7.92370432186981,5.067715028986601,8.431328184536675
10.070832844744162,3.103638477021037,3.989708370983582,5.721567951115709,-0.8613657329044705,0.7483268926239295,4.36538827971847,-0.4162577865265042,1.4259967035004446,1.3018101542730278,2.139373704170111,5.150938304586544,7.142819739140833,11.031669936695948
10.541782745537503,2.940246638657785,4.109032460482663,5.518383918624373,-1.9990739397363808,0.7261288152302731,5.592826378615449,0.8981934911984197,0.0175871553925411,2.825713550171514,-0.0877623568789632,2.5882038174403226,9.030120138699171,13.229415384723984
9.222488936770556,1.917632724194113,3.267690679960694,4.670748516023735,-3.190577928996494,1.063978132661187,6.177320523466932,1.4206658919774746,-3.0364260076059573,2.718100013788451,-4.9941747464597706,-2.9273425449308323,8.927566744510969,12.556914575838752
5.830534321066754,1.359646317599373,1.7237159841965557,3.5450889962034324,-3.893992842224416,1.1219063265464009,5.486103727172292,0.925162518111879,-5.24818322965513,0.6019971058942559,-8.681954760931493,-6.1811329245158095,5.997742010723268,7.763713920355375
1.8293262925597096,1.2112066042725755,0.476694867269412,2.987548969845971,-2.3668861504333947,1.0802258156252489,3.878581660796996,-0.2560760244000768,-4.355238808476551,-2.3122182523295827,-6.6839777717437245,-3.173399788538452,1.7829646417200031,0.7860370977908104
-0.4664917727327626,4.080254063961817,0.4434265688845045,3.68997931002022,-0.1375889953199788,0.8741155137952488,2.5839773431474704,-1.3455943994269823,-2.8329980222126974,-3.9569967028763458,-3.454056386406976,-1.6433066224377804,-0.4797914913998511,-3.924328062251885
0.2908940748088859,10.563967600619918,1.5766509902899024,5.430326096733765,2.603218982475183,0.4123186278166675,2.487815081789819,-1.600894982981643,0.9738071208137322,-3.1895923885966866,3.783986415425889,1.568747715021342,1.60579878329073,-2.7869496856834424
3.388961087864068,11.30486892927811,2.81708499279506,6.951475683725619,4.687129104710221,-0.0122476048152076,2.9404933042138985,-0.8929889176964991,4.619444479908997,-0.8884195437210884,9.755145440825542,5.396372659868316,7.265095347938988,3.6852354457433982
6.663871948358185,6.409977325885986,3.012777594970565,6.82908935561872,3.9453581946999865,-0.4313827235129439,2.06176158660956,0.0842423136620666,3.9475097268107366,0.8045562872769949,7.16078277200224,2.7379729458389748,12.56022349973551,11.027981138103517
8.180822110439388,2.445282997774695,1.961638962427127,4.702957540920167,2.599656706135455,-1.8939135400934068,-1.374074528737694,0.2838004081939296,1.6686490685127,0.3976186963416062,2.321838320895373,0.7639008910420337,13.046156944846302,14.459062461710138
7.447509633614857,-2.4518358105774807,0.584037731162109,1.7499973727638969,1.079171624716036,-4.4478992541238025,-6.25255054266745,-0.7788845316222712,-1.7366015429840187,-1.6681223114010777,-4.12311063200086,0.0775529078109094,7.14801155199903,12.69258028788222
5.272344951469712,-1.5849027245999363,0.0504453549442125,-0.1576747199632606,-0.0104694160241852,-5.10616710236507,-9.581576537143476,-2.4153522561802703,-4.1078668485686665,-3.4852228848315754,-7.858079019872682,-2.117950016724216,-2.4103931489625694,8.416882333989012
2.8098498715457367,6.521274963446889,0.7251098278756345,0.0854441418968789,0.2082882855591943,-3.8845583396572967,-8.959842185765527,-3.1004446638721497,-2.363236522290338,-3.3343033414569483,-3.9870642114408295,0.1685376748670433,-10.303534988735809,5.298610015272329
0.9184163184391494,10.571529405312004,1.9430765252145257,2.051480543224095,0.3074241263803398,-1.579517087330497,-4.718768216856628,-1.6372617007868089,0.9101595418553684,-1.0169749694503487,0.3509960773319618,3.938558459138818,-12.215929060489328,4.723508206319634
0.221676844497658,12.03884070559459,2.7727705824653377,4.355629609001408,0.4277461548458097,2.554337223073265,0.4066271665095549,1.7722202504199132,3.7064456899933313,2.138704977148013,3.085862847527328,5.651232238016582,-7.697748119137955,5.353612978792455
1.2549493880663043,11.683823273456662,2.938464416741809,5.9235308415441885,0.0196264741634155,3.691910026407318,3.717888673384081,5.5045656483634815,4.242793573092637,4.377979192303263,3.4266944904913923,7.307069130039939,-0.229940773779095,5.353901327351878
4.07041791403509,7.321762487330378,2.9742396832489355,6.684723702460481,-0.3979269683302339,1.537343496776128,4.628798800143411,7.621836927864333,1.362642976229083,4.712358751884988,0.1442871297178112,5.880211870367306,5.367597878101126,4.453616003080395
7.598216015377918,5.531800498153997,3.533412200821946,7.1178864051261,-0.2197121600822123,-0.2280045301257023,4.425192024331876,7.212309615532815,-1.7162226299831786,3.3606181769111334,-1.2007535383536931,2.0172359849107195,6.130531975640597,3.684888342008428
9.731857667011424,6.026412040585488,4.621985457104675,7.303289187692618,-0.698165025238336,-2.7142313689287705,4.319722142194639,4.889006068958215,-3.6699840995949913,1.2877910017484666,-0.1354271308980546,-1.1472699993174589,2.464281984013704,3.507985345919342
8.537758932913952,4.002750624323745,5.5079913398993625,6.591560795270691,-1.329109870386215,-3.8899126769800767,4.075926193755656,2.155183884321808,-3.5275686500452,-0.6465116620805809,0.8043214222492554,-3.575162972662156,-2.8008144193527285,2.771157965818656
3.7730063802457394,0.548968272205573,5.323498937659534,4.279119185299523,-2.688391305757894,-3.1591979066148963,2.5735197293087566,0.2869923514574761,-0.8541050748365381,-2.230361215580519,1.4114733562411792,-4.744223994206096,-6.747452179164967,-0.1826751369820645
-2.6742947253363223,-4.150850617923077,3.723710815325118,0.5529422429494772,-5.087828638440764,-3.936062819413746,-0.5898565209266888,-0.3667077184264229,0.9415842710095922,-3.7415982896011215,-0.0983687300373834,-5.05661515866967,-8.267831123295949,-5.493744656041172
-7.96365108577884,-10.818704401684998,1.0577884871494492,-3.319732664313769,-7.317692838244371,-5.7128515725179385,-4.361723590452396,-0.2878344694072132,1.8825430080870624,-5.318367449216916,-3.013716497835706,-5.647932573070656,-8.343581727055957,-11.082972905366637
-10.191890957643189,-12.70978096204296,-1.9277496163639356,-5.811598444131191,-8.252886254993228,-5.584603868533736,-7.058980791507707,-0.186105564050254,1.6390625756997848,-6.54722754093518,-4.074834288324275,-6.962813544170944,-8.809923128645556,-14.077382048427118
-9.484479759674969,-9.439872123653796,-4.468166746297335,-6.231671677077635,-7.137355403833696,-3.8937897681408766,-7.656302610232949,-0.4269918648394055,0.1367464816211517,-6.766162927081012,-2.191195433588272,-7.943915170031616,-10.665010400936335,-13.024277693896492
-7.557157155931963,-6.279678104863831,-6.007485785476483,-5.172980631715044,-5.474467167041626,-1.1930806351361718,-6.174609111448584,-0.8437033243753191,-0.7178850990938278,-5.841239333551359,-0.0725271073896527,-8.694688636444837,-13.15914733104198,-8.922023601664074
-6.336301040454062,-1.692297508609973,-6.353735619034069,-4.061807901206437,-2.9082846891254923,3.1041918052470265,-3.1437733299643167,-0.9809780434135148,-1.528215747432951,-4.574226489841603,2.331233576876906,-9.665315073043562,-14.329939749214208,-4.355536226660959
-6.8075709833257765,-0.6336426288908156,-5.840786312112137,-4.286403868926206,-1.1612220460126252,4.754803118739935,0.7863638969464173,-0.5662528770542128,-0.7084446213771234,-4.141665780896307,4.473698191435075,-7.885203815162048,-12.62373125858398,-1.6722812822897826
-8.722786129570517,-4.199286071062832,-5.291205818713234,-6.466245889605425,-2.9021241361772896,3.4856800775928853,4.539906392618287,0.172664555331119,1.5372076042162146,-4.92169142314035,3.918660637917621,-4.325716560213257,-8.32077122144894,-1.6285498021592932
-10.917914554873857,-7.256082840660208,-5.511145537558974,-10.049009249669108,-4.084016343605398,2.7601760366477333,6.404626275330109,0.6905836402194865,2.240678186369648,-5.793684528696666,2.7336098139489207,-0.2113183230812476,-3.441280083234105,-3.203631055110563
-11.76727412479135,-11.221114490916111,-6.492992762003784,-13.275640589455785,-5.411220941597659,1.6147997506996448,4.917965593121963,0.7410619823641014,2.907418632556474,-4.705283177548186,0.9339559084287808,6.950627654020032,-0.018876121397902,-4.3564611053205695
-9.742141054591832,-12.702490604755504,-7.0507234758903365,-13.76862575957075,-7.735511966249482,0.156687901913211,0.4069960040370759,0.8088221552520984,1.8377771201890576,-0.2079687164767847,-2.102805340661741,9.987258559057024,1.74374629368344,-3.1789654444647795
-4.295083878026773,-10.768627923671502,-5.531957305725793,-9.936742691725875,-5.770245879287555,-1.1929179645770038,-4.596928340409029,1.7134305780953838,-1.5927074701966184,7.207420368317962,-4.148081222228907,8.572665697043933,3.5259914105985715,0.9747435609923868
3.2238337388422167,-6.9685837221087095,-1.338638100767426,-2.5937871300417967,-3.56387984135858,-3.4906630269685786,-7.121456150569159,3.5458061810813604,-0.8302499644363076,15.016846525790996,-1.9904812316103215,8.21366223530767,6.859773228322105,6.7893771797329165
9.59619680344334,-0.0434541516332897,3.998840887935856,4.654198319536036,-3.182912994661992,-6.619305026515261,-6.372594893041814,5.033269948051604,0.3861327164512469,19.922590823422112,1.563650094850027,3.5476154903396098,11.000250110956046,11.267574968537538
11.359619016741403,2.604066242516736,7.400742541219941,7.276046913732898,-0.2839089615263073,-7.126197868421111,-4.523011746555277,4.311612523058571,0.1690486329597599,19.64379170356421,3.2547788978860086,0.47481440561296,13.099268232942698,11.2687467485743
7.232359052785284,0.5379791333072682,6.36686470850929,3.0683844678379018,-0.5814254572878503,-4.866349031881128,-4.559596476039765,0.703360501130291,0.7471035906739483,14.181006222288149,2.8664989667744107,-0.0185095592079974,10.860548591230106,5.666192567237147
-0.6650356342646262,-4.057455014626826,1.03416202592539,-5.77556218081984,-3.127810644148997,-3.0498615223376238,-7.146375387030915,-4.18668736886837,-3.061266557852143,5.85531421715249,-2.067523424977878,-4.882194689616448,5.096840371391622,-3.414880335472077
-8.12549046143306,-13.226360268281416,-5.648138903156827,-13.842584305081786,-2.061356923252523,-0.9497887164959063,-9.715890377303076,-7.383488864886743,-6.295710031521776,-1.889953565789817,-6.690142863204335,-7.9073406315244466,-0.5802416957575716,-11.557731085195122
-11.801166804895416,-15.201695682920665,-9.927792318409502,-16.28010144908677,-2.099250016646657,0.9352905262833824,-8.84287419557888,-6.874340917973392,-4.736312214569645,-6.264558177648439,-6.101951631421795,-9.000682459950607,-2.847333129998688,-14.854005577961466
-11.267177663752882,-9.344950253306871,-9.842282739893456,-12.12503490312686,-0.2052679915246162,2.0741383613436204,-3.56641788592335,-3.2492785113324203,-1.3306730827514994,-6.460319858778263,-1.6560144917200654,-8.967763343861856,-1.4905744158052414,-12.473781131228122
-8.531145554563956,-2.9227691308106283,-6.301897582264353,-4.485781211753483,5.7354842111957245,4.895578892588544,3.63690677722856,0.8927183323340273,3.330375988655844,-3.741212703075704,3.2348503616631428,-4.962669289772959,0.8534407931723891,-6.90917935418161
-5.826260522318627,6.89044050758814,-1.9661735676325665,2.249268143385322,9.19345340180906,9.24010299223002,9.047352440431638,3.151111341138396,6.216901617624272,-0.3247814784906211,5.64968929408579,-0.4279132539569611,1.6020077373167825,-1.7568065064697649
-3.975568739464464,10.298201346431966,0.8928867045403024,5.512408422746688,10.850323821695396,10.36767335556566,10.717364404585616,3.0433518664146817,4.852678697006357,2.079399608415585,4.55655369973871,2.143053833263372,0.6509949259452128,0.9636754453132284
-2.6301339602454803,5.893042920429798,1.6946166213999732,5.509920494731496,10.660554779539778,8.356837597917616,9.466291583092968,1.801351290166096,1.224402532797206,3.0106588769390896,0.9972494615917048,3.347691180985312,-0.0907494493144867,1.644360305124863
-1.4260103527107049,3.3059572176493117,1.275471708959941,3.966283079142684,7.213332526525166,5.899281157860616,7.407309970890623,0.8287226220962367,-1.3240868980522165,2.9684409423674154,-1.1224155687966595,4.291708139842,0.8459052130594387,1.7561000776135811
-0.3792622859365337,0.1053088988976245,0.7585596418662988,2.4315273155786628,3.5007332244943283,1.978827613593166,5.959883767994192,0.5290344632972506,-2.759475577405415,2.663219518039554,-2.012266942325856,5.164259957097638,2.979252625043813,2.1145304026005505
0.6942396088061571,-2.1600673433887594,0.7078559625873879,1.5643948573966782,2.028486001350695,0.5069258910022234,5.220147947423399,0.4387146680165017,-2.573072128733425,2.5395315788706228,-2.5151024139347293,6.089535581487605,4.832404127940848,2.537576448703092
2.394796674714698,-2.07857246742206,1.0195388503648246,1.274543905366471,1.976016786208396,2.0658930135991604,4.636419238801366,0.0762030519765488,-0.9804187069578584,2.7324044869232864,-2.1324321287208345,7.219663601919285,5.882134361840357,2.794830974350674
4.782767907515634,-3.4957130033807937,1.2561536175292929,0.9612511826599928,2.178675181046321,1.6701007481406431,3.7205602016992154,-0.5863864514180648,-0.5587513214119397,3.132739383619878,-1.29931017563212,7.556413319751765,6.99805397015092,3.2470799592777557
6.402277975620649,-5.679273841013191,1.0650841296043725,-0.2481800378060654,3.1483750618134883,0.1898236989684626,2.1829119344673984,-1.2955042178107448,-0.1587787795183995,3.401670411939989,0.2894538095442088,7.099790523560622,8.893502129326706,4.216606792306081
5.063301121555426,-5.576555131676482,0.5658032994821127,-2.8227829699867613,3.323554698706493,-0.4753978956695697,0.0249441174121898,-1.7285601016440353,0.4260845209818241,3.167064340763517,1.5112333969317229,7.689210525167469,10.624221693954922,5.010494501789054
0.2023913085093625,-3.470367799946232,0.5228714018560794,-5.932488575262795,3.339561468700406,-1.0065511328227692,-1.999821686344319,-1.3548697536005534,0.4811193581930836,2.49369571980084,1.5437134435898,8.355750825411176,10.14023773524417,4.182954684634495
-5.701196418349667,-2.893307157393325,1.9248010904867527,-7.463167103763425,4.357898141468459,1.2053706756927896,-2.2463503812301084,0.599883413712007,1.462043246832654,2.1170414678761347,1.02236293175107,8.197226314047887,6.404977148042491,1.10907877418083
-8.754214823855335,-3.479601880030356,4.9613179141908645,-5.583505508124638,5.091324836144844,6.613828049983946,0.7338908744094965,4.49125374355512,2.768451878978591,2.8456272357688164,1.3737149558827952,9.10560064225011,0.6752742443389863,-2.908121855072736
-7.187337312547712,-2.449158200690992,8.25709140036436,-0.707343590489458,5.215993994680668,7.870073252416013,6.375407065730229,9.256120165052394,2.856346839813478,4.449973169708969,2.543848010867714,7.871332304690771,-4.538744077705864,-5.536519001631035
-3.193320554273626,-0.3119395221762088,9.460461646951812,4.277776754095697,3.478197667853914,5.177427417958208,11.462647477899786,12.315413468335215,1.663746994517592,5.31016319799275,3.043585023715893,3.800408493535026,-7.665868247641242,-5.59450549205588
-0.8727175837824177,4.425338500665074,7.133103904761647,6.220509704718303,0.5684303726418976,0.2612673307644623,11.969036474856397,11.09230650255934,-0.4573019426357169,3.663437102407841,1.2296343302184511,0.4149957462709494,-9.010369269295468,-4.1525446132125765
-2.172423279924189,12.422829265307596,2.3114133739563627,4.454061963018184,-2.4854636860337904,-8.627045374316863,6.242105776031323,5.185219006733576,-3.629226581306905,-0.4467684334063477,-3.954418070111963,-5.360060328808586,-9.581658179869985,-3.2669059259221456
-4.964287608031228,14.077758559432349,-1.9911986339883043,1.327510761196436,-4.903004301016611,-11.980743415002255,-3.2858631287543147,-2.8074897818929685,-4.926366578470678,-4.583183051020932,-7.614216290268421,-9.375749311176834,-9.418992007948638,-3.710263772293388
-5.234401580421356,9.173965290250877,-3.182764011469658,-0.1215892296491816,-4.857360338461767,-9.324860027887569,-11.622628027445764,-8.88392643271709,-2.822194334303792,-5.712304728083701,-5.823074634676391,-7.55810244535666,-7.504397803249651,-4.210149891436842
-1.0827428651634392,4.052859005796543,-1.2305032755660434,0.93962405541442,-4.089500261075134,-6.765034278955549,-14.832688850208363,-10.512286033064171,-0.1498073392196461,-2.9626788049821826,-0.7208696113997314,-6.419415362295776,-3.367434052783011,-3.023602966280894
5.504482572094162,-3.42158531942823,1.5038684792942902,2.5661890372514264,-3.445425151855695,-2.070390490405981,-12.684556733556349,-8.359565960985137,3.3715605248296288,1.3205738687773767,6.656690950875451,-3.5932726391441294,1.5460263848613032,-0.0526603426712668
10.570874601077756,-5.713840766182489,2.485802879721195,2.218931278995335,-2.9915446929972243,-0.5744025450808725,-8.230837898176233,-5.4298323135947655,5.041561267763385,3.393640311534277,9.999090641991076,-1.4977272294107116,4.465165441753761,2.805307394739604
11.489760788829294,-1.4961948868797097,1.02446017681428,-0.6650154843258989,-4.017597792194628,-3.245931628605447,-4.996776205099398,-4.486080506453742,2.878871450850086,1.1830968727057891,5.7814941619782765,-5.660548173820393,3.4404936184554646,3.3648298580774654
8.403856698928475,0.75314313672218,-1.743048441686156,-4.295808815976232,-5.19146775509974,-3.886560581502589,-4.368261798955853,-6.04975240088968,0.7184296188227597,-4.203542008545028,0.2332935940209167,-9.314592259658516,-1.010829639475098,1.028498898913596
3.0948477420353404,2.9359689423403017,-4.441006418128375,-6.44327016426826,-5.922550106275075,-3.805525243985397,-5.177027756604142,-8.516417563761014,-1.704007998706406,-9.709190235070366,-5.082953929610498,-13.182224139641974,-6.291311047716177,-2.939007636329506
-2.74815685170351,3.3178395283571995,-6.674768172964604,-6.4269185778087055,-6.2786022250572575,-3.4301960366584114,-5.35102184486461,-9.898520139630728,-3.0857525645801185,-12.871418427240982,-6.961399359908569,-16.563418060797567,-9.702088449347787,-6.638583105536705
-8.003277896958906,0.4858239731552856,-8.740652108806655,-5.236922412137938,-5.48954143817808,-1.855715538680752,-3.867315969869331,-9.425039753162675,-1.8933021655371711,-13.318276076729878,-3.5923597907088016,-14.844518508982688,-10.215424579213009,-8.827909926060377
-11.606373796587384,-0.9201553389116742,-10.594577270941112,-4.050669322071293,-4.240615041926248,-1.3366677280202128,-1.3887679340646493,-7.739940164563517,-1.3273988329213593,-12.247052638011002,-1.1953641784796036,-12.85360886624559,-8.723329133379504,-9.264282564296614
-12.535297082124336,-1.6277822371038695,-11.538302704447696,-3.0014324716020298,-2.860951259999739,-1.7692532570531068,0.6331937527434874,-5.931830488686696,-0.9929162671273452,-10.9068191173693,-0.0927165270740481,-10.680787156963955,-6.907033620796234,-8.335388858421688
-10.662109410437814,-1.3738892998179126,-10.959586106185943,-1.4350931444052293,-1.7561429025849464,-2.1012543923431517,1.3166419203838196,-4.546884917282583,-0.1682972029176577,-9.674455685228892,0.625654565789846,-7.979606205473784,-5.862731968320432,-6.675671513370041
-7.2132732159164945,0.6911853000166491,-9.089120221235577,0.9796535927309692,-1.2997360001461922,-2.75648270648488,0.952164640912926,-3.4041140566269874,0.072901908006285,-8.274216288973058,-0.1145627019189189,-7.299828717861004,-5.518845709175025,-4.911885378793876
-3.814322847480959,2.2136901455171403,-6.806960502616278,3.7700777206028704,-0.924608093899397,-3.269604254752223,0.4912916294968639,-2.0846425287170973,1.0020103428166964,-6.482183242616472,0.7183868467351674,-6.253228322690193,-5.0808096800179925,-3.329096176133085
-0.9784720980389636,3.476347159873546,-4.785760472535166,6.304874911942413,-0.6344529082100899,-3.534265648756973,0.558501691188404,-0.4409690613425283,2.6884010133930576,-4.464766034851436,3.113720043544629,-4.323376616627035,-3.979837073405456,-1.6415073888712826
2.0957220404825563,3.502605832881981,-3.0279370816135867,8.597611721412214,0.7274508344250583,-2.965519694388555,0.948278152260272,1.3110216013221248,2.63782103677407,-2.572295795079029,3.368732627654233,-2.385859242262029,-2.495015358126011,0.6299569290445746
5.960342209624429,1.7314970898531663,-1.2553608883162894,11.128009550125242,3.0661220576983443,-1.3313597066144969,1.0219240309553896,2.8447796203825533,0.8810508067880629,-0.9999509952662322,1.6022008514146442,-0.4275301203665465,-1.491028516264322,3.2721296938696014
9.395354219349173,0.8372454065364658,0.482705330075845,13.819824332887876,5.363315044247383,0.086544865771895,0.5394637010336254,3.999415079948349,-0.9365601359827151,0.2949266751775781,-0.5198941423373721,1.7600933690675602,-1.46335684451887,4.993704204520881
10.019506670269152,0.5140264175926059,1.8103086671743256,15.480269586689474,8.709880158959532,1.4576986199065076,0.0490656034016723,4.860281841585419,-3.8718258573135302,1.4169096267002743,-3.937878331149678,4.081123774162859,-1.8143903510835315,4.366704739639488
6.813068988815203,1.6720316042946195,2.605360367077964,14.64378066171325,10.30088228349507,3.1357367350240586,0.409634896686498,5.637409408098932,-4.855643750010903,2.3576652114800822,-4.944567620187756,6.118872949948363,-1.2449783993750856,1.472169399814689
1.9431225005685064,4.955471563464902,3.372172635700707,11.201897671603405,9.408084334867338,4.904595758984961,1.917864466130368,6.4711785953355445,-2.419912757438614,3.02393817628942,-2.2074919726667166,9.595707830591651,0.9033719363806084,-1.4895880661603371
-0.3682778699841407,7.40052720993901,4.877435502438559,7.137251772891119,9.006378988650363,7.300460779827907,3.948849975060014,7.323708321590033,-0.2285882019518545,3.4384706253545687,-0.3404040528357772,13.971411264488284,3.6808214093041727,-1.6058058784445706
2.727169788677543,9.310997844832578,7.4039980342842,5.344953068270101,6.751776748585612,10.3623691696095,5.51048787016839,8.043967889531928,2.944374415855646,3.880572859811608,1.9427230918633265,17.579340752543327,5.186211680601559,2.3968369879111435
10.084588854221607,9.613860427421251,10.397026171470856,7.341936971983031,4.428273386414827,10.549636113556582,6.140723468411977,8.530370789494668,4.237664609201945,4.720838823818866,2.706206108524894,19.371118743221103,4.516803034027305,9.04216424646765
17.22840513067348,7.569518553331797,12.804862533298376,11.83752694819313,4.227268776404899,7.660665180790517,6.166143570953636,8.764452340312005,1.8145680377243736,5.953223496776133,0.5875592604057063,17.833608444975017,3.0643583197512783,15.257191032744288
19.74332032387798,6.5006020746712085,13.716575388308511,15.48960448228496,2.472342760889339,4.798295140434166,6.040163323273418,8.609683224136688,1.259564151529233,6.810575909312206,1.3181369999912929,13.790020619972529,3.543267924227393,18.60329800283324
16.430689955677565,6.040037201399158,12.766183619314347,15.290171134909883,0.459011081833894,1.1747287147984424,5.535783924683642,7.58370510128276,1.3000312133075862,5.996338319922131,3.4512829606342112,8.267448266437823,7.309658715121202,18.51764166110803
9.725834351882298,4.675216124813363,10.182585719916148,10.641659380979462,-0.2831448615742716,-0.4008753804680923,3.813103259698664,5.007678739428201,1.6670369015939674,2.643238515611529,4.8543378834015165,5.037995916300723,12.498131793615356,15.779316738184493
3.4623218975496,2.9398480390639348,6.694041346514752,3.537850861670563,-1.755471649789233,0.7731303241644887,0.4561474153454128,0.6613807270864243,3.3978554940443813,-2.648429823569586,5.444747579403843,3.7954163431289545,15.045683487851193,11.302087456120262
0.1653452001150981,-0.5193214845235317,3.38203033739714,-3.0681671263658927,-3.067826949444093,-0.0249189115762273,-3.5753348906187057,-4.522493356295229,0.2317281799368409,-7.694539897243089,0.5315381883432069,1.9208959134194663,12.0088004090874,5.746651339076436
-0.0680887079350895,-5.978721032231892,1.338776474880774,-7.2162441643822035,-3.271346467475004,-2.1284667059063724,-6.219285043374384,-8.487727111940274,-5.370100364824969,-9.93699202736778,-7.564719933213126,1.624511701136324,4.28728729001196,0.0972987271076988
1.2053826010323403,-7.995867886025438,1.0912153717364106,-8.745720590638427,-4.045694672539489,-2.446631813394061,-5.784204162316996,-9.111318138850152,-7.546832706450636,-8.206353369793447,-11.533896060285455,0.3273950185043961,-3.736907676093949,-3.991951878200325
2.2957967519100464,-6.523571355499197,2.1541015473337097,-8.698324367518211,-5.017704515130628,-1.5743689315116645,-2.347300630777511,-5.677250679809447,-6.400136757710293,-3.5989787789344803,-9.374528894178468,-0.3142128611509824,-7.401018805593225,-5.00604213350411
2.362020591806385,-4.968273994289962,3.2127758388937195,-8.23417921655161,-5.124408035346344,1.1689017268343784,2.1886420265420554,0.3658816793887922,-0.9276633289572536,1.3448481842302726,-1.641714446038979,1.7607713891375194,-5.110836151787282,-2.9289186437552246
1.4864072415015812,-2.1385095446245344,2.9894616724225784,-8.039804033459347,-5.47708997137073,6.412292535035908,5.425523169926237,6.070931405514926,5.606779026464727,4.512717006617152,8.553652961867389,2.745417272241651,0.7900218346934764,0.3519095838003352
0.2382114339127952,-1.8198645433953091,1.1778983083720505,-8.392008064328536,-5.489850228300357,7.57862212918773,6.023892556862222,8.72404265354237,6.901128399832184,5.553962337048489,13.040457632418605,3.481591529990109,6.020670372216358,2.3046630028601958
-0.7964694667367382,-4.676600917236632,-1.3527473233180274,-9.349418874840069,-4.425409035969114,4.513389883922467,4.279163734249579,7.461643601272925,2.4655881634605605,5.607048129877342,8.299814364928379,2.2405278583439543,7.409299737553965,1.682820581707773
-1.3335224806141923,-5.930141943226946,-3.3000847672398947,-10.663676192432687,-3.223522790948129,1.377733653813403,1.5264455279070148,3.680808477315537,-2.266216983311491,5.858469318432896,-0.0099482940974719,-1.0739107470093046,4.755846601579208,-0.6249024795257867
-1.5316086444657344,-6.475412843016559,-3.988113684857296,-11.62933066664428,-1.5183240821360244,-3.305659941126042,-0.8799663161198623,0.0169917765440459,-5.03202131656017,6.400550852293009,-8.247067108225446,-3.2740195917879955,0.5544993719172453,-2.567143172620973
-1.8826001954442968,-5.723908654627856,-3.8180732570974394,-11.360912740094603,-0.2910848778468115,-5.179069491904157,-2.2172126811552744,-1.3737846771867623,-4.129877768330667,6.422941488520081,-11.274990919379997,-5.188283544726521,-1.8472335574213048,-2.738439951428433
-2.816621416748916,-2.814499322236933,-3.747233053840887,-9.515653207396936,-0.2446021602012006,-3.475436968587529,-2.476987027776204,-0.1007612918710663,1.0145145888826286,5.364878117056833,-5.785557090539543,-5.02331740135755,-0.3728464610338164,-1.3493178768278256
-4.239297157088302,-1.0513565244419047,-4.326093427287418,-6.81531474193379,-0.1029628787624513,-3.2703072073770296,-2.1454466498931595,2.380031509161768,4.941756229824955,3.7238592917161526,1.8876131722056115,-3.3724810438077326,4.504142378525515,0.3440268300336697
-5.42048578627282,-0.1594051411314791,-5.2020105558307534,-4.701283940338911,-0.493160723643494,-3.493224807983504,-1.906201699832792,3.85460955940799,7.338327730416973,2.66426579003354,7.831010744216824,-2.8400682080820485,9.932543433736283,1.3163279999822208
-5.472193879544179,-1.2959888260582435,-5.511258541108788,-4.244326471745467,-0.7955573958799785,-3.623969901611734,-2.290546913922085,2.8407051540984014,7.013230085746857,2.848538564147347,9.081991380126643,-2.144012464074726,12.260876323268803,1.399046631479706
-4.148421004902346,-5.311336296459082,-4.726107034318616,-5.243767256760989,-0.5504886829782938,-4.388080044228934,-3.341939500171037,-0.5096068811006234,2.933362105812079,3.683660037552059,4.313832252649314,-3.107195452813444,9.235298747522776,0.8117263203018155
-2.3152323439796305,-7.48099298806162,-3.1390068032710303,-6.393087453068915,-1.0185314282013425,-3.39426536457489,-4.541518265141349,-4.643530164616152,-0.9524782936012182,3.726470678004887,-1.6237855926412816,-5.494149562824562,1.5227240159754842,-0.589609898406465
-1.5883454486492852,-8.115831146251685,-1.5898755578034311,-6.4318650532149775,-1.485420445897798,-0.6148996299988758,-5.161570850011216,-7.715967679437007,-6.285509582336397,1.882834365863829,-5.60621909251311,-6.567892630619104,-7.49847058648448,-3.3022092257251785
-3.25234847600678,-7.604863697266836,-0.791894699556007,-5.255509687969052,-1.912924558075319,0.6595052456210055,-4.817274656076933,-8.716284421098258,-9.008372815799795,-1.6223213843301991,-5.730634409654566,-6.702375968693615,-13.66199913840817,-7.32763925859869
-7.180583407217779,-4.87822178033675,-0.9152095286581212,-3.962980541179368,-2.789489397619025,0.743953151928323,-3.723441636574934,-7.843953067433103,-6.258852939172634,-5.244353667127169,-2.5028729466207538,-4.554541651261822,-14.438357375462058,-11.473162770000211
-11.58273596061722,-6.032215686435592,-1.7054523857595782,-3.796363743079212,-3.620380240690289,0.441593147510597,-2.4296469506815974,-6.04101884577215,-4.043187821155095,-7.0436600411941725,0.1466201553734,-0.6120561466494752,-10.292749555709188,-13.766072914148856
-13.904042207485093,-11.207676069462384,-2.8325239753183595,-4.938429017595425,-4.591353593680285,-0.9077408398095228,-1.3606392750418692,-4.247290940534313,0.474942097487067,-5.9008368909059925,1.1145240200256843,3.385909672564232,-4.172582820901368,-12.83234996407782
-12.414041801037271,-10.78950835686028,-4.0393784892857525,-6.25189064466008,-4.6528873761002165,-1.2617510643233556,-0.6756502608864281,-2.9955902672861896,4.4742697363134045,-2.2802495086408783,0.8033089884313482,4.890965391269985,0.4221153501759858,-9.058317990894295
-7.441098356332077,-5.530573230510425,-5.024005200098941,-6.170436436302808,-3.493837861386736,-0.5467726504876937,-0.5228253469147575,-2.4500150982689206,2.975131834398009,1.950260889780381,-0.2647731795943306,2.050361361297149,1.5091807626364186,-4.445677465536619
-1.3300163491120145,3.909676789005285,-5.3805733293221465,-3.962141351477584,-1.8217281722689265,-0.5434608855354084,-1.189878310732297,-2.528184941644639,2.350906389161997,4.624489828701883,-0.0446657121535118,-1.8328534882749803,-0.4139583115396874,-1.2324599708305186
2.995579785507772,19.726801592262746,-4.829018701973723,-0.3157248819116773,0.92731571114521,-0.8501101013171963,-2.723367906333067,-2.84359621793854,0.5007010260984229,4.667449300100145,1.0170673912805035,-7.318449036162572,-3.0430277164104496,-0.4318781914664669
3.9555448052742577,23.716375164922,-3.527981396900117,3.1785347588518675,2.0713675105239444,-1.574763350088525,-4.3310515546836825,-2.669167496283705,-2.69382818525445,2.774089874706249,0.8757146071388449,-11.710621048592603,-4.096674344089848,-1.4375492338730569
2.3225812635401724,15.037025736399238,-2.0607129555642416,5.171811788097017,1.7662903521808453,-2.9959401304977846,-4.450367291604692,-1.306600133130189,-1.7364857288375926,0.7617353257772947,0.2195487964541372,-11.38698991353401,-3.035466928095701,-2.8409523327312627
0.4835182071291797,7.638572977863889,-1.0105489982365157,5.39809378162164,1.9497088750837508,-3.6393520379909226,-1.9188998984345744,1.1899143397865828,0.731105537856596,0.0243284978487849,0.3372053716773849,-11.744220988587896,-1.3658193934692235,-3.607836270282462
0.4380993373530373,-2.5326011083215043,-0.5429357362220344,4.606577420124722,0.532471130578349,-3.523950245269815,2.5498397478505126,3.5921324861790254,4.441181352974093,0.3668081100121299,1.084094229686821,-12.133506087691666,-1.2159845389996349,-3.652833595132393
2.114955217977524,-6.435875583140064,-0.4520761423022463,3.757795205082857,0.7268200505183652,-3.0480234073713954,6.138389394409956,4.0434396203961,7.6104941941627455,0.2609245342970894,2.423698367927352,-10.163870075682295,-3.3272649974471733,-3.5507827253415485
3.3982039230925807,-1.5750923223109683,-0.6167043602745252,3.225309589712822,2.311529269830268,-1.8623033646068168,5.719906984396744,1.432432385840002,5.826153733620016,-1.6875141722346143,3.171557483737558,-9.402320209151693,-6.291448321366772,-3.898184643835407
1.9342947193545117,-4.9742189499513,-1.265898035777127,2.6860635614226567,2.415021107873616,-1.2059255832630251,0.5849135811406541,-3.431171814183813,0.1089767760116917,-5.339993393465022,0.644184261008393,-7.961839031096656,-7.826259755932824,-4.883236840659322
-2.709105964153025,-14.610360571760124,-2.6049358677057626,1.7240192075612413,4.375490621408232,-1.1199224660950098,-6.251889365832994,-7.937870668007463,-7.521204160214426,-8.88940312342578,-3.35268950944806,-3.428361111988477,-6.936709267740184,-6.185033545500119
-8.346265763060899,-17.085828253976246,-4.127944944464957,0.4872596512615246,4.534409374041984,-0.787098234585494,-9.72501021072776,-9.258632387501166,-11.217561522686047,-10.071034394927096,-5.318965410499804,-0.6129705796816194,-4.8416514133539295,-7.030832471152962
-11.62742035162455,-14.532261845551044,-4.489888777333135,-0.3168609069027752,2.40554184030466,-0.4785427177700331,-6.47733548374481,-6.336878746807656,-7.515689730477074,-7.750644644410158,-4.472440878403512,1.4972982325914843,-3.6900354007792657,-6.394673784808788
-10.559219555785376,-5.023111776721418,-2.3882208537658016,-0.1123626464903964,1.81279796031502,-0.0989838815215497,2.2372407259704232,-0.791820195297646,-0.6765546943269919,-2.756814245189389,-0.6995476644067056,5.890972506113004,-4.312795340374692,-3.5095607138440528
-6.045388847806294,14.278439536529593,2.197044389230541,0.9250961456225468,-1.2650733337069264,0.4343016200015515,11.104393030895151,4.058569392888899,7.249836406313095,2.53802238875528,3.551819384404299,8.618571882414487,-5.257056652001438,1.416641099893468
-1.1185776359642432,22.122888757089147,7.659957844060955,2.0851161161118625,-1.689908966433618,0.8898677310417147,14.636523858201258,5.476103338823009,10.37617683891366,5.584186677040179,4.708163416161448,10.422233950715118,-4.062167322399773,6.915698463768194
1.5642341895236314,18.38371865151976,11.870001483425312,3.048355543048274,2.469268523363008,1.3053472952671614,11.401435548021595,3.2722657517909965,5.437345583932894,5.159597151588287,2.078963052940835,12.485925095298796,0.4755173376177026,10.994507605317722
1.8652054036418804,15.664438418045938,13.819224940326194,4.492802968476781,5.159525231483635,2.987894767891552,5.106296829827102,-0.0411912443795472,-0.3588756008527352,2.1065605512878847,-0.8526827411438387,12.251584228570342,7.14324055760369,12.559341131454971
2.076248427442465,9.35519422826306,14.229232852818882,7.50733174744812,11.213611460684945,6.03235092233074,1.53989226879321,-1.1602704252516105,-5.5364570097618975,-1.233944816524854,-2.1012245211603457,11.371359892819546,13.112524633660655,12.25242342643378
4.630144812326535,6.276896175084932,14.464552160216613,12.169638277151194,13.945418651658896,6.822061336688258,3.819502092496464,1.3971101949839522,-7.489466156465548,-2.6117937088273493,-1.7958218172588165,10.539951030748169,15.731367882936864,11.695849430663316
9.617760778400225,8.034910924303503,14.813384577044644,16.706955732581946,9.23603873381702,5.407544915072763,9.830189335192015,6.0032491626514,-3.5898580635400825,-1.3909695679158176,0.1782663101926238,7.48620976992981,13.821513956863557,11.683218290284913
14.357048235017372,5.861891302167302,13.916275409933178,18.323655419530724,6.315350565913727,2.389672416223803,13.911868955799264,9.069102469667769,-0.0947582299066594,1.1514961787481752,1.289869665121802,3.336684744987948,7.940192963420714,11.145546011204717
15.456093316404347,1.4738122647628462,10.023898267810011,15.219087317634148,-0.3918812261549076,-3.151855432329167,11.325484889912444,7.803213260724192,2.0675369951578757,2.9661768757228515,0.0835117465380859,-1.5906091632296486,0.0599321000136683,8.181957711383632
11.578369619163766,-3.060731089832052,2.912991223233064,8.065749548476447,-6.086440938768304,-5.8514873967643055,1.856120367358642,2.3897656127676328,2.9186278384004,2.822916579673404,-1.197322751556303,-4.811520724714024,-6.942612724279456,2.361131292702908
4.5092088225774205,-8.93759614402456,-5.421666784600348,-0.4001937273006888,-4.788638639648638,-5.510806747241002,-10.147540022817113,-4.155308278551615,1.0017191069811993,1.046655813781399,-0.937687696987646,-3.560599880358746,-10.202451289682358,-4.026351261178888
-2.303800819241133,-16.75249900795917,-12.018911162566155,-7.324264572398079,-6.725436521222656,-6.133032556587279,-18.95969930793558,-8.241808725828605,-0.6995194757792806,-1.0284000544747869,-0.5796499362213843,-1.204479538915621,-8.327323153127963,-7.302565969718444
-6.332931150910895,-26.5891315540108,-15.025837570281285,-11.507670512503182,-7.500378867839824,-6.553091971977523,-21.143295568163808,-8.148843046110642,-1.8321532979993167,-2.1526717409435605,0.6618203041714654,2.6393255215057896,-2.6161901354204247,-5.37563733079844
-7.448893643923384,-27.91435167406864,-14.777761686759163,-13.581162166098691,-5.863057165718602,-6.296640700293364,-17.069527610716136,-4.754921247525317,-1.946386031242446,-1.7947313807389946,2.067862827764139,5.0637536267608345,3.2916833424012566,0.3135078567555638
-7.28458586315628,-19.91394781575709,-13.096992713501775,-14.697914959121816,-8.22639619939315,-5.765092594302517,-9.786205425780736,-0.3012451387596684,0.2310995876322286,-0.0319768494521213,1.3603698849172885,3.608929174732061,5.705751170321605,5.700080883340092
-7.406412332537684,-7.553902206143107,-11.644019534438256,-15.138117172573516,-8.221969673427559,-2.7191393762686755,-2.7292137924779354,3.428663358480321,3.3286293484628517,2.800082233065382,0.8233582817384318,3.0778946193749546,3.6185392378216648,7.101827015023446
-8.040246625870623,12.072177384180778,-10.79740983494662,-14.086834930427813,-6.071151377682808,3.0295334435012378,1.9379518031869336,5.955440450305105,7.353492034652498,6.192661130591205,0.5054949962253191,1.9668985419263,-0.4466692910540359,3.759893927358121
-8.262694545731847,20.85908930231275,-9.795701884146752,-10.613788011498286,-6.206762144871546,6.11231582515851,3.717746076233425,7.631385758876377,8.573582035623595,9.363379037804634,-0.1970972244852581,1.1363779203301752,-2.448319435017765,-2.0328645781055457
-7.124512280473709,17.244176170400298,-7.687065719293287,-4.808160415263728,-2.6860860309702703,6.694198844529358,3.3968874204842905,8.736348799676875,4.4046368850018585,11.384498135104993,-0.2088050986812711,2.7635548286051064,-0.1476345191696282,-6.932635542754497
-4.518520082021041,15.003171192761332,-4.133003902676819,1.985460918862259,2.7447637602586745,6.800731411259809,2.5162337096413694,9.149583344458732,-0.6508278677642252,11.636668309727838,-0.0627919291733574,3.345584603034667,5.106170248464309,-8.767046156453375
-1.1315660027007652,9.71371857758882,0.4590427094204869,7.988737440357454,6.223870313862135,5.236009513111211,2.7802209791761925,8.741152895271398,-7.242679319004431,10.181748929988204,-0.1493429006778276,4.090561617392912,9.661958420977726,-7.371755758202767
2.2266116357778856,7.145904486227597,5.295423552358784,12.1174659325456,9.872158646687046,5.3007701383699,5.2466558179461344,7.828549222564675,-10.723083575593284,7.636133258394693,-0.5107924114855159,5.421103973860368,10.692024054236526,-3.957443836120433
5.176554352595019,9.166891266280333,9.581129522172771,14.478578719724226,9.058171729297667,7.228932527212255,9.530891668140328,7.077352334223519,-7.1829829606014615,4.638879133291084,-1.1882906859596802,5.287037881258184,8.308982573197682,-0.0309575992392296
7.75005719665495,8.946117348476752,12.67474458550197,15.873678410829145,4.7220196352978006,8.930671867425403,13.709801148828888,6.9094094206813,-4.343443668979329,1.4510580268072315,-2.1175354202855297,5.246747207240505,4.895530608613456,3.246352322456005
9.92239145959354,8.261846027247529,14.086176961639694,16.75673366636562,1.4265367159547433,11.195913395782146,15.34213912124494,7.031581706552117,-0.8974168533775271,-1.9174750888577703,-2.971026742392217,5.61014592564372,2.5480798704281256,5.18840183516761
11.175700604255042,5.768068301630886,13.50250731511278,16.522378983732153,-1.1436569965835697,10.31680740887168,13.083195230900628,6.597041231262779,2.1712310876781533,-5.230596108132772,-2.3889875725111467,5.294195783334796,1.2155625172871964,5.582809576391071
10.54695745414989,0.5087485967987865,10.91548981783876,13.772780434487174,-0.9141032669888384,5.786292256054714,7.667171230435201,4.915578690784571,1.228008731934893,-7.763834333187049,-0.6190467348279877,4.604627618526771,-0.755150736279063,4.743609795116015
7.300253940686787,-8.525291255925293,6.76804676743626,7.498515093241565,1.0874562531188037,-0.1164963788890656,1.4021615670351366,2.119336161238408,1.3150737165684545,-8.618392623989905,0.7054893448792698,4.322801900675695,-4.398574896142634,3.459241504405412
1.887044040299912,-22.27925822576553,1.9665375233289808,-1.6207500411024682,2.040518950552528,-8.45074583800299,-3.435167044928136,-0.789373536727453,1.709132340442079,-7.374209151445086,1.600143195852086,3.433815619046119,-8.539444913753982,2.6916315263080435
-3.5704408685541296,-26.05287220728785,-2.3514815042995,-10.83454404543403,1.4929580881730231,-11.524862138716266,-5.949011062213685,-2.5788972735304867,1.0565443826421308,-4.4727258537466525,1.036736684579017,0.7542357210758794,-10.418060069698186,3.157249779082008
-6.01873989673723,-19.19938403838336,-5.268117052290421,-16.42958104159021,-0.2846720797481137,-8.534718276785053,-6.651206240689135,-2.6411785398340726,1.6782030827166168,-0.968077004522712,-0.0917224506065491,-1.4566552704590072,-7.97138408565516,5.030137561969411
-3.403427166722892,-7.807859818971958,-6.544940548003382,-15.897376120124534,-2.8782129778430976,-4.682856826349704,-6.409614282218499,-1.441130084826142,3.194843458452856,2.086821417638106,1.7748398563765435,-4.335178895193508,-1.745438156277885,7.839585900216321
3.424803888553569,11.947216210573805,-6.765257607326774,-9.806094318526988,-5.983119581170693,2.064417231075033,-5.578785242175357,-0.2905016078671565,5.290275897709485,4.008960843053302,5.565157340456691,-9.400351412766192,5.150650078740611,10.498754463602523
10.56336811024567,19.89062571873055,-6.9367872727170905,-1.8955902018208304,-6.286748715798605,5.05239854952632,-4.225629937437716,-0.655336997091446,6.251578580782557,4.337158441529795,8.015042579076857,-10.862764919581124,8.952167402188572,11.52006906725817
13.37826636388637,14.447855160979536,-7.69122747674264,3.066515122390882,-4.419509402543323,3.332443588483532,-2.988144405776154,-3.411155570364574,3.947334735825644,2.5778914631014693,7.092329939565914,-11.262903915017729,7.560717369600287,9.602605240287442
9.90385006301178,8.748254050524807,-8.615113165716684,2.470855145847864,-2.4674922098457395,1.0071577837792929,-3.225751985211448,-8.331622177458822,-1.1504077106524389,-1.541428459380382,0.3423520916466398,-13.206864317399807,1.7546398619190118,4.524412425142424
2.5869801790910536,-2.242675874558799,-8.321650439170998,-2.1816459970423736,2.1177229914362314,-3.816875756809366,-5.829716919086074,-13.933875804514877,-8.76239919763365,-7.32968815976122,-9.703927753531644,-11.033279982117628,-5.327194805028498,-2.2642348984773566
-3.3787562561770272,-5.055641192050585,-5.420192991228319,-6.243825478869454,5.164436462822519,-5.310522656870996,-9.733709487887651,-17.824603490162563,-12.235273831607628,-12.754731216087508,-14.309422857171404,-10.071810934276629,-9.99403186504246,-8.112016223772955
-4.05947741201831,2.437878056578011,0.2049451730800413,-5.360644367687648,6.422768358598646,-2.8455504935443474,-11.94418707219802,-17.690563000345968,-7.626913298219905,-15.278209909666131,-10.3623627750272,-9.742556453694192,-10.048449039372072,-10.756428212652864
0.1399873422497108,9.332703809358843,6.830400369259067,1.1403885908064808,9.90899877003425,2.273264879699226,-9.680222677087317,-12.701831176637311,-0.5176323705352233,-13.632694681724727,-1.720556488357866,-4.925658988917634,-5.935935008585901,-9.959877670921031
4.9756441771593245,19.270035627854437,11.68743005070067,9.608092722032495,11.915823153076982,11.819269862002704,-2.98962343978144,-4.482823634002514,9.445259480606524,-9.081720041636174,8.479095278595135,-1.916404023983614,-0.3286542668560201,-7.7301717545472
6.019560525693976,20.576191106353537,12.712865564134065,14.769142031018449,11.883971284611054,14.543318938370966,4.69633785348843,3.3454323143898392,14.425252913594914,-4.801677214018525,12.301979450875836,-0.3904005584729839,3.629960353559298,-6.673910486575906
2.30363419465148,11.162719104083418,9.972044183514612,13.634664828171536,9.93189521911374,9.961520703773564,8.986368753602903,7.191715159988846,8.461622643668582,-3.5832327302186258,6.2578967831854655,1.0183492596904795,4.284924805607048,-7.721839021259484
-3.0981709348459248,2.5107168116901537,5.586931584920762,7.48830407765567,4.940702033076979,3.00547527173339,8.033099329006149,5.840900858738735,1.6980589264386825,-5.67450349608248,-0.2564340104358963,-0.4954706739790218,2.2876309577322047,-9.22853298837947
-5.807370595171534,-8.498882777571792,2.150467154808098,0.4864904535807568,-1.5870133822762535,-9.169639376400792,3.978579803001651,1.2632751687611403,-6.137191880391292,-8.644436706890303,-4.672244797329756,-2.0945061694203,-0.2450040998588747,-8.378049128356025
-3.670474344534256,-13.994109768269537,0.8513784965474258,-3.766588218303582,-7.013166225947305,-14.325562340280822,0.9254657739416814,-2.9548320385698617,-10.738410775035142,-9.453138353328342,-5.846824277753499,-2.693625134877701,-1.4531145515021535,-3.7804888115987296
1.7715280749082467,-11.8165154430494,0.7777224163384915,-4.774535632140527,-10.533783846199992,-11.462871168410413,1.2117224041356565,-4.425155401452201,-6.510026386750914,-6.991686307521775,-1.558609557229406,-4.434686456426691,-0.9273090615471632,2.986394497052288
6.6590487672975485,-13.813967971570875,-0.1165396373412761,-4.914602050054498,-14.512740150612167,-10.266560139303657,3.3875227805411043,-3.710981272315564,-3.379103478207113,-2.94653861977946,1.4711006538397753,-6.636635458947919,0.4316225176698367,8.251670380932069
7.543268472773974,-17.908487992754235,-3.2336800499306837,-6.92369607578479,-18.80961610490577,-7.858665041101691,3.742706723400289,-3.526191006802577,-1.8589522072424909,-0.2889963835923765,1.3966665304362047,-9.206454993870224,1.4619001535020857,8.819963196246391
3.402979962535113,-18.657994846520733,-8.14361483460766,-11.355808507995649,-19.023902735907942,-6.999389889500537,-0.0434391648418852,-6.063479197007951,-0.3525048125684457,-0.6801569656715856,1.0143362162834515,-11.031214096730524,1.6277600135503576,4.152682240476338
-4.043002623624346,-17.54401457661346,-12.793402242485314,-16.021885946926744,-14.897175059615565,-9.004396301471688,-6.48328392001298,-10.76264084474127,-1.1678000389944083,-2.944731662931048,0.7015097858069645,-10.60075714099737,1.1294050101214737,-3.4252132194923206
-11.437069251391932,-13.918260562984306,-14.83360122542544,-17.696398019302393,-8.802751758650583,-7.154635771710279,-11.278258088639149,-14.46608914612682,0.5026704166321416,-3.8848203849165657,0.2693761133807904,-9.324381357850832,0.4954923873148118,-10.384509244735312
-15.52948322834365,-6.935594691558819,-13.102653868791831,-14.666649699146577,2.123285543878336,-2.151372318088931,-10.84620293623641,-13.884292734968426,5.8576242707034085,-0.8610240488129648,1.4225435762012848,-7.089006851391823,0.2199419532757076,-14.11290808464139
-14.880905180810773,-3.457798433926143,-8.380087508182612,-8.198374654915796,7.522959012539251,0.3646274833723182,-5.34210479393937,-8.352903397381056,8.545449274914397,5.827563749493947,2.273926104625752,-5.00100375262314,0.5773178066040998,-14.118721141565883
-10.80726135919437,-3.59530832834206,-3.039815015926792,-1.8454284886400103,3.4795250133375157,1.2385516367548814,1.301178143664373,-0.6133449580850936,6.560486470547759,12.679292569509158,0.2491957622906589,-3.0931431355551786,1.3814216341453402,-11.852055414059803
-6.809670716922568,-0.594279303191548,0.2171422179348781,0.9473005733185004,1.2648023710469205,-0.4913028836380606,4.250796334530179,5.066185661982274,2.4050702700339217,15.26580139128214,-1.8750360874346927,0.3186481092625967,1.7558269549208774,-9.51345991041842
-6.355990013922195,4.290017537953794,-0.0601658992526381,-0.7259428762789355,-5.591451408796639,-6.0577083148707445,1.2777304397681633,6.000388502616573,-5.191349772243333,11.542860497332896,-5.9880098741136205,3.849369271443806,0.4729381005519713,-8.563677625568403
-10.224373521931485,5.591619798744455,-3.0613181563691683,-4.562858873024084,-9.584244674416007,-7.656641967384715,-5.657116188788791,3.0317950684295454,-9.695531384644848,3.7160205937499313,-8.952171021501496,7.172503004881584,-2.8746110674087504,-8.706774647014697
-15.513123370899391,3.9229489273310456,-6.032795192290564,-6.7620216148682175,-2.6726639640277483,-5.419020241809666,-11.708372627565694,-0.1875297629764247,-6.383890687345444,-2.96347545737504,-6.707958077438594,10.366030455932805,-6.724159678760486,-8.033585561396535
-17.549182829854033,0.9958375404372306,-5.988549767137414,-4.932273690481708,0.742574160385424,-1.1064971561178782,-12.33321093459574,-0.0241130084842211,-1.6423440037572914,-3.834394707314118,-1.6092379140100863,12.374116644872585,-7.918553669589869,-4.502929789064638
-13.54329190149022,-4.256460696741296,-1.8423346840566523,0.0318805058952875,6.288473644661809,7.159089792632882,-6.266933618779007,4.367756005666962,4.842133523279074,1.747465460189062,7.907024868753288,14.550501493318205,-4.075769266978512,2.06337837817469
-5.022835468295455,-5.579804674413325,4.572427800768736,4.659668521634828,11.256691990225576,10.246535595959068,3.5594099485241486,10.43869783276446,8.639408901196733,9.870140585032928,14.068522624387528,15.37754156726757,3.7107979509547695,9.068803041580338
3.1920557075854816,-2.430103436642772,9.5373431742821,5.687901705745972,4.809532645126632,7.786548879870161,11.754562157615752,14.204306951962607,4.907699653547084,14.924542590990782,10.96692405801461,11.790400448373322,10.534908457690662,12.439763016875787
6.7496795490515495,-2.8762914133351662,9.977634058632262,2.647625046682805,-0.4498883065521971,4.505898478859375,13.854342745546532,13.200168344717753,0.330287513480987,13.661440406393012,4.873486499197705,7.094851102456501,10.782064283295853,9.526866896949471
5.044845740818701,-5.731914372593575,5.670920679848578,-1.878340314749792,-6.279722492591652,-1.796558523745387,9.228344929715064,8.167927747156227,-4.296568983362455,7.2830163710451075,-4.569693364698095,0.7076057704945737,2.604703346606172,1.4141002877531008
1.2200118176486967,-5.920608786364457,-0.5499691192718785,-4.464021594593007,-12.113993458702817,-4.106028536172236,1.4932132175494672,2.31206144626411,-6.429235370926586,0.0683433509408644,-10.26685216656242,-4.2299735838006765,-10.004937161188051,-7.384494730952937
-0.8771576472724121,-4.483390670075545,-4.773329850498499,-3.552498378279509,-6.737233641463856,-1.645868727240781,-4.013272284674528,-1.1060475519868618,-2.475153598404896,-4.101731653986775,-5.330287072262808,-1.7099096288103106,-19.641750934204453,-11.828605443537056
0.1585106329242194,-0.1813860586003384,-4.65739186070094,-0.3875358292093835,-0.3261150711583875,-0.7673172732044766,-4.004554094401243,-0.907642903522742,0.8709581343055619,-4.37444801005536,-0.7783780411993989,1.6902597332776303,-20.729139423819877,-9.68254551017533
2.766358517299864,7.998890587624855,-0.7918723401097623,2.428326111869602,5.4446176710405245,0.1868768455820235,0.5078798854033266,1.612342669657579,3.0003020285847697,-2.770800298446403,2.245973484646143,5.523849106025411,-13.41676334942266,-2.758960092329957
4.518610425879579,11.410323038891727,4.083250692115463,3.2653521936025958,11.354559834279971,0.4387877380217458,5.2197785244038855,4.016290026539991,3.673876795163729,-1.8470588943566495,3.450208946619578,9.520147252869627,-3.0864091102919677,4.688484116027084
4.455085627969439,10.040783988640465,7.1777242056312005,2.616802807067089,8.710910101729917,-0.8937647624809852,5.991767265787402,4.518215056397388,0.5162533357650302,-2.481772127989359,-1.6120613943524669,8.099088447449851,3.911421622911704,8.96018836824473
3.51495572636815,10.495249193006948,7.396721551306626,2.287347280284486,4.588485929313183,-0.8937330481269332,2.004852783119816,2.932801609992687,-1.641259242689505,-3.573945199625257,-5.006201390632221,6.463758556614138,4.726690707557992,9.02736664309463
3.1795902776463727,11.065730462487132,5.613785052287959,3.638004158197248,1.967686216002832,0.09384482550645,-3.821128956810448,0.3931935330533065,-3.1094556708893646,-3.456534361466119,-5.119879205737527,6.39067340040262,1.3346600738117402,6.544854088162875
4.116745418381392,11.35034289345149,3.645753683213752,6.531420213612055,-1.061743548553037,0.7264482660361797,-7.259125412165481,-1.5975600378619037,-3.86375750352674,-1.4055216751277904,-3.959751113375822,5.723553686454975,-1.7774176423217156,4.254579442795901
6.105743857147127,12.18729081308597,2.9602939627049274,9.681169507482656,0.3554078884680046,1.447441326386543,-5.910512555951886,-1.984373806024449,-2.030364166714045,2.042501349786235,-1.2245757961333377,7.262419496574003,-1.2274500816580378,4.201068537258282
8.794020518645318,9.706533716867126,3.9923385057060727,11.736618099263591,2.7110797601798318,3.010045107937505,-0.6092921554967283,-0.48376791760748,-0.3366687216553225,5.831641540396313,0.7322270472511129,9.708950594514986,3.2151028602308145,6.855127777862965
12.032354390737328,3.7963871956362665,6.206682190486249,12.00724610744625,3.396971871542056,5.351890022926551,5.6251434224718055,2.4568933111942126,1.9860230654486788,9.150072451043677,1.933923413926538,10.97044713096856,9.267053881363776,11.312182109859789
15.416076712627108,2.4568704241533403,8.540637591842355,10.464477374014846,4.854343933661979,7.205468978304723,9.835135879150926,5.847991349176549,3.70230627500744,11.5657125292356,2.741214138554555,12.077981745550488,14.33251953722711,16.06471967575768
17.903166567301678,5.399839913918254,9.915064350240543,7.537268941588966,4.917734751867264,8.636594800659692,10.773862398360636,8.493775780765517,3.0041692681908887,12.821159052426632,4.4377047206790445,12.516607496444683,17.267025770264297,19.766651806853563
18.360910751938235,8.540069437170011,9.736654639421293,4.195696687889207,4.285628901107588,8.517224416050064,9.13425479997392,9.54900134739358,2.689151441920408,12.869130610451748,8.055499601181426,12.078656143961076,18.546307648931855,21.667036650036813
16.65569619528833,13.533474272595242,8.269021893169668,2.0368042337350936,5.238551526696067,6.410078730177192,6.7499369421884765,9.092215965117106,2.2366877305738058,12.145497971803168,11.597587515535174,11.74999638261055,19.17544291662113,21.651243741512296
14.014751461726874,14.391888705534354,6.545489655348085,2.6698942858617016,5.291675086800771,5.223668238619385,5.520651926366213,8.204089994233819,1.361587619979001,11.506566582797769,10.76019949968856,9.526713424933572,19.51844964781217,19.98036286344045
12.00160850502995,10.283242615325443,5.63442493527662,6.381387493729712,5.428520984103784,4.694321287587074,6.461894954138714,8.214357821678647,0.7967738531217835,11.53396841466406,4.841348297928303,4.439269567910767,18.95817514399963,16.92495142559462
10.942671428523935,7.483269487537025,5.667686533612233,11.198655511084011,6.642572231236075,5.5597144586797445,9.056928705421036,9.496703587201928,-0.320432718017427,11.749910822610111,-2.215256063666724,-1.829301135492735,16.429436716296536,12.542281576277595
9.36454767214471,4.558464787116391,5.511510846546699,13.640674712116436,6.3870967669854295,8.541804355407447,11.291809094507954,10.822075763720704,-2.2405406295006816,10.638968629585191,-9.97385063008916,-10.402855721310376,11.225281589575497,6.766032836112849
5.135253430661784,0.1673179186843787,3.5840139933169226,11.078560559505256,5.879373337451435,9.0606322369935,10.759283072425212,10.05838137714499,-3.5328143823583886,6.70784258687037,-12.258939197988589,-16.68064521577856,3.465915186333035,-0.2533612268848983
-2.596761241128114,-4.92228420274353,-0.7356430628428186,3.921063827678232,4.618676589200559,7.251494842241925,6.46887267360048,5.889142211842582,-3.285428872629324,-0.222771968210516,-8.233407998791746,-18.658984366193422,-5.947210579528793,-7.8369246018254515
-12.32742468611466,-10.917492630823718,-6.3623690360649405,-4.374784377946256,1.5475338074903262,4.194382855295606,0.0307804057688159,-0.8388177857107451,-2.8510014481244967,-8.613410066307978,-8.301924194510239,-21.263824237159483,-15.648510891561848,-14.778537033065334
-20.892743809096014,-17.844229418267407,-11.177296547139465,-9.69448580268621,-1.231581744149362,-1.17492114945829,-5.081809198290756,-7.426203503704286,-1.972903088834528,-16.04856544600466,-9.214148462683523,-21.83326198848635,-24.07188455803061,-19.721846496006
-25.35877567543865,-18.228008445468785,-13.548801747772536,-10.122154141676816,-2.911631524356592,-3.401885121554065,-6.011930763271984,-11.197047985127206,-0.4000896448198979,-20.6276739009342,-7.566396813460448,-20.648342223330367,-29.58202992000489,-21.71316678595517
-24.6628610322578,-11.337085721530558,-13.340425668763864,-6.9058583897549966,-3.074397326673157,-2.2226089398778157,-2.839281090886331,-11.395056069696553,1.39141733694927,-21.83934684675591,-3.7428982260268135,-19.28905956690652,-30.695192938088432,-20.640271671192217
-19.94840390725801,-6.134381950966532,-11.618818404468357,-2.958892873827544,-2.230488410412142,-1.965183103353904,1.3327374006836266,-9.469943966803072,2.144550162575816,-20.42398085100254,5.177447883157459,-14.597986377102709,-26.637907530089613,-17.35838707820821
-13.640854463415124,-1.0279654109568468,-9.5921964803413,-0.526744431840882,-1.0408869795593352,-1.4422671005408008,2.7727565391562905,-7.594847855218077,3.188161325104338,-17.58498029653797,16.458274502058295,-7.716107954008607,-18.12228668525769,-13.43517260667521
-8.119612710932145,0.265880883837027,-7.9393923098154175,-0.1115256580118426,-0.8069696706734032,-2.8374184361858115,0.0139697211702838,-6.887777937786225,3.578561916863926,-14.28529780302005,19.22426093324392,-4.268288612952589,-7.726518474004195,-10.543922281711218
-4.797798817259917,-4.209983644166604,-7.001739951993315,-1.168653232716693,-2.259716523477419,-6.90112344501874,-5.222534576187158,-6.977963668087568,1.4501274022088415,-11.073512716412496,11.023140856683836,-4.354584110706711,0.7989861207160232,-9.66486480997105
-3.8346627209435127,-4.901301506234135,-7.183777475944339,-3.267995936329555,-3.6137032179757114,-9.116347390838666,-9.737240270006597,-7.086130299711016,0.2490132680706788,-8.317315532695844,1.799042653216056,-4.382030302593482,4.331406820517231,-10.46963677562131
-4.27040738807824,-2.9109239304175656,-8.709340087886076,-6.250368760468348,-5.20740953009623,-10.004556481726208,-11.489825219033904,-7.212597885382451,-2.4710344882986224,-6.395466962133398,-9.795647346424827,-6.8556054227294805,2.3072657239356857,-11.37305787807729
-4.427476320721183,-1.9726036839728995,-10.851049666713692,-9.399051917911663,-6.032655429322725,-9.836195777950268,-10.798693902523524,-8.019230492724674,-4.85619057749989,-5.532076599811759,-15.208089042376075,-6.633357647134918,-2.6611906978665303,-10.44892033140384
-2.636459908785554,-0.5074638768186049,-11.702177773955697,-10.986523320656133,-4.5609616239067385,-7.702942671231767,-9.324105178194962,-9.562371579157997,-3.415952944486912,-5.396632535206862,-8.88502779064988,-0.9933655727891132,-6.242431415134561,-6.749490705631814
1.7802227683386749,0.1781433977881137,-9.246498906603556,-9.211495314400189,-3.0587425459478865,-6.528252363783825,-8.208707950098976,-10.47275261729763,-1.3809827506260095,-4.953300449845507,-2.909549235039824,2.856714964824219,-5.166298341996438,-1.0718755123937882
7.790818684767423,-0.2486890600192712,-3.090998038319292,-3.89161337797988,-1.0872760851641168,-6.194905116435839,-7.316480335724329,-8.851618356030457,3.035492411290428,-2.9727799486355195,5.642592847735037,8.52369235531271,0.5570384139736575,4.520808836049213
12.914616090160736,0.4870662021652182,4.740273842824223,2.813015014869258,0.939591916847854,-5.025735636224291,-6.079647163145125,-4.284978550441018,5.756424291694056,0.9335126183670396,10.973604605234136,12.499536029492992,7.605995837916467,8.1217006855289
14.603680472308652,2.1356023455185955,10.932151540484668,7.631999809505707,0.8419447785116526,-3.560191082195177,-4.674588112741184,1.0815700752140032,3.0911302239157155,5.532134933069543,6.039385241581183,8.940037999479216,11.57383549630427,9.17653469883352
11.908142334850504,2.949110836218461,13.173570759138444,8.483761140215904,0.8570514541588288,-0.9927105427447144,-4.010727623622607,3.8523225115696818,0.2489863063566992,8.301931240145024,1.0031467655933248,5.93568074030361,9.866421929330492,8.445629509260932
6.150817265553982,3.228581138789076,11.724333939508355,5.851633417389877,1.2380235770888852,2.928190917636897,-4.50235100707642,2.247139957102135,-3.7884807073662823,7.006492553422881,-5.619681312842352,1.2847157830402258,3.242305082576032,6.887006950347264
0.0245485526444895,2.1931703909198914,8.945516769412905,2.066715917631413,0.3050032902436634,4.109894917066737,-5.1113998255558,-2.0361032160811376,-5.666902740656848,1.5259546216403734,-9.80020837850083,-3.590058793083729,-4.946347772183884,4.673303601815583
-4.191234013721058,-0.5679934447700355,7.259576435955161,-0.7448604081630208,-0.3194273134974575,2.47590719234612,-3.987633974322151,-4.885926334803315,-2.3993385718248543,-5.529764962368731,-4.828842129491559,-1.750590311401704,-11.032231142640164,1.3982471068163775
-5.895739706898752,-5.0306030699548,7.304121723347549,-2.1480900422841174,-0.9933463407993725,1.0220590583167568,-0.3087298424930722,-3.109301944923807,-0.5980515867522964,-10.183352879072032,-0.6338535175981028,-0.4217494447166808,-13.05692321076085,-2.7688387524118667
-6.036848421127189,-11.631855090872891,7.738370457791547,-3.1258381339231818,-3.3345028898693645,-1.1242860122036358,4.521194513547528,2.7897300571128625,0.9112790792703912,-9.65889973405968,2.872357795385441,0.0750047036277831,-11.217537226122031,-6.3351938152413965
-5.91478108128014,-13.4291341914859,6.663684856685627,-4.610400858396602,-4.934674182094041,-2.667262138811044,7.710845266968526,8.86593489459338,1.8968602032494213,-4.290334297530151,5.279296982674296,1.8719869114927032,-6.8392865223472015,-7.202778070194796
-6.026970995641761,-9.969250536816537,3.3269409110764485,-6.422821736655372,-6.08578917887309,-3.1336600266595336,7.367026701916057,10.873267360985473,0.4790649377235528,2.7382749726530022,2.205621808404381,0.2327386504022627,-1.1287833134364431,-4.416104315885981
-5.826757072660968,-4.850040429980153,-1.276863161910967,-7.594645683618594,-8.500169414118977,-4.900804155362772,4.114374886134669,7.592062470088603,1.8189363997491763,7.659002844232084,1.1399376257983795,-2.034868278009218,5.129795681527348,0.6741340572217958
-4.424533980825881,3.745561686141533,-5.240526227091408,-7.537097679118919,-10.105069179919756,-7.619855086042597,0.4728698520941066,1.512184098891474,4.371198655844979,8.609650881222397,2.3747336759237063,-2.406647807630905,10.94232290438898,5.039686833068874
-1.583913628863872,5.4208415428445225,-7.208601612460335,-6.7192378360587455,-10.463978319317812,-7.655187446377641,-1.4511460555398692,-3.560261036275122,4.927101559771859,6.420366763593535,2.615839925054958,-3.25673271748906,14.620288404792197,5.977355816605829
1.735498413130081,-0.8472110853490805,-7.285171863442635,-6.165972506587938,-9.900970375820462,-5.079257842271175,-1.76168409890931,-5.686444316107618,4.144213770253442,3.301479412928032,2.7364021186831806,-3.760675422341472,14.424525671278133,2.848765858397929
3.698486653335969,-4.716878331445584,-6.741449851718448,-6.387666200253824,-7.753259260299797,-3.638228078066977,-2.3285534186113583,-5.9165068303495385,-0.6170343305389027,0.8748532808022311,-0.1702059507959522,-2.6329763671358046,10.084865319188586,-2.7168348676172887
2.680752112928854,-8.542269249128202,-6.826496432346843,-6.902534688968569,-4.583415290504426,-2.722325005751899,-4.525318521380735,-6.545737705930472,-8.008159071854069,-0.590342797541437,-6.233060212021442,-2.132541300110922,3.79234937149438,-7.988498429907036
-1.4861940213676412,-9.049497517741637,-7.643511662158064,-6.809904359094949,-2.2126021399759663,-1.4418364181475256,-7.359951751169751,-8.377979107476815,-10.721389597076788,-1.2846685202140211,-8.999401498149894,-1.2151537762744615,-0.5838226348285378,-10.52028239546752
-6.999099818335544,-4.387975019698975,-7.995326961638653,-5.749628959304957,-0.1981223148096706,-0.4124225788074795,-7.922717474168078,-9.686941200602938,-7.021199380513238,-0.6654256227745767,-5.811253255869479,3.469242606029741,0.1523191053257573,-8.93544795984111
-10.896045657172731,-5.441677429042967,-6.363846526582349,-4.234201629047757,2.43651670302222,4.8038501499908906,-3.956863720566124,-7.844572907559796,0.4882402611687435,2.383800599775202,0.677645097035908,8.48927657070299,6.285204694752482,-3.2108090437832253
-10.876836067517203,-11.46465043012143,-2.275581258068622,-3.050572840004384,4.890504345733248,14.590476894154698,3.676862243833396,-2.0325868978471253,11.10355875552372,7.992937343078697,10.308470563358934,13.998190913945953,14.849221618638314,5.15852572940566
-6.875023104900446,-11.403958891790536,3.0807102873309136,-2.382547412607467,6.841052536849898,17.526438560959367,10.96021623540244,5.5258669304303085,15.67591403797154,14.109091333951255,14.774574939431014,18.228271108265663,21.54195450421945,13.305275171761956
-1.1017476944416478,-6.66685591124001,7.581134150383771,-1.5319607277835514,7.327660431651626,13.872437427067196,13.419614464937307,10.97292204593683,8.949429187998609,17.378688762156724,8.55540985593439,14.573731248996838,23.468045797337787,18.029546191476395
3.574111683199484,2.435282596647626,9.70865298688638,0.5079028835149559,6.7139501881262005,7.956879489632676,9.495222968906347,11.63780554331904,0.2624361671674367,15.746409995522718,0.5507799923508799,8.844000228047511,20.680203793131152,17.629019728730107
5.633948023546287,18.20506798900166,9.61538942239953,4.156519602185131,5.588923340253772,-2.814662904412456,1.8078875545280564,7.900973081623509,-9.903561804563022,10.405487122624375,-8.855166112356986,2.6095333044139,15.513321925736232,13.235510594025882
5.683108201531406,23.535927239025337,8.766181090466674,8.769686379920499,4.532271414491166,-6.588015073667889,-4.773593740486652,2.69292330521618,-15.30152498085644,5.034705245425078,-13.78842213095234,-3.379703327886717,10.473775130703473,8.218596577941085
5.478778558157286,17.828162521631036,8.491955571477254,12.908795027383334,4.821497455814255,-2.395567552752123,-6.7139176363086825,-0.7502259339158694,-9.190486311455508,2.779165808638881,-8.271619516367156,-2.376644284860647,6.483615595439545,5.714247796619064
6.240146023499875,15.152113683572086,8.804433721115473,15.112082750425266,4.972856539703691,-0.9243048626973652,-4.1426614902732375,-0.9990457392699916,-2.660351927674493,3.688786316043565,-3.3249745303524776,-0.1834544932672877,2.79216641221554,6.213560542005501
7.771702949214109,11.917533289018223,8.566552561096122,14.649782978530736,4.474575829547999,0.4861484199230235,-0.1772306568325063,1.0475296366291147,3.185767252858481,4.9794772889702,0.2393852702687682,0.446129029068485,-1.6360970351768491,7.38930831789782
8.98578954227634,9.581773113270138,6.76841636235042,11.836815215056582,3.920476472217884,0.7225180086332897,1.9242925550993315,3.256790442075747,6.55898315010012,3.801162200123507,2.2816848543106096,1.6238156562141424,-6.657798655342226,6.413112709183498
9.050850231107548,10.169660939263652,3.5651668228808653,7.763187888754521,2.116507107528729,-1.7681924237971351,1.2161714391115197,3.875611256373393,2.960560172511138,-0.160271643126876,-0.0728714569699022,-0.1880960107174921,-10.746151692548674,2.654049906895409
7.969911586227958,3.204973280333359,0.0415969253754724,3.628712067168557,-0.2181947471561414,-0.4059908703847339,-0.80883428818602,2.5092683754184755,-0.413099516365577,-4.634842583469759,-0.3410253779724457,-3.1385471951274506,-12.182155010403095,-1.7859298580678633
6.205068930960128,-10.991818494846106,-2.923976950134495,0.1187919448994954,-2.286877350226975,4.410527985868532,-2.0960625114651457,0.0488597803515489,-1.967957339413081,-7.095501248687071,2.527919729967867,-4.248861164613556,-10.548900544657211,-4.196321822463556
4.033040772171894,-14.961790233055588,-5.347272372557647,-2.7205422829853134,-3.637913699462174,5.710188124281236,-1.8924040116812648,-2.1063485056629183,-1.886648605955178,-7.046347758888512,4.863653012901552,-5.285597914446613,-7.22922353624282,-3.945498395138344
1.484783543538473,-9.57299848694894,-7.592289803924679,-5.000223813830939,-2.9394028998212347,4.323903323438299,-0.9596113462306805,-2.906850511020931,1.2788473840798062,-6.112464237051942,5.616971844025868,-6.28958808803715,-4.516024424469737,-3.064344594110356
-1.118419556031203,-2.333590426117949,-9.325574196311806,-6.358513162655076,-1.3831708529178417,1.275886289202023,-0.348959743787443,-2.1536842506370704,4.527580064540641,-6.111363556646772,4.467568640025794,-6.507381445915663,-4.113548080781609,-4.143897777792898
-2.8684518708302136,10.404608414492907,-9.4228926305586,-5.9319545393041295,0.6604112271841655,-4.829933283412541,-0.3066277975572689,-0.5305191758703387,7.227668959514978,-7.266333380258612,1.506999698203062,-7.0067418912464055,-6.229714101739646,-7.665387319491778
-2.894013021146016,12.273398506996193,-7.253794526065924,-3.233908077552289,1.8858573827750305,-6.847238369079269,-0.4430526341370537,0.7317226610756826,7.636462155509004,-8.3796963484752,-0.7851469842821078,-8.31371327253891,-9.85281254920832,-11.486263310139725
-1.5024544890414155,1.5209172606744628,-4.026390386343657,0.7206941974108609,0.7037749823020854,-4.510917949760806,-0.7026564495144854,0.4150264895740854,4.484937695252781,-8.584508022187606,-0.4306737038639877,-9.824304438498611,-13.770250793678883,-13.03492672360094
-0.5769424547945015,-5.417993440330921,-2.429197703617259,3.3020478743912705,-0.4228901775906229,-2.9925047867557906,-1.7158462211832912,-2.045423688466734,-0.5991954242616796,-8.572069710575004,-0.9622696058523974,-10.78704646594935,-17.321927738994148,-11.95678616629286
-2.389202125975487,-12.27813324005419,-4.402553446283122,1.8314479959328835,-1.813025028358343,-0.7311057830933788,-3.857537960664221,-6.059093438996253,-8.701619666979262,-9.766246199576845,-4.032087037937796,-12.31473480743282,-20.236793598158336,-10.40017326569852
-7.492134873172613,-12.946295544115022,-8.982310980346277,-4.054540867292797,-2.4872791102401197,0.4162778612695089,-5.985574097938905,-9.848815446646816,-13.471051084723156,-12.209432785474576,-5.964798041766292,-11.108070659335567,-21.84930763227686,-10.515479540769883
-13.534135425859136,-4.3900615751708285,-12.48790802252938,-11.27047977866717,-0.1481085751069064,-0.2909063390616659,-5.554625897161124,-11.151993121673232,-10.30372036200266,-13.544650513123454,-5.612751595617154,-3.7208313230231065,-20.689181190656463,-11.721079003194518
-16.375303985822676,1.1134149440430916,-11.284569111927503,-14.825762075131951,1.900075084388573,1.7375886074977167,-0.6300899089309482,-8.502217694351899,-4.100767366031999,-10.61168654293437,-2.8247076249260514,4.5299322660657,-15.201869729827418,-10.755338626742764
-12.967831455782695,5.574309367962206,-4.839103665503757,-11.333606427052034,4.285536372155267,6.102357324406372,7.758120300219637,-2.358610943130273,6.509928908014794,-2.525154125089987,4.446551893615146,15.20265992553854,-5.280321190733407,-4.822737074188414
-3.7736948968982738,8.75262122396433,3.6696478815247424,-1.834200874609184,6.510412188305206,7.471646149242011,15.352805656003586,4.845367357660585,13.662157742633283,7.696729212647368,9.100385775111311,23.15819207030448,6.714848520810449,5.113348424647114
7.308856787932525,8.46297559237766,9.77598998061709,8.51926667902787,4.320168241721736,6.323435225764506,17.404068611776587,10.063081720124964,8.981204573124606,14.859321345290592,4.969122404644683,19.577026539429703,16.657504569479595,14.275741656435844
15.508979252177957,9.594115167584816,11.058024703324476,13.931389670709436,1.953550704318563,2.975456800019836,12.506559273895263,11.617966949821303,2.2285996313402148,15.51276140648949,0.8930340527625584,14.770233088261069,20.94842565792092,17.6594159008673
18.17257282076485,11.427945740276757,8.534356265609045,11.971089676563764,-0.0926428295385137,-3.782161539912678,4.199770133878111,10.321444760748763,-6.0431754529725215,10.699334379846098,-4.5432826296537705,8.558215022188921,18.77873779809661,14.120349514513483
15.893450513436711,8.748026722853304,5.1800042129077255,5.009196265555458,-4.278094283108269,-6.609786811439584,-1.4345895122146892,8.743438110571903,-11.670251051538523,5.032746182808333,-8.84763184644232,1.0303226212632066,12.54702426707554,7.249013486202362
11.240796304106356,1.8797852052625128,3.1957821459669287,-1.8957775913408292,-5.104607230434149,-5.330783984265734,-0.4798759130478611,9.108512695853344,-6.469887895555494,2.8548603387532303,-3.917200794979878,1.5027990444407155,6.036541263972442,2.2682430936551743
6.534061722471035,-5.320859024402058,2.5230805927629323,-4.800644928773748,-5.212494101701073,-4.839874762333044,5.7200252699886,11.478785749502563,0.8371356963674272,4.800434948230025,1.2976751355728071,1.6217873279178052,1.7986093076173653,1.7960062239639
2.5834117487832504,-13.768880764734618,1.6313656024991108,-3.3668354737259065,-8.48067136282225,-3.535298486954471,11.746929504554256,13.7084310523892,7.2769470143402355,7.642644666778294,6.689219892749369,-1.7349889181318443,-0.2201434976891452,4.1445404397353975
-0.9314179683772644,-15.164405355278596,-0.5574812281936765,-0.3824976630289853,-7.404249787223505,-3.0618689685313907,12.534269561451255,13.210228441213706,10.552192351790971,7.315369291601173,10.956639104526602,-2.110540822455359,-1.924072103465349,5.305357686188364
-4.311627505716654,-8.077491644885498,-3.540459193740941,0.8973256133453056,-5.023461590083489,-4.041349040840491,7.216894679805216,9.099353853680974,6.441241239876263,2.336850386444418,8.642080709135364,-4.181112249605877,-5.071927907071375,2.5130216723717336
-7.19171816647814,-3.18498326167955,-5.755900173899844,-0.672902201257374,-4.5159523458024085,-2.5372458602436536,-0.6932967702219939,3.0203415967663414,-0.6319361040112534,-5.163616836794876,1.9570445751726773,-7.816874857069245,-9.724454761708383,-3.715039596995575
-8.84012392512993,1.5176590516786883,-5.974597194271333,-3.476733725217456,1.4243061613821784,1.1129413986255976,-6.508139210605014,-1.9355865768012877,-7.163948818679247,-11.278103101803282,-7.576234150159985,-7.486565126566276,-14.175718151236362,-10.36943223558688
-8.863760357281915,2.786928961904608,-4.1819392928790045,-4.610860148074548,5.0763008574783735,3.764207484617547,-7.858877818755895,-3.341645823249196,-9.23720882519066,-13.13015588329745,-12.90228490334109,-7.297953389729759,-16.151263334184577,-14.366043167887636
-7.56260280447102,-1.4993685898787208,-1.351638113309483,-2.210112912466334,5.547917752034657,5.9768573294337415,-5.680720476090742,-1.015182509625402,-5.622151903778184,-10.424719000001708,-10.679457924282536,-6.624764995862196,-14.307511455055272,-14.440122184457165
-5.705002096487542,-2.448313073149481,1.3766464132854797,3.070544617510969,10.133813788530212,7.217336821495354,-2.52901275228432,2.977041150699136,-0.3836733785730132,-5.019252035512281,-4.557877136319082,-2.529922108528272,-9.129542918670971,-11.377283190543904
-4.041990490376233,-1.173258968415596,3.285985989689238,8.409500815579781,11.665123771625472,6.851847391485267,-0.2997739669500672,5.757794993959944,4.2702699463813065,0.5497906677684022,3.6634621741905287,1.0765895324822827,-2.7902665025181435,-6.998547301178008
-2.9504236570045848,0.0862471246645222,4.148793693461408,10.741392099961846,11.54683246167279,6.589496704210471,0.6753754994471761,5.45845792705017,5.37841730947461,4.298078345290879,7.97027572673224,3.206234626418125,1.9819218772388325,-2.986249647156302
-2.3307883144353894,2.86363936110925,4.075275262278293,8.927483458325312,11.452409945667467,6.120716059257809,0.9634914405101468,2.2270097349108013,2.032363778913462,5.310248234739072,4.763825433868415,3.866809702586672,3.4911224542360846,-0.2395414714449169
-1.687215532898278,4.931235016058855,3.445827296817556,4.643328877179916,7.228852168651391,5.748869621844327,0.9925118303668516,-2.1161948390926395,-0.930199479336,3.846895948650233,0.7900587252807584,3.24716549957348,2.1686788188385053,1.2092417147289565
-0.3318371082125289,6.254368945280188,2.856285270205564,1.2899105987372348,2.6164180253586884,5.77927817635437,0.6979228228336636,-5.399810206530458,-2.449018844991272,1.3015491682139109,-1.5202359891367214,2.4142272086396868,0.3075245810932876,1.952428331373476
2.27848810523836,7.358715111442885,2.8750230731411626,1.620403606158658,-0.3835608003469223,4.255712929083182,-0.1256425216400805,-6.443409612941099,-2.50291726037348,-0.2194744454090251,-2.9075366044267947,2.287894489785073,0.4421580884423495,2.7950852330002407
6.131606737529512,7.72375986952874,3.69244634566474,5.740867963835605,-1.8028013967477563,1.2218757377036733,-1.402980151969187,-5.5630008021147805,-0.0494102930791894,1.0527527319042882,-0.8354604313686896,3.854126143118734,3.526475240457444,4.279940531518104
10.384568617777903,6.833016454240789,4.991169307091807,10.938797401144262,-2.2247429308063986,-2.8157133719931715,-2.73405559221644,-4.045262278009314,2.167612009937632,5.279232067304704,2.4292135669697634,5.38006381756093,8.37499519330413,6.34727320382857
13.503358273429566,4.482436730933644,6.188168351703639,13.521110011596893,-3.0646334047582284,-8.315130898023032,-3.663259958235561,-3.122094430947998,3.601964660103821,10.537410916179262,3.1685219922014314,6.439393679809776,12.804211568273423,8.35323540456109
13.936964548109374,2.645393286935336,6.808990008592259,11.409263769291092,-3.095626525803019,-10.052435860173386,-3.968095567527893,-3.238837977390734,4.0867555470170345,13.82210553872407,2.863460060642525,7.593949951089638,15.381876477178407,9.478551050200611
11.07923758401375,1.239693096810805,6.665799305442348,5.6708429589228695,-2.8841746505168318,-7.606967971296827,-3.7733997677163504,-4.0553918224846015,2.5329888577688524,13.019000053677155,1.3721330070481264,7.046224974197368,16.172569923070068,9.282312126781058
5.914473930192468,0.7513750512602609,5.822206810182934,-0.1349649233630359,-2.5940649208473765,-5.448335171163751,-3.4534350169588635,-4.987224951313625,-0.0486869337923213,8.38580834200809,-1.944721161390848,5.9652973576551,15.94861063285771,8.030525752604914
0.7392584434272464,1.7281998522740083,4.573795662240013,-2.4141065994200224,-0.1850351171128134,-2.351210601043425,-3.377816906564071,-5.714248250327,-3.682538090514075,2.344263863883372,-3.5379998988497463,5.421315098038392,14.920333105903971,6.561619989135234
-2.1048228839436787,3.203436172858546,3.4885816243346914,-0.0990546547564434,1.156888581573348,-0.9136990486387452,-3.654096048131679,-6.242933928269826,-6.02137399463415,-2.2566580484110297,-2.856157139646467,3.360431295995873,12.468044732008323,5.741315418226371
-1.740003918629073,5.522650367630433,3.225766573239987,4.562108298888505,1.2862081022364136,-1.93980992827094,-4.070123074338747,-6.602905810681208,-4.947100700744599,-4.007654100795703,-1.1014457547766645,1.480734361728369,8.168370361155144,5.840699499343556
0.6392491998544738,6.911483415498688,3.97046738594279,7.659107792394426,2.9289410393698283,-1.146858822807031,-4.309194143273933,-6.610513900857311,-2.1217386189590357,-3.5299712663711587,1.7060837198694698,-0.119276872415132,2.893729019116821,6.28044783924556
2.645429282736387,7.138187093518514,4.913879908562705,6.544326662664147,3.2826202152873813,0.774409317213517,-4.2458718555700425,-6.008321401515792,2.516420223399485,-2.5473458939314693,3.323989528138386,-3.811838958640589,-1.403530932467886,6.001314846017476
2.4525525633088794,4.890903142514574,4.52031941821606,1.7740837527907125,3.02239978201484,1.4381036048302658,-4.023799760022429,-4.830178378914054,6.014234846873153,-2.4176740470122304,2.89705512858024,-5.884133470399403,-3.2100555325441107,4.279854560302315
0.0221352417990843,-0.5798029874648367,1.7357255298797476,-3.505663326613586,2.791669013058113,1.3700029101849969,-3.841461839093707,-3.5438961748003432,5.166690824772153,-3.328605542082604,2.34737924256127,-7.016850457232882,-2.786824009062657,1.3892429748354598
-3.165218302680554,-5.940499328255839,-2.7871376104249705,-6.23376435592962,0.6558632877834112,0.6985144627904981,-3.695645316587454,-2.7252488156924315,1.8229871025654252,-4.568408205361066,0.5867077157502445,-9.75099176204621,-1.913749151771233,-1.489716306825423
