AF3,F7,F3,FC5,T7,P7,O1,O2,P8,T8,FC6,F4,F8,AF4
-2.23562928658814,3.645756332773732,0.1340446962790191,4.608428297016499,15.11925361122055,3.735679527208009,-2.7134460551761044,-4.89945262795964,-9.944476477735408,-4.488837886431239,3.506958142793847,-0.9640787576498936,3.7108459939112697,-8.198237366101667
-4.823543880249182,5.004687815909676,-2.5153073311263863,5.511851463052056,4.283187299008325,3.806455092707102,0.731860561033058,-3.3041487804012597,-13.980948836344137,-11.623249487027469,-6.821878231936368,-6.251154723254443,-4.529470455853868,-8.270609842893911
-9.9401872379896,2.1351937991158296,-3.576399239008777,8.268576515857136,-7.89662311142186,1.9476928460927256,7.005934841659086,-1.5572633574500352,-13.342823765308298,-13.85870470122404,-11.751505992190292,-7.541700846485149,-12.59549041347518,-5.251225316145511
-12.986720260496096,1.3404186804970657,-3.546399391195588,6.733609666249277,-13.81082356020934,-0.5910741085662032,8.810092016005463,-0.8175574105602512,-8.843306750317113,-10.187783144899626,-11.208996191365792,-5.617913214932541,-17.902336587798793,-5.966984919142529
-14.776761390779388,5.644219633361421,-3.260879792427691,1.6101509607253697,-8.424431741866632,-2.583468015591792,5.363156644442143,-2.3469929746889875,-3.575131008151204,-3.93504665498002,-8.59113157945752,-3.064063213983549,-18.96843822760502,-10.963834014645585
-14.830655824202536,11.909632603632907,-3.6661296841002464,-5.970213489946425,0.1148288134551045,-3.444741292991801,1.646046571434571,-2.4213938015407823,-0.8704935448733081,-0.5095982148882348,-8.586370379361776,-2.706024454336172,-17.114061733769145,-16.169858362452246
-12.256984107190693,13.991717199432964,-5.403860934284119,-17.265855959777927,5.621279035200532,-3.327890293667224,-4.22933860976334,-1.618335738643809,-2.026978744342356,-3.1364129335290825,-13.79792981679557,-5.719863938589631,-15.970718232223314,-23.301926249600324
-12.511692152114264,8.689848018107115,-8.289720310549082,-20.99383622689633,5.5982552107178165,-2.8306958941488247,-6.260443252473032,-1.4699260536268028,-5.572738997833215,-10.182935899130424,-22.64133536765949,-10.853150352176415,-18.83017722474227,-26.589177392035943
-15.550733092767594,-1.181820073182557,-11.174220278418913,-16.360452097423302,0.2732342328503994,-2.514748948214686,-3.543875287524649,-1.4758194906361193,-8.547854835011755,-16.422756609382088,-30.290334764911464,-15.381799067313368,-25.80195830591184,-25.298778065457007
-16.470516718758883,-9.314288095562135,-12.589017825582166,-13.930349202442546,-5.102455016979174,-2.4764665362060665,-0.7120695983345976,-0.4665840999230429,-8.683996532145027,-17.20908277529886,-32.15066906321472,-17.032679597708466,-33.14841397222666,-23.08403944509428
-16.231859824036455,-11.35897516231284,-11.875092074844575,-11.22865172725892,-5.375882556919736,-2.2867880996594794,3.871662001553549,1.506829530935319,-5.82849873497538,-12.091525062259018,-27.249583784685697,-15.38928968428272,-35.596400007234905,-18.361934140485847
-13.997738621708818,-8.102612475474386,-9.84231107813732,-8.414870785513664,-1.480120406455068,-1.467385291302497,4.895862897446037,2.1201311150277946,-1.7479530904925484,-4.958025997714224,-18.84837459357535,-11.847597414805058,-30.081576153892943,-14.45197218730626
-8.851344790774377,-3.697751346467192,-8.222734615871634,-7.023281876980791,2.7042237621343617,-0.1769409573510514,1.4883416851714717,1.4563361239017176,1.2890499482110016,-0.7095627336353454,-11.754727128285438,-8.396131880951925,-18.14309236594873,-11.784886464519523
-5.400133683950555,-1.216568790078104,-8.225599623638107,-1.2763499952626602,4.170020124158886,0.6123820808909545,-2.535796023304027,-1.2395232399361042,2.02004568154332,-1.277131381948032,-8.529175213165676,-6.277877985805379,-5.101506242124508,-6.952767495878743
-3.4046869322916424,-0.1470735085231371,-9.420882439896335,8.61463131543526,1.66876453906882,-0.1438917599998642,-8.697121557648606,-6.652664863438815,0.8205737152129937,-4.241309223726042,-7.759797296720063,-5.432763860274289,3.42730629698842,-0.7095799603150419
-0.6454228071196074,1.950234372896105,-10.00463416711438,12.614630460041273,-1.9142771145631616,-2.4321884174192285,-10.94208126429582,-8.992347737404664,-0.7883559516302436,-5.141625826036032,-5.861061451859639,-4.887213902495262,5.108551925983309,4.5119175152015325
1.9913689890408213,5.86801968434143,-8.292062127250594,11.121601066318622,-2.910627962678049,-4.807087184171653,-8.483891375598505,-8.261452140229443,-1.2924057258761483,-1.5017598898559734,-0.7824319033679727,-3.629701294632662,1.984387524407228,8.968213766906468
6.3841951177457705,9.347849154900183,-4.148624366837842,9.488629900735209,-0.4969113075041653,-5.375640029904935,-5.357574575404374,-5.9784428371552085,-0.187496847893575,4.895869955484653,5.763448677764609,-1.3342496757262283,-1.4743933694462084,12.531285057665716
12.85506134086468,9.386591906475497,0.9041700235665218,5.6667756706714,3.005766113237484,-3.391324128711356,0.099767609653541,-0.7071142386515608,1.8175100517790572,9.541252390607925,9.733391103820567,1.5034230947160148,-1.6163058092590576,14.616593740777226
15.705614810886008,5.70867857715349,4.977692345631547,4.120105441291366,4.406654892481015,0.0582806802333057,3.5902829410571147,1.726387184645702,3.4840682323214254,9.272691796024075,8.704794555458514,4.051709726374543,2.311301250629791,15.98872590697298
15.0195600906123,1.5828549324712888,7.312758749938627,5.660640563093933,2.318358071552808,3.024677526312084,4.523411194181559,1.1150635592752411,4.04407824467182,5.2197248036362645,4.685365898783624,5.848323652383652,8.433293047925881,16.36885815404185
14.960026213040129,0.9557193314316494,8.643087334058881,6.310091264104003,-1.1250517388565495,4.449940564611766,6.651425652780264,-0.3878834940262312,3.699174349982001,1.7681299943092716,2.853768042604991,7.107322647478332,14.077533824667643,18.69302529728524
14.418352404193554,4.721720392107703,10.165571973312067,7.2810591583293665,-3.0745703503075,4.993110748933757,8.893671458373086,-4.248419648674563,3.2262123327327585,2.329115904612454,6.924081857793985,8.302744537441814,17.443256572376526,23.29217320679187
13.137197161844918,9.840062231253391,12.148102759603916,6.712356753669223,-2.551299214343601,6.136711067807557,10.955301945370346,-5.069349244574822,3.1012821616842925,5.85613326585613,15.188475070385778,9.402843547086276,18.044079360259563,24.54673590439022
11.630354427323926,12.1242001656576,13.509031588048275,4.024502070720469,-0.2587571707280276,8.51134978102252,13.215865274377434,-2.5362613940561705,3.0085181931090847,7.588233676420653,21.143660781433887,9.598857394566297,16.179163866746592,22.87845558238248
6.106189766987509,9.920798713035715,12.762471900086314,-1.6657674934689075,1.0977147387756463,11.135817062703708,14.748836685202392,0.5291779947473852,2.219941832053004,3.574735947488004,18.723490388733797,7.998587047171537,12.37058166106634,15.85092771893022
-3.655785140911963,5.199047795138986,9.444291310830105,-11.246586652291292,0.1773488460785542,12.29886792018694,15.542832302468268,5.463599095258834,0.4564962410850262,-5.195801118300741,7.842620170547482,4.739609028766889,7.326954654831534,1.89151526507116
-8.06197184143891,1.296384348915348,4.708163847380722,-13.74258347582551,-1.375005287524494,11.154690818069051,14.64190111162897,7.62483091081296,-1.6595606414660682,-13.079668427653196,-4.760654600836832,1.3503528659233446,2.181707423475391,-5.009286835491301
-7.291450345633284,-0.194287709753766,0.5637249940259692,-8.805198481698596,-1.609413184640104,8.460744112392504,11.698503969926126,6.519693456118859,-3.041277903508555,-14.436917793885703,-10.55164288215817,-0.2484494457720698,-1.6165283089126792,-4.972927835203617
-6.116459404030341,-0.3736373027389472,-1.5642519778683188,-2.710078275461293,-0.1703732084600386,5.818245446044786,8.177533247165817,6.348039339748933,-3.0374710569762677,-8.498277449261412,-6.098593677405212,0.6359627716865512,-3.0092398967018053,-4.363526506026179
-2.4472272685347027,-1.2456572291156478,-1.7565170479285572,7.13593207625073,2.8095795485711914,4.246245325152978,3.762666468936134,6.019152017954465,-1.911901476073924,-0.0177090900517304,4.003535478536223,2.729382992337806,-2.16939965599916,-0.050131251513234
-1.340733720004728,-3.3560672035336783,-1.3448402513312514,9.284693389842992,4.342699641397392,3.459649953408494,1.2808033224991826,6.096992607185911,-0.4608875902403869,4.8601157321339805,10.781956555093831,3.740469397894645,-0.6578754177800175,0.4773307170872321
-3.473609709001872,-5.320952632809062,-1.818362570768966,2.291030812106283,2.130744817458887,2.430043555327341,1.2377720259187042,7.173899997807522,0.8015028549276604,3.7692727090943112,8.143441464998764,2.249800998086513,-0.4594586653353918,-3.5586253626369566
-3.771516291675255,-5.494121543132486,-3.765152864234274,0.0276557556129447,-1.4922682771478923,0.5743351816840909,-0.4477027701964181,6.252172892667379,2.069194337408643,-0.2343339705344549,-2.239427954516138,-1.105874310567736,-2.400224402705243,-5.442867694342843
-3.4215929103201543,-3.7755522062062568,-6.50522372766129,0.0036631197631153,-5.992402145480981,-1.5861947332970372,-3.1281622227737818,3.4692346511459893,3.902535650407674,-1.8063125028662772,-12.313003402887675,-4.1562678102629285,-5.190583666303123,-6.88628692446434
-2.359261215973023,-1.599393416916798,-8.502861511919917,-0.1127394068612997,-7.495455794647698,-2.866042961263058,-4.55838356532196,1.7962323055170313,6.516492542125245,1.811553604568271,-13.968672477482176,-4.907582434677208,-6.104657260094036,-5.581655797208425
0.1384828575778695,-0.2539767852562109,-8.24354009913575,1.845871582500621,-3.452828734764616,-2.497499580427105,-5.2604860416499815,0.8030541587222692,9.411204921528514,8.575556899159322,-5.12588255215278,-2.9748613111683957,-3.0514500558758404,-0.4178542252040346
3.76873996826814,0.483550612757881,-5.139766403327758,-2.134676168429132,0.6496472637437344,-0.8644969231146078,-4.2697446294774375,0.6830980661903927,11.664893011214112,13.837675346999056,9.039625958326518,0.3231018509042691,3.5236725072236617,5.419387889809594
8.876206199169552,1.8194866228265771,-0.028282560930033,-12.412338895254583,5.221148494773363,0.7490437197956349,-1.1245437977937385,2.051391632667386,12.57333769074055,14.628916774083834,20.192601726740744,3.060748102634597,10.575062338494138,12.804886387065636
11.195143308927756,4.109050846542763,5.088510119998025,-14.183494366721598,7.422437466837564,1.173033895713712,0.2185864629834489,2.8537615395302582,12.069009522283691,11.984090923074746,22.691562730480037,3.998656685221667,14.482713886240903,15.603390158585212
10.431287741958949,5.858507909112541,8.066351152776763,-8.278698491670811,4.166693481071445,0.2848079728259578,-0.1375158295299358,3.2640476514978656,10.645802051171437,9.39789383798414,16.821002292361335,3.175421408918659,13.631265346325588,12.839089355915736
8.624995554391107,4.928051836749973,7.872789622456292,-0.0439955921956788,1.993123617215526,-0.882993044363641,0.1224765626600631,3.667813106173016,8.973837545449943,9.29401335830106,7.597804445161971,1.613364881575729,9.48535791697231,10.045314123442392
4.636767564115404,0.925132575049732,5.218577010404648,13.636080017355306,-0.417438389512074,-0.9297626845698036,0.2060317924389522,3.655503174584738,7.560073998635846,11.0922769056331,0.7883333142232614,0.5560421798430442,5.357511149673374,5.55294100756215
2.8969061518417907,-3.7139728416728,2.0525710978840177,19.25411674924697,-2.671096125399126,0.8367132418600063,-0.2469314108632351,3.3249118749908444,6.621024563277355,12.493120601602712,-0.6524091512916925,0.7747470452425542,3.944584364173807,3.448928100178726
3.770799069714821,-5.385715732996887,0.2459598132740792,15.657599712268226,-1.9606749104486585,3.810210902713616,-1.0707588223415625,2.5687606117131425,6.079596054539247,12.144609769550712,2.4243287427669253,2.254922925773412,5.547475185209163,4.710510454203052
3.870072612163621,-2.451327616678664,0.4299435523450823,13.861301608469438,-1.3495898123310788,6.364612427569201,-2.362518334338852,1.6236179637821524,5.566191657258514,10.606436009942191,6.794901599227536,4.296564818005149,8.12430301703646,4.740135841761322
4.2456749429036975,3.0861126141769946,1.7979146604191838,10.692974685213391,-0.0992472278033664,6.792090166148775,-4.175267338418663,0.4612644553402339,4.460832938892442,8.737572428566402,9.109217611342872,5.890992928962207,8.859568159674483,4.692494898291017
3.7537068297535,7.103264824052068,2.8886150340345687,7.372311529897802,1.15765870029703,4.30884957799936,-6.1169154990634125,-1.900105748428379,2.095396057789065,5.750222047845684,7.478928355378482,6.164876362789347,6.031732569246596,3.0789635513906006
1.941386704453802,6.811073269281584,2.659671385598664,5.254840686737645,0.4568537869206473,-0.4619250664975376,-8.196995042622826,-5.516167519998202,-1.8974722540702704,-0.381518889046236,1.977171567446641,4.69919582755023,0.0616381646579169,-0.8408692850527618
-0.3987017503493985,2.960228551906269,1.0980021120892385,2.258832240501009,-1.231910304896913,-5.8043829776404685,-11.515786257144184,-9.616243292102736,-7.298895747384383,-10.257171711600671,-5.6643125240674586,1.629159094295256,-6.732355190879845,-5.821819716876544
-3.716002315717217,-1.237248472819222,-0.8961467865064621,-0.8603995016199265,-3.6774250809990816,-9.834566846142572,-16.084346162428833,-14.42968508602533,-13.301298612903867,-21.085332538205897,-12.87728787613537,-2.4358938237493866,-11.4993698248266,-12.522793628072629
-4.898745621190485,-3.331627471065879,-2.107781564046137,-2.274541438449226,-4.5629243770870245,-11.478409355088417,-17.007965363224727,-16.263273501942376,-18.79539361106226,-27.97244450481515,-17.453175948590975,-6.583078786806193,-12.641302776019746,-15.641609578096578
-3.6812868975297217,-3.786683762416259,-1.683397934865721,-1.886682850438815,-2.0038458101474346,-10.90120707074935,-14.098456487036229,-14.653871543193947,-22.748615911386395,-27.6528319534704,-18.69676758811161,-9.827126701245849,-10.954163103014585,-14.692793639049224
-1.1017893470815714,-4.971198542797757,0.397224000384206,-6.897358779456494,0.8224873889002395,-9.161994377300894,-10.187119222156207,-12.964021306591489,-24.489964325761957,-21.18221215942647,-17.74287307708349,-11.435881631507858,-9.19699638950021,-12.920576688856832
3.7373028100228862,-8.142670726127669,3.193075323119749,-17.444442800769874,3.7935511709136898,-7.423327457201692,-4.084444211334998,-10.249424582946244,-23.87606170138512,-13.058586273558827,-16.555402304061175,-11.303065061919298,-10.101966138569194,-8.923809931614198
4.217646814090956,-11.649506555704209,5.101243322993092,-21.10901386731206,5.111436259570233,-6.332253993164633,-1.5942272899305887,-8.298839954651465,-21.374292518931668,-7.72837774375312,-16.237031587648953,-10.139147026983716,-14.141698906483525,-8.053787413347788
-0.1093170490681943,-12.337458576399676,4.573190002151677,-18.708395307895124,2.668216791911436,-5.940632186420396,-3.4216349042596392,-7.680502984175812,-17.981237809738804,-6.739478082501952,-16.125390945138015,-9.193464846001667,-18.88144416865064,-10.950643157180298
-4.991564852334042,-8.828928859792992,1.007104021436224,-9.77575159056732,0.9335004547992726,-6.0115235989571225,-4.041769102536227,-6.103446917573963,-14.825254041042488,-8.690251759613112,-14.614021203023038,-9.485022635397376,-20.683587721684333,-13.350206856932695
-12.06397357229383,-3.329375039271089,-4.673569565105449,8.750911992489435,-0.6915375348592414,-6.294752531591686,-4.862737244963896,-4.114672742494514,-12.512437363511877,-11.16159698489318,-10.975809936983673,-10.980746248229636,-17.55022515174116,-16.616495583014895
-14.233353963143056,0.0041146491587387,-10.239945629710885,15.260625232104925,-2.082142218466269,-6.568750527024026,-4.403999537274073,-1.6270832277280816,-10.634248761184406,-12.318825311341744,-6.34955423821064,-12.392502937368144,-10.747531372746735,-15.91681337686306
-10.528957746010498,-1.302107486191142,-13.24530605068206,9.368755735159995,-1.30393061986033,-6.605977829214528,-1.7976549418135024,1.6733306439588251,-7.944396237202655,-11.097064657069748,-2.8022411921167727,-11.928641074380296,-3.772507450180252,-10.364010073727584
-7.594081688743189,-5.836836883201596,-12.425932877697104,4.352516449182006,-1.2026575452323531,-6.271127738279311,-0.2143040891081,6.163896079482832,-3.2748059138675423,-6.92233049709121,-1.353924126600993,-8.584297770039274,0.4766885001049612,-3.406757705162404
-3.642775332087512,-9.595459998937576,-8.499641489571214,-4.566931105668904,-1.0831252157575508,-5.683719890118288,0.8655578854568601,12.061830807257405,3.3974373182734743,-0.2053084502671973,-0.9740497774544624,-3.01205476415346,1.8645725631599284,6.39990189970214
-2.630292265553761,-9.483789673795387,-3.741379395808986,-7.41956367039372,-0.117359614754146,-5.187330632340297,1.4658879193897898,14.023397660589236,10.582289347682856,6.794078853671743,0.4266753494703295,2.764551544057145,2.6848478489580465,10.099269031440866
-5.7655205103727365,-5.7583353007810345,-0.5580935456526355,-2.194990004353642,0.2955515474014984,-5.053835790788529,1.0352662570478672,11.742817831648695,15.995738738452332,10.411079239688034,4.034817673173606,6.641501402525769,5.280252150544875,6.66616910465352
-6.995773136034149,-1.3182218410032729,-0.0406621206733781,-4.834342513750543,0.7482538891488777,-5.19056257009113,1.003319966388469,8.884594838601855,17.9109258610618,8.03007543876131,9.13637173599708,7.757839411851156,9.852155593811494,2.8783594718999
-7.415732752607567,1.190684388258651,-1.486529897634206,-13.252761381216525,1.5241755056600337,-5.159911334910033,1.2333326510631992,4.161341362306156,16.183746756090162,0.8373930366870415,13.876087661252964,6.859295351763615,14.34321365470272,-3.599200931050073
-7.076267504936538,1.6025834126268634,-3.120933603638417,-16.159503145960166,1.6109675521101423,-4.497425570928411,1.8759212840306063,2.1218927425106138,12.255173996355037,-5.957235740442561,16.752864717282918,5.515892156207347,16.260411881198607,-6.186494420334494
-4.963352149100948,1.85712108393778,-3.3607677863833887,-15.586093147408183,1.1597348516099577,-3.0129831375942606,3.2445968480242646,3.514918074966137,8.210776001024135,-6.460174775551145,17.342601109972716,4.918896530994803,14.632288611498398,-3.68238234921844
-3.723509046031633,3.696512354583437,-1.7161262535604247,-6.9363529065643,0.530970468335517,-0.8352934209718592,4.0005643050134205,1.9661570191176003,5.61347441059707,1.2760574709860588,15.906056854526875,5.216566593700913,10.458894596936176,-3.452986025452043
-3.115452636937768,6.80793844460827,1.0985398362314438,12.369778762897162,-1.316281993058067,1.726516367471922,4.220819699132092,-1.5357124859574076,4.851961526444935,13.221975399967038,12.789439240986198,5.771275282474041,5.608821223367957,-3.831630230308
-1.6778727484393232,9.11247913390956,3.65574821811466,19.89865517299276,-2.789778249855516,4.293404860322074,4.822274439096601,-3.572933169904797,5.253296286247292,21.974784194896134,8.420431267702485,5.921107768302873,1.441574302707875,-3.1524193357294004
0.1809311951992662,8.75142586132219,4.526697566192221,16.00950154170651,-2.3508567966196945,6.466470394604444,5.581795281780059,-4.984876504166887,5.67628916830038,22.15452852668023,3.626400321644985,5.516914355726658,-1.6613602433252614,-2.305999211503796
1.2963507354798771,5.823742307101631,2.993695738112219,9.28351213064252,-1.099558674791116,7.9593506320819,6.166638468486615,-4.788345806362585,5.132110582010045,14.302511215766875,-0.5014297791236326,4.865534991468836,-3.776200214574552,-0.0217558301847804
1.73698508274459,2.356677687883645,-0.4028921226091833,-5.370396628679001,1.4449610235590462,8.827923288026197,6.676245297345522,-2.355895534584809,3.165821548725682,4.196612405047617,-3.260678373520228,4.308498015323098,-4.7096261416778304,3.867475454251685
2.2006659921344043,0.6996134764497608,-3.836458449838213,-9.496302981485805,3.235840179615909,9.537045638473831,6.12269910158336,-2.1295753561104624,-0.0237167473614388,-1.7019310326802213,-4.693668429833276,3.930551735120453,-3.8003004141939583,6.338705094605562
2.452618032465378,1.8412462886825367,-5.035199272519789,-1.6725545715320482,1.7892155679720396,10.6136509589404,4.357349685615249,-3.971352175068902,-3.6725013239461415,-0.8935053197931908,-5.092110124153786,3.647747125236686,-0.3887291197525195,7.491848388053677
5.34106552149381,4.980361345574261,-2.755465802336613,6.704132146859836,0.2855256420038382,12.05888924680047,3.777007810724361,-5.240799577171678,-6.735153465193234,3.97356096615484,-4.248869207303401,3.4833136277437697,5.390591219795036,10.067609956625622
11.224341925738573,8.431816539755335,2.1287362830989878,20.21853242949584,-0.9063766402691786,13.0884533934413,4.270831749615053,-6.805587938557213,-8.30845442550078,7.859569088285124,-1.565547136923855,3.6589705011979774,12.019014222635157,13.564108874276728
13.580871015479024,10.878337733292934,6.985747983240697,23.01086045902121,-1.7797854614259674,12.61270512185631,4.671203208658446,-4.021560757983533,-7.991867953327283,7.427608489748833,2.848168225850201,4.360114616600315,16.750577708494532,14.679329392128931
12.732544469159318,11.94791923565287,9.237520735298723,12.929427358758986,-0.6854596947881914,10.19201046156881,5.460752612505968,3.842061675544949,-5.934368941300103,3.249432789995496,7.352374954720023,5.4204095303123285,16.832950967390712,13.561159914915148
9.655177714302289,11.893479057608104,8.269245874475766,0.2992378817740175,-0.2620846723652836,6.639509427656127,4.53926931316412,12.23849101361798,-2.5360503159152774,-1.1572656442785636,9.534494360720966,6.309474333202591,11.402064823247631,10.650254943332367
2.8184441169026626,10.929774233803522,5.796977550690773,-19.28562287103493,-1.1906399602053546,3.623355254287442,1.6329449876589643,22.380373745180517,1.889118353818994,-2.2164615522767326,8.202564432546259,6.526993009800993,2.753518987445288,5.126237914989895
0.5129888822050037,8.925072852209533,4.30583397967288,-24.588270256966418,-1.5337244924016524,2.465767159609565,0.1725204407883053,25.911634321122424,7.103129171376111,1.2241098857189572,4.68676969727763,6.072585678230018,-4.431933169993275,2.394883200348101
3.008137719083629,5.701556807986016,4.891938631087468,-13.135981876203722,-0.8498911203881336,3.1007199618744314,-0.2124375107243915,21.420953055801935,12.56082258239086,7.380103942709443,1.9048562669705684,5.50282804390381,-6.003603301586944,2.6752375977026546
3.7188680588520064,1.6277953002251309,6.405377058313768,-0.0497923662537406,-0.1907789415283516,4.105488786736753,-0.1370169165298931,18.17281121495993,17.102969558671592,12.95919335306961,1.81782733398907,5.413972846526282,-1.4823480378274838,2.0680121876197397
4.378061841664476,-2.099749709977994,6.618742981567265,20.28341649850716,0.952664273776324,3.838237291679768,1.0747353601034095,14.025828766008384,19.231924380775293,15.318051306676349,3.640234352829749,5.749321534474993,5.244455197121535,1.7766320307453085
2.603855790456354,-3.931957949740124,4.309697240015053,26.53582517983269,1.858455362496904,1.74824753825766,0.8324408304136924,9.171395194334984,17.947670767506494,13.894001138077194,4.569910292924625,5.594275721215201,8.671068331509556,-0.6666983420620988
-2.696859313119268,-3.093530717249964,0.3618294453067261,15.58221108833552,1.177772245398711,-1.2489605308610647,-0.9347306254759477,4.94385824867342,13.49560065640389,10.063937310776875,2.385557406790831,3.774804081012429,5.885954810791984,-5.914232209395113
-4.263910712164972,-0.5831642172789238,-3.0502887912402272,5.593206770133064,1.1984367253624133,-3.625334635808066,-1.736679224983795,-3.368004225765893,7.326592185962839,5.668127966331682,-2.534071121518033,-0.1429389739115585,-1.2728019464164682,-10.36895643202774
-2.562394971071732,0.9797724583118884,-4.358316741206142,-9.07254590920666,1.7855639903165368,-4.5268601743408885,-2.0536091882200265,-15.53287668072768,1.2267737053693146,1.4300325776333094,-7.599665243483673,-5.302027045892364,-8.033937377862154,-14.670066636227444
-1.132930564626912,-0.9639466372767966,-3.816983861512637,-15.968756638611676,1.4795401730691145,-4.334148657492878,-0.6725222871442992,-20.41742906012038,-3.670586845661046,-3.3422467806597203,-10.28983738276047,-9.999358854605068,-10.875295762415618,-14.668895206945889
1.382686149730735,-6.683086193089104,-2.9920925006890124,-12.074382837985048,0.6380904396347005,-4.050582158425749,2.953361954479245,-18.00499117736824,-7.194088486977078,-9.425824038162071,-10.104877984842386,-12.806948562821622,-10.285219908388056,-9.3231626102816
0.6821689192775258,-13.274650724537375,-3.101878647645729,-8.587951636671283,-0.9553242871430054,-4.190826302142387,5.512914108460524,-16.596047256231,-9.640206000900108,-15.942344491009136,-8.521285493490375,-13.409034070072089,-9.638683023997231,-4.590085199432538
-3.918066223088225,-16.348297819860722,-3.8171034697598696,-1.704532088197606,-3.1064753460027985,-4.28224639344411,7.295603790979823,-13.899310052771842,-11.106142671871876,-20.071376342582123,-7.309914971983911,-12.440858470884532,-11.40008942031967,0.6468732550797617
-4.526855832213874,-13.35884225884232,-3.630954905452981,2.3541117909504177,-3.169270448506892,-3.4368354530885803,7.394590247782009,-13.14522897489676,-11.35311505769411,-18.93595196766522,-6.996705148106945,-10.586494660172216,-14.396403967177855,2.992085984041856
-1.867147937207065,-5.892934063349095,-1.4104285359994932,2.112786975917584,-0.7697025611181741,-1.3692534575723316,4.977225654972759,-15.688995576382393,-10.268906611035309,-12.28759643435253,-6.799151705425785,-7.942621672809836,-14.837088028589774,1.1083767089473051
2.514880609865486,1.2698173781882387,2.350566188074059,-2.5310431592171425,0.9102938675903864,1.1798263214850433,3.91113589140051,-13.340894441602368,-8.345196540024103,-3.5649200206692093,-5.79282077478084,-4.365620682953378,-10.104736960428395,1.958162134454185
10.231642748427255,3.7857609214819945,5.741241741343551,-14.000926561879266,1.891421141120294,3.0237470954854304,3.878268215394034,-6.832358629760522,-6.591383374609694,1.936772901805192,-4.020540287517602,-0.4035451619332306,-1.6517928512183353,4.593546426915999
10.8247113749526,1.0166453132213218,6.893050828266185,-18.065817662854112,0.752844194624677,3.5207393122898853,2.841037767141946,-4.403317198104271,-5.912643476806294,0.6065134907280552,-2.571452622061317,2.363161914823108,5.780573788322043,4.356267110208531
3.669874998538736,-3.892869682721024,5.354933920713796,-14.73976779749168,-2.3296622511829783,3.0234842142340392,1.4557947188919198,-5.082274255044864,-6.522244425382266,-6.916147699775623,-2.7176392987454268,2.256399674009937,7.868692099716816,2.119312940033493
-2.24575437102752,-7.051320144272045,2.2227950046984635,-3.5641495531903717,-1.7434300738591424,2.413297841448508,-1.0611776850010746,-6.881788803175633,-7.887631572396996,-16.074859941665668,-4.9040732948691375,-0.9806209651174188,3.893532733185016,-1.271397814561931
-9.215008332088562,-7.060979686083464,-0.9232266486341754,19.38390574437038,0.8845672658377757,2.220150280018835,-5.002863168863682,-11.390100554256234,-9.164503822759206,-21.30948706079654,-8.327104753560631,-5.592174048676059,-3.310505625770734,-6.582241925229921
-11.20433809018677,-5.569688192928904,-3.1843904901496547,25.77553365413418,3.5959363253696592,2.151321119528019,-6.174861686621338,-9.284705801446892,-9.65746740076007,-19.443119458222967,-11.340705934930805,-8.925378397199566,-10.11839575615266,-7.427941373773606
-6.406091907669892,-4.994207936269525,-4.620429852074928,15.06025003904634,5.483946054775913,1.4018875641769633,-4.5023605861602345,0.0907831622815323,-8.944149321822696,-11.36935979766436,-12.428931066969229,-9.368910143043898,-14.643616095257812,-3.310703145400914
-5.151226926966851,-5.935328462506208,-5.640040008988285,2.8677445475794228,1.9435916170488112,-0.5830564552332289,-4.04902037728946,9.50483016931059,-6.730626608589965,-1.2030035424014027,-11.12467601637564,-7.342736647793229,-16.81448163348715,-2.0613710536490406
-5.88380001605787,-6.786816135466143,-6.316389485269388,-17.279618810494235,-3.125652186993702,-3.5490713467035944,-4.026412084662672,21.131540020084262,-2.778186120423909,6.3589992209330966,-8.174674585459254,-4.452220023096142,-16.6373106172125,-2.444757281381491
-6.086002641972001,-5.624493373501228,-6.308244525612128,-22.265196427982342,-5.756623996324183,-6.503522644691014,-5.905835150976117,26.030751948723506,2.8923728549031136,8.788242691579473,-4.703820750390152,-1.7329454991926312,-13.142485378500936,-2.2974781030425606
-7.428381008487781,-2.2671842803544244,-5.3074830845816425,-9.041481750111563,-5.220788509947027,-8.345599931989154,-10.526437706213493,22.52225098801957,9.663375441143865,6.934198860095529,-1.0322104367847178,1.2021237287075284,-5.474800849447069,-2.8678817382208317
-6.52633215048796,1.4849182997869246,-3.4314221257729027,-5.6276969119510944,0.4590911295304359,-8.598576450352837,-13.11359361872935,20.7753526375463,16.196902618049943,3.96761446490191,3.6337404626370944,5.271080041271123,5.067012694459411,0.6978400008022333
-3.2058298197208206,3.465944906783521,-1.1887111256270888,-6.978119343312631,5.779321269454147,-7.731244911987645,-14.03121546530662,18.468706705430865,20.758412103174408,2.81627552122184,10.027573688373554,10.272138345560634,14.560232342525532,8.851479891371877
-1.8077171527486904,2.9736424427539525,0.8271951662200987,-7.782676650353173,6.771499164200624,-6.822662669061272,-14.008228775616136,16.101537352393326,21.915436107731296,4.010364724797828,17.106944065702322,14.275286446364763,18.62354471862976,11.511469042904633
-1.8062179567953736,1.2463845972976575,2.1647690160619124,-12.342856307881494,3.830953335771557,-6.773730779785536,-12.025408403083471,15.178885119773968,19.264458886856776,5.656795820491203,21.689754292768946,14.846228565657984,15.575148002554258,9.202980752150054
-1.0098854464172804,0.3881286035657698,2.5650489715760934,-4.338947293553696,-3.1170681166315006,-7.618957558913825,-11.171942088012562,9.366237860838307,13.753511757408758,5.54427546111808,20.39392029119221,11.088892524387235,7.788333615898102,4.76444983963034
-0.1039065351709947,1.7474050931360663,2.00270062358811,17.178411587230865,-8.533839784022934,-8.464619830952206,-11.40588204735324,-1.096683340030621,7.330985394447672,3.449513700098171,12.569986114336624,4.659078501962217,0.0146401495259471,-4.021906908987632
1.0257211256074317,4.94678040604762,0.7964272692641607,26.235515519858787,-8.434412334850755,-8.13414447359235,-8.667434136430895,-7.086158463586412,2.0181264899291884,1.4216353406289004,1.5741223250522278,-1.2053128139456106,-3.8684155525371446,-7.145334023761122
2.639349811235663,8.139346176758051,-0.3968824122834444,25.083956900401457,-4.13067666496794,-6.045339645723974,-3.335153534790062,-9.235438662617186,-1.104558659163934,1.6758068721767805,-7.091754909546479,-3.8747668771957535,-3.024817962370497,-4.019277196885032
3.930305836857064,9.269161938264478,-0.9026925683155308,19.961202119706957,2.425983845974604,-2.649243693454414,3.400559766557544,-10.312783750014864,-2.364861817420241,4.102242178901136,-9.462631411677824,-2.9966183967782207,0.6626336486267752,-1.3173848502349146
4.964530404572539,7.520212188371337,-0.5348410630456328,5.545371484171533,7.396226496779194,0.8925343796476763,12.342931327441644,-8.391920079457028,-3.0940722307586945,5.935701854592184,-5.619881496890091,-0.4359825861308404,4.536085450514271,3.316301340819938
4.250020588209709,3.957463303383568,0.1327450092475501,-2.317137260487196,7.2515969680133185,3.509810103107732,15.97003629242234,-9.727454447904169,-4.622786056112133,4.1438371918618495,0.8732007089413458,1.2655067442055827,6.784041216267283,3.220496108311759
1.4563250890169503,0.7950794064266429,0.0350250894692703,-3.1758229859600444,3.093152605972429,4.873396291774491,13.614136742288268,-14.67084369887364,-7.396879619677929,-1.5949210183630935,5.765317918402779,0.5847825196369163,6.690804968399155,-2.793323893096535
-2.910752686576062,-0.2833600388456077,-1.698942557967614,-7.579073276839927,-1.352634337559662,5.42818894413257,12.986666121585282,-19.350572712549635,-10.821954763865008,-8.198347101534761,6.636894087821778,-2.35074543396528,4.082079390734246,-8.166378440383008
-9.40344171284916,0.5598090185671687,-5.103790012089414,-12.151875214011636,-4.399926010240892,5.849527597289429,12.425818340064058,-25.23586913554012,-13.845863179776536,-11.612562177085096,3.495761612782076,-6.364704676866518,-0.8721566977336446,-14.663101142363548
-11.057923745651152,1.554907483532975,-9.20099064612981,-13.77879153350042,-4.376420125797641,6.386349996361867,12.14363819335476,-25.620460707789217,-15.71580941754034,-10.264373753468808,-2.1152124895757467,-10.247876637223811,-7.204241553059218,-16.14985271622362
-7.345560869866654,1.0156811723632777,-12.399665454907398,-13.15484763145057,-1.861355993756605,6.612932061582466,13.348325614173335,-19.58130538166984,-16.29876508311206,-6.379303486317777,-8.078467070783065,-13.26281468032176,-12.882930801886449,-11.214993358956113
-3.345648595512113,-1.0146330719480845,-13.269694564773728,-12.22702652924848,-0.0938582788866992,5.797099364877,10.798806144544375,-12.573247989952144,-15.831733594890524,-3.9080575639184687,-12.157928344490031,-14.941749873706415,-15.580596855747164,-7.17407422097784
2.650081278521916,-2.750854074198652,-11.293807104114627,-10.562265408437336,0.330623600882655,3.6286256773082335,4.627769714107955,-2.8162188120767917,-14.486573547016938,-4.905787974963552,-12.555633553978849,-14.74589843607113,-14.155396341291071,-2.334225310134279
5.091586052015315,-2.396162389765758,-7.179289488485657,-7.477774986755041,0.1282971003188329,0.7307464923202651,0.0528941380386346,1.7664480825260085,-12.21515989286431,-7.649674462526725,-8.978802449077442,-12.198766128324992,-9.52458031349553,0.6588674166205069
2.980252400729845,-0.0038064906565544,-2.4936340541440964,-3.2348431157114077,0.2700152844888454,-1.5500344428902726,-3.728857846279943,-0.1144836394048273,-8.983053533450864,-8.216274197026918,-3.366527280264973,-7.452237927043535,-3.9781853331181374,0.5095802428131223
3.050603631362567,2.376270426232786,1.205841488655274,5.754049366110566,2.094120307429461,-2.068190945191289,-8.043319780677363,1.2164397571341865,-5.107888759369331,-4.108848814438471,1.010439405064071,-1.6416655460477294,0.5356890797233334,3.0028066788269903
3.9467789430986286,2.5210130020364856,3.1686156834960157,19.920754140478167,6.145412043833369,-0.8734736231961797,-12.01406948119906,3.877355802045919,-1.3541608129260987,3.319457869788528,1.9458870797630183,3.497251655842282,3.56992730191676,7.330191849121963
4.384557839315448,0.1552062185260379,3.590177444176038,23.53525453248681,8.302170327748035,0.5930514444934883,-14.377726524470669,6.665994753343233,1.3341646806428864,9.80364674470238,0.1874351665790339,6.561429310011341,5.751796081515213,9.37300531623132
5.303144531269798,-2.65394034451949,3.062038092192096,16.219860315947074,6.085844097967582,0.4502498922272203,-14.913545070072871,11.04225475196604,2.3308658716570747,11.62476253763252,-1.174530455371432,7.2289772775906895,7.394262428069475,9.810694408788304
3.737977295993951,-3.236870116701658,1.9655491634500728,7.875411633217001,0.7665896011294417,-2.134802064408408,-14.758618287159283,12.147017354361758,1.8063017154455852,8.568372522260942,0.5026235014922955,6.272925036506222,7.796492476469033,8.693518121606921
-0.5033274125932627,-0.5776764045963856,0.5000677426030589,-5.090500468891849,-8.214569895984077,-6.12195907058522,-13.509099067130665,9.888668748102065,0.9016090870046468,3.91853070180612,5.064987677087541,4.956426094746703,6.140576063458335,5.220702896083548
-0.7405172829702904,3.977024186113589,-0.7046708414950394,-9.64898002003769,-13.24586540372778,-9.2254291133301,-11.79207103639827,8.979038539515491,1.3378960420311312,1.6888234761771752,9.95756424684121,4.360568872813618,3.083563024312601,4.972923987354497
2.815239242812355,8.071873469513855,-0.2628742139235731,-3.745669751831206,-9.788951100422818,-9.59445469536682,-9.750821543294675,8.553900669679793,4.429923861383653,3.6043182309248767,12.868934957556744,5.022777965053087,1.1719338501300918,8.113265148739275
8.79477358676272,10.308717071479885,3.215679128200968,-2.8032675867141847,-4.014369239565358,-7.192604124204936,-5.889301753669336,8.623860745904706,9.976733028455808,8.284629662473037,13.802533065530476,6.846203101568034,3.203861752157973,11.370796156690837
18.803252783841156,10.947972874082346,9.62975449545298,-3.745165347039823,4.173029705076052,-3.7015670711746473,-0.2927102301568635,10.015677117269552,15.906148989244652,12.903029549288654,14.447896302704349,9.125818138070052,9.736049411785498,16.031705013141696
21.555816064955486,10.917225092789357,16.57392826931182,-2.3172654461868216,8.845476710866542,-1.0206762602598085,3.0155431724812534,8.893393119288143,19.272316759258374,15.459204310314838,15.715415635210784,10.765962642815555,18.01213081600741,16.810266048153135
16.412287722402784,10.436572610281193,20.403629134383905,-0.5621934698941525,4.540464008270664,0.3248006542912023,3.986134047323845,5.296918469798163,18.167901328298125,15.640948141583614,16.299659170150345,10.84466970525332,23.503218668390627,12.985202925316386
9.224668103929687,8.79631689458758,18.74233369630344,5.998159091942065,0.6217370413843036,1.4510827767310222,6.394387537294227,0.3739682411771116,13.13635950219976,13.981708928608244,13.959720305803266,9.309800261332311,22.97341566651292,9.22260002886673
-2.8640235415928745,5.416912968430491,12.428366024877167,17.995554109853344,-2.2064057128586003,3.82184234433,9.467339250892172,-6.773417742335931,6.824672487502099,10.753004242796337,8.165449161672313,7.168474779186315,16.646081127435586,4.1666509238977705
-8.667075051210844,0.8888426955490907,5.0647471116525455,21.302796108425188,-3.688629374730004,7.591852613599045,12.694775104307713,-9.05810283360397,2.0342240774720253,6.006454401755036,1.2112683868658678,5.742684789061185,7.855382130645417,0.7724530392035395
-7.049036100893929,-3.22082012565917,0.335323081193529,15.98926928675898,0.0141261659140586,11.165592444785684,16.640929563544155,-5.9386936787384,-0.212763445917794,0.5642973898915873,-3.4959369970332475,5.450114530616421,0.6688834723322632,-0.1523256990797289
-6.30139321371927,-5.592108426231697,-0.6938039953128801,9.247705470760422,2.984200034233107,12.46792386914271,18.52818127251952,-3.469135185358679,-0.9362139668281912,-3.5905771382932823,-4.306610309008853,5.260988127941275,-2.5855240086965914,-3.679499711057787
-3.620931474107992,-6.0939059640261455,0.02605451626928,-2.0789080136549405,4.17559460602351,10.817104212196115,18.213635447241,-0.0154902382526184,-1.6867502166886226,-4.553097482911534,-2.55767483450839,3.561039509067129,-2.2528426785523656,-9.103245386614514
-3.2880476333197493,-5.538492185528291,-0.3257517351672163,-8.776834103394254,4.491051974909649,7.649495991288029,17.241138060549897,1.4737655441827626,-2.822903516732054,-2.452027525535872,-1.1384929199473888,-0.1982363453011615,-0.5352417583118729,-11.913513200739043
-6.420046684305744,-4.712549475125371,-2.7983238882895805,-9.675791165044297,2.417542484994597,5.3358885596285575,14.93427994873593,-0.0476233435631195,-3.2551781257826,0.0168894732489057,-2.001879654077854,-4.639268960057457,0.1459003089512798,-12.63020782954178
-8.228485039973977,-3.86404611058548,-5.919026286327316,-10.15122059507807,-0.5924699338378834,5.107832211927267,12.575364110188737,1.5882212730856866,-1.7824248081903171,-0.4276179672573335,-4.947331631947026,-7.389199254098685,-1.4435516690304162,-11.763189668118205
-9.930427880239945,-3.0989581270842805,-7.304413043326104,-7.647574708335576,-4.212678670108183,6.012531687770462,10.337440552587612,5.666873905803914,1.4706831040983417,-4.584210121580092,-8.337305407233654,-7.06846850007738,-4.744688250558994,-8.362859488611203
-8.282147302152506,-2.9244459114882275,-5.879144821400264,-4.702440400993123,-6.119911740581704,5.906055474467081,6.749541525519407,7.826715934673094,5.027435203569752,-9.48180600491872,-10.46416824890164,-4.430141966371597,-7.753792854294581,-5.80271406945549
-2.3510042950406724,-3.973340436875013,-2.591902942691295,-1.5747459884022277,-4.9296367349680885,3.564291012563117,2.0878272692709205,8.894753204292936,7.415160135175054,-10.413087069732455,-10.172064368245092,-1.4702487915757525,-8.225960866139278,-4.055456241310884
4.464917424187674,-6.042021334148064,0.7782833427487361,-2.637065081775643,-2.556425029273901,-0.1100452544496661,-4.1221637636244,9.613256491782936,8.4266113198946,-4.803832676316738,-6.8089748633710165,0.6276537278644625,-5.2295476316260014,0.5083738002622761
13.202407099028497,-7.63469461957731,3.2395635307956,-9.08198367123653,1.468190194358873,-2.9520343173004697,-12.17675777650283,9.272972966966748,8.978137829234647,5.392032739823208,-0.527939882349866,2.5674051784496754,-0.0655611282221961,7.374551772327168
16.6109922482334,-6.867602451254648,4.986205409439574,-10.099938857570368,4.358010731239559,-3.606988958154737,-15.14584993809863,9.973048457675477,9.802102002875085,14.886688668070096,6.9048299459030105,5.823100358901101,4.3603985914244845,12.104688414780146
13.624625015243884,-3.0938334132776824,6.485779685599635,-6.497904496120229,3.2721109026367774,-2.739965909333833,-12.605613640500026,11.771464948692158,10.45404743746352,18.845434420584493,12.122209898336418,10.45269987220697,5.599212145075583,14.968828332081111
11.021752116207043,2.350369670851798,7.595244674884377,5.000939162928797,1.4929222046995232,-2.1722149162314324,-10.830672154337892,11.767260856839648,9.74161171208462,16.15036796480986,12.153524759246178,14.269579443046492,3.697288358516048,15.653667403402997
6.904314712827755,7.123551872550021,7.808817937262116,27.253404581185045,-0.7384418111468931,-2.8371622194400423,-8.293264483235818,10.251583864651876,7.120379555916912,9.71421797772787,7.336407943182071,14.550665277290957,1.4120879427036357,13.01130457965676
4.322584415937725,9.674128818539508,7.230346304844653,34.64328585202894,-2.707636201936351,-3.6837052504979546,-7.485543573952974,7.881883616524215,3.526214819861771,4.007830670889753,2.141200085171853,10.781277571233735,2.0862235699706737,10.466567002311486
4.361916592108434,10.09922008245509,6.882473958866093,27.046001755258256,-1.4820963378464522,-2.736110014020529,-9.534711022526398,4.080147952931862,0.6693601893365866,1.9961448543801303,2.027712572252586,5.598543880618415,6.689465048717729,7.641757903731158
3.112591786521403,9.332632902847656,7.695793412411643,15.76245258356125,1.105748032368418,0.6768537874427949,-8.161691007437419,0.2783677474346098,-0.5784404259912534,3.6141521862761534,8.312441847840454,2.6690962568940755,12.516750583398004,5.557516353994396
1.560199177807678,7.717314506694596,9.154687132408476,-5.175159194752182,3.030668282381121,4.786265433166111,-3.99240766800329,-3.5077572092359333,-1.0862364506173066,6.333008988058854,15.852978662448772,3.3095935146181183,14.897198484095863,5.012152125824722
-0.5279051527763479,4.615112840073756,9.226205432448854,-15.638432016893905,3.611831480110392,6.639713319320034,-1.5431551478631869,-6.569132642239133,-2.6927455548638246,6.93340127358916,16.620493862377423,5.119733220632336,10.7944773934949,2.1875867113287564
-3.661223943240532,-0.5273076335232858,6.012674858430046,-13.792318849762504,1.9784841106112236,4.726359242989506,0.0751202462971855,-8.448394341936618,-6.437531295595223,3.281058839337509,6.786195569098748,4.115022149023293,1.4326749693956522,-2.5847225233803672
-8.438135173021148,-6.9150202616433525,-0.293854722638704,-16.321949206609133,-1.0293357162844583,0.5191586482683554,2.6003717374503275,-10.214761758197278,-11.456074718350168,-4.6301393215042985,-9.062605343579412,-1.5411511543623249,-8.32679620004952,-9.495165903492811
-15.230791184693194,-12.463314115851498,-7.11448118832033,-18.52192400007897,-2.869868431573793,-2.6194562841677573,5.421869672481567,-11.517651260987249,-15.57782774671938,-14.62019011093892,-21.06511965171944,-9.736655986470655,-13.536513211871908,-19.409447148742828
-18.115774610691226,-15.273740342115198,-11.335972496048225,-19.308955777562044,-2.527710576852592,-2.2959049179186355,7.714667634665664,-12.580948111052573,-17.08061526689366,-23.26333741524909,-22.394047491922244,-16.25818076803696,-12.849948344381522,-22.52658984523173
-16.88705313464157,-15.099847213077473,-11.73146017155932,-20.487590737847743,-1.3355361888116195,0.8521131896961389,9.574335023755832,-13.506876741626874,-16.043159836058255,-27.54295618894868,-15.316209718923332,-18.5013026846116,-9.354009646975182,-18.36970654780358
-15.2036843378979,-13.386186356099886,-9.769865099251644,-17.273471686097746,-0.6956151906875163,3.774635167682448,8.431369791645604,-15.628268742142586,-14.184956909066804,-26.45774275534205,-9.205444752475412,-17.509312048896483,-7.894796574606842,-15.281332902520854
-11.678999286721654,-11.925496071425208,-8.133551191609197,-9.68276383569684,-1.7456691093228147,3.754246358929428,3.816110335381383,-19.1873420600775,-13.451243994914206,-21.57178469711296,-12.03516766571104,-16.508925929665644,-11.136600502766928,-11.136534882327757
-10.358893487380048,-11.481056152278878,-8.385237627658285,-4.7363119646129626,-3.1204329364297565,0.7738558101628814,1.260538835025333,-20.639866060055603,-14.577416971531791,-15.99841261114798,-23.042941496917223,-17.524376337549207,-17.540179392199725,-10.231378275189444
-11.88670359338385,-11.56737631350398,-9.908852647274276,-1.9058722851516616,-2.620468233737385,-2.6219293935021817,0.349252847194066,-20.138048097415,-16.694292494697507,-12.405092880530102,-33.27950348368522,-19.419410950089848,-22.698367571267635,-14.116252123460756
-10.494173173256328,-11.314432860848676,-10.91167960838244,0.1140824747001948,-0.5681244361986295,-3.755450421680991,0.5024985854198002,-16.67899407822927,-18.074147504514627,-11.44877386020302,-33.48370916162685,-19.196236597970795,-22.6863144111347,-13.737281095598425
-7.026522483724728,-10.38094710009294,-10.321922541943657,-0.2125365281624659,2.9066207178239787,-2.209368959678184,2.955102396987477,-9.262434395806826,-17.309954413101817,-11.77850230167844,-22.070931225334824,-15.173113514842344,-16.713202920607408,-10.155085099793247
-5.049491973177465,-9.102969801173945,-8.734132069640411,-2.8438145182646126,5.043892201296614,0.0131663218376143,3.029314144154951,-3.885154800884493,-14.105804482930782,-11.473245061526194,-6.188961013050706,-8.908632210978249,-7.334417917418479,-7.101351353195428
-3.822405123762997,-7.975302824757978,-7.663630702652826,-8.260712226806392,3.9534217782255983,0.5612241867992545,0.7660422527594098,-0.3193802567412566,-9.28783169787945,-9.616413111718677,4.645858879899276,-4.020812524948367,1.4343915220973624,-3.094668836703137
-3.863628631068351,-7.113643680309782,-8.016478710956903,-10.5972098037043,2.599444956649605,-1.0680699305822472,-2.272070338484516,2.6545514599074176,-4.163980948204673,-6.7088790258949,6.249606010052386,-3.004019921019813,6.475830640709521,0.1794345229334667
-5.8439964378320735,-6.13426493051411,-9.269859834807502,-9.582710148037204,1.3668039938345775,-3.301832557066767,-7.157255161859333,3.654591815044207,0.29844442666354,-3.7877473883231545,2.125759722375605,-4.966412256511774,6.992947324172533,2.2959569115931413
-4.912885520108185,-4.413077293412066,-9.991395273844706,-6.833331016862927,0.4538540607222331,-4.277438039549942,-9.070362512075716,4.9836180857869525,3.919736504770718,-1.3023662919923389,-0.8155195900154659,-6.3177982815668585,4.538233052561498,3.921269477309563
-1.0650654729706872,-1.5078704226697894,-9.049468274093355,-0.7364159329762573,0.4919003071464255,-3.7271099516725457,-7.686308104199294,6.443321084498634,7.057449690354478,1.13072683952376,1.44641160586756,-3.798902225368,1.9018242055140888,4.476527867863519
3.1474664035502515,2.4025685398844985,-6.401702806880522,0.8411586852182741,-0.6150230607737416,-3.093676560011886,-6.424898837062873,9.429589525323433,9.873301863046144,3.988385258484072,7.40348243985985,2.7432151470531494,1.431266326576484,4.550089533232881
8.79589567530448,6.2560077992588745,-2.9469167753318786,-2.43185931127042,-3.364013087998657,-3.9046190707647312,-4.1491508650535,14.555926939744898,11.822824878015624,7.002403835328501,12.586160438855783,10.129291031202428,3.6093871289075423,4.039904831292214
12.003815913999548,8.379047315054265,0.2047786156854272,-1.965957120423469,-4.714387197147885,-6.158062854009884,-3.85325288835949,15.831063909610904,11.986082002094877,9.091431350667,14.04476751238662,14.30153910257151,6.801835765807255,4.36554016902741
12.266959809550544,7.477170238610306,2.369304314560757,0.79974388281693,-3.517987545463322,-8.320232834172238,-6.142048907675919,13.37096465851648,10.07272676684235,9.084195800295548,12.401603863538064,13.432134515626592,8.501855670766318,5.753457241633423
12.483268439658149,3.853232757048282,3.480919791798513,6.1518246381874855,-1.449880717703951,-8.807753778282311,-7.2063708453860755,8.061565537476758,7.123076482594691,6.5569372556541765,10.214026463534438,9.227893170829232,7.231122190873499,6.924999929294273
11.62446088143365,-0.2052124630581389,3.923798552938706,15.695148004646729,2.1146764001225318,-7.391114193859074,-7.787371368383335,-1.593544928179533,5.001729563058575,2.195050121039173,9.037209814343475,5.477970924046069,3.549607572535372,8.271541138192369
10.420930793537975,-1.5717196622581966,4.226252877033339,19.47099180228995,4.044238025089007,-5.206604793869985,-7.982760355525445,-5.584896944763436,4.886744103751177,-2.392327977719404,8.267854721509892,5.0645218874845455,-0.6645960591343467,8.662605052386702
9.151754582836338,1.6006923054462163,4.740870364888934,17.38384987413737,2.011315102225529,-3.56984465927826,-7.183753438579886,-3.4816056259788284,6.085758942593657,-5.214432684247022,6.471761825120282,7.793717962499997,-3.876206689807276,7.856496161020542
6.77979869463835,8.406747636341535,5.394819878972434,14.880962674353867,0.5461720511252519,-2.8987859282800343,-7.483520220455776,-2.833250695667652,6.436167253495462,-4.706787731053147,3.322040618987664,10.68595372335556,-5.830104562612128,5.765533478265762
3.5152222723964703,15.658450589743026,5.670664820016938,9.746610029948524,-0.9479196002072062,-2.729810452528575,-8.811827678568507,-1.429995908852357,4.155060017129934,-0.6800492180698683,0.0412050607418024,10.406025151529532,-7.001063954713764,1.9434835149058616
0.808130603117605,20.00573263796572,4.948653263298581,5.816007803601697,-1.9819276561095245,-2.5700446012990383,-8.296099205170325,-1.8269919789005256,-0.4341034742351155,5.104110926735302,-1.8729582495907664,5.874122943368064,-7.522220153861511,-1.9314174527349637
-1.3506767357331415,19.993705871523478,3.066280388471,3.74506234101345,-0.3855536318108999,-2.531320660069582,-6.160222764634928,-5.126515729851015,-4.905069145848586,9.458008349065809,-2.133202872890408,-0.9573166091989124,-7.1310496127820215,-5.976660922266459
-3.859528226136548,16.489646536618267,0.6541015897989837,1.7637241819813814,0.3170567381031971,-3.076316877210786,-2.418288346970208,-5.787700067031165,-6.566665147701272,9.527027653290176,-1.94167354179325,-6.657554320927559,-6.3281686519164,-9.537376520591351
-6.399374169580122,11.487629463361117,-1.130404806362591,1.038642197221589,0.5603320319363837,-4.226818027545363,3.610227841917852,-4.484548809592805,-4.577898015217002,4.772605877242398,-3.0194301666916488,-8.856648522502837,-7.175989562967871,-12.162553125328468
-6.55898515242343,6.706415411626807,-1.367191461235123,1.8009812151162157,1.0080643170852943,-5.15400357195611,7.191701212745823,-3.1766040101810846,-0.5285273069206369,-2.3928165258598995,-6.365987352311606,-7.74289701017949,-12.141236484320636,-13.3575496275589
-4.160821047294915,3.22641719380961,-0.0457383571027776,4.2731698370890525,0.3741161074271159,-4.672593178695806,8.212763486257234,-0.9451579213110586,2.9473103129811022,-8.059948455137814,-11.584089653498737,-5.467407678265687,-21.455391737217155,-12.635784664632215
-1.5862020142718385,1.9672370780526904,1.9273865139175257,4.339082894331841,-0.1877915364414754,-2.259072761117764,9.165207215722232,1.2708740156727878,4.238708859095524,-9.42160433125042,-16.927585847782595,-4.15387438984132,-31.52501707013664,-12.324303417303462
1.7126099835108617,3.78975781663236,3.3979101255448683,1.82046199495593,-0.9627273118065124,1.3173572667099336,8.943266616822395,3.317700019551601,3.728213123523005,-6.536158909416344,-19.91972519602446,-4.261642433967836,-36.54465759931428,-12.225508861690068
2.5904673795124475,8.614860945806726,3.738487216005282,2.051522327669036,-1.477208653360606,4.366008897465591,9.015488607851005,3.949570836176025,2.9885365085550437,-1.903315960955851,-18.445701059974724,-4.575412808104886,-32.60023848381784,-10.843618363115612
0.3756744239378437,14.485403059849972,3.1058183810907,4.334345471114502,-0.9674695009800076,5.430174253976901,9.596697744092689,2.7292209246637524,3.142213417992778,1.703494110429375,-12.04259195068613,-3.612940062780339,-20.870076656576444,-8.542873959001422
-0.81055195804834,18.071308133879484,2.0714485313192057,7.356251358862777,-0.4076189944824657,4.344965093493428,8.92462673262579,1.006334904414812,3.9588035608916528,3.308906382575927,-2.6157343445302104,-1.075929038379016,-6.883851620767473,-5.540372728386621
-1.78485740717534,16.821603609616773,1.0678062657597138,12.073381341174809,0.568419132943593,2.360756659361428,7.301812143811338,-1.686349541683889,4.424982871787492,4.077440642906652,6.257320531778163,1.9127801517353331,3.79513043873888,-1.6371913614692006
-1.944670750741763,11.05563523887156,0.1525596631939123,10.071525217477287,1.024911104208343,1.2166538869300467,5.834868825056095,-1.3848411161483052,4.074252333350515,5.850205880120555,11.379319734752514,3.8610018370676182,9.732256304834124,1.7563588056780424
-0.5676547999288811,3.925960896775528,-0.8108378498188529,0.629294638998939,0.1506510781785285,1.878358822067014,4.325399934096967,2.411174636714203,3.67878429015714,9.314514198650848,12.022235650055904,4.195377967480667,13.904232982732296,4.530862841706683
1.187517054452499,-0.9845263193708148,-1.851909453046268,-3.251973979686269,-0.4311202068822304,3.923206789895474,3.030390249381904,6.88554400037929,4.588781589446256,13.406220134755271,10.38555841764655,3.638773225031045,19.956861937975702,10.567493606315184
3.7451508624268968,-2.384296326358637,-2.7688550828137157,-2.9636497440583858,-1.3320595631870615,6.020671195151536,2.187722053360432,13.125080654105284,7.348141197854957,16.30112283084585,9.889967477890169,3.439271319552674,28.095923700498798,19.816569161950103
5.556721332147279,-1.891958176346833,-3.2002793318382885,-1.5644496094763525,-1.4449375313204034,7.054404258196726,1.6953818759382384,16.132341129935448,10.928534740879345,16.907780236334737,12.520073206843088,4.232713335777504,34.58211539080861,23.436110881655708
6.412779082194688,-2.111725503499592,-2.7435060590715565,3.4539964386117754,0.5365284645412219,6.934798672209972,1.7415598902614315,15.24519718438154,13.362923593067336,15.466543043937731,17.270877876228248,5.553977931004667,35.26955587591392,21.57221519738117
6.660445840573171,-4.084715390889642,-1.0716397550069132,-1.0756073168174458,2.4699227862502195,6.482894849958257,0.9387085334832866,13.966629127739992,13.27940722124088,12.89259355918606,20.94641864094621,6.350557710638583,29.699573710452817,16.32873487039804
5.800787662237138,-6.465232851754109,1.856207675656336,-16.000677420315714,5.285812334203772,6.596409179658934,-0.7663596536137189,10.926604395369,11.030005505060956,9.777815241507389,20.74496105004647,5.967061173585165,21.79489216120487,5.521004060871677
4.7301941679400406,-7.000223736835203,5.504052662178967,-20.58464311047512,6.267611850195819,7.472990688307394,-2.0520867630512103,9.09214343811342,8.457048018164407,6.180269916772382,16.644486841874027,4.729400717472711,16.56863064019541,0.2205157267331291
3.3441882710247404,-4.7848919719241465,8.665147768128037,-16.757509253572493,3.120927453103707,8.497931054305901,-3.193654448414138,8.940224088436416,7.473274167208679,2.319486348330962,11.652431404658891,3.6699801201523137,16.045147771018506,0.9182346012894428
1.0683206589311678,-1.27021574918475,9.88408834053958,-6.231464457671998,0.1269604439265053,8.758896351798505,-3.4715579005758843,8.728832348184895,8.56512741069054,-0.8061066046418155,9.534176101781636,3.6732821823062345,18.096385241962214,1.3258642193995729
-1.9874269917879712,0.7226786259802633,8.330327529479373,15.499016835387245,-4.143185988663061,7.682691437694497,-2.60012107805897,9.320622478661576,10.363154768156088,-1.8131195832413551,11.656862779345763,4.762580361735971,18.880729575333365,4.083819877615
-2.821594761892924,-0.9111128025438162,4.547703577019416,22.786662237541165,-6.620436627986489,5.35250812764718,-1.6539703834946236,8.240500687873718,10.610491659658985,-0.1142126832920267,15.540981909418594,6.087139765699462,16.252164012728823,6.180379212793955
-1.2285859825807663,-5.931084992991234,0.4044147109502729,14.991757259266738,-4.290783008005479,2.431599047647357,-0.3914561251798302,5.258598024942784,7.845028955169232,3.3300464313378413,16.604682511183817,6.587506949383679,11.071786082739274,7.06869382518659
1.0057578841148942,-11.65970350998272,-1.9033438365494035,6.6155284603915545,-3.591220606076496,-0.1423328302299094,1.270232494249045,0.4640889087121847,2.582089845952975,6.587275488300016,11.975210768442398,5.800825100971046,5.798404338701715,7.385650598248407
4.662551424984136,-14.520151931047929,-1.178269604348987,-8.20708534331457,-2.7856220219739205,-1.5505547091484182,3.188895509602085,-6.920114015722239,-2.899797798517284,8.22013236280948,3.214366935669158,4.200925065441364,2.2652345352382497,6.160881724128133
5.902805256882502,-12.354468128937071,2.064238673164354,-14.264541120819349,-1.2669827899448154,-1.485047543550813,4.316872455200034,-10.442538495015766,-6.077640416648514,8.26146331242542,-4.616248741257685,2.861378887143502,0.7418129802965225,5.816584123371743
4.2849703817027365,-6.098169358900783,6.007516149141651,-9.294548640899215,-1.1522492247244236,-0.3661532405727996,4.499588588332383,-9.867863022356998,-5.921214026626913,7.789068726896282,-7.044201563628739,2.723660405888509,0.5652837267847559,6.202287004906287
3.691903935373368,0.4770806979865796,8.73215415906823,-5.158294654365369,1.4785936124574317,0.846452592931513,5.014728468372772,-8.153534644286706,-3.542715060917857,7.59640548672553,-3.95472820734792,3.97127103829304,1.0715534929150436,8.227291622750386
3.22963518728386,3.115437764418111,9.296980291292364,2.2142158404893277,5.445393869933085,1.2610664217240242,5.604990357323742,-3.6943453497422327,-1.2753581349653302,7.33396475645398,0.3973135986495606,5.8616265049465,1.780830464497896,12.53473475931579
2.29283466676827,0.0502737143495437,7.980346138653033,4.334767175111838,6.271840527190071,0.6829547903001867,4.539209326750282,-3.638898662783496,-0.9548260394887792,5.953293413112725,1.2592150867295544,7.067961281631767,2.101046928643441,11.871250690803208
1.3790782384281943,-6.683437996481942,5.685695191815171,-0.5748828628194965,3.834894063306743,-0.293166681828751,1.8440272174747412,-8.6269432924171,-2.7907594739755126,2.9306184660629384,-2.355525243684553,6.35914146014926,1.4388337377790492,6.105393238668927
-1.5610067218053376,-12.807676887948844,3.144334068777127,-7.580937568079975,-0.1326925978293027,-0.8993185163584911,-1.610828687611107,-13.03034365188264,-5.632339913124383,-1.0111946539250596,-6.954315583348219,3.321577924550965,-0.1400429825355047,0.9161482340583064
-6.665641435828283,-15.071031890391096,0.560810572106675,-19.3854668919816,-5.199065315062807,-1.019994548314486,-6.218476601258921,-18.56768380655568,-8.200664141114672,-4.3963520296148175,-8.080000216393657,-1.268010649050808,-1.6007656120368097,-5.193598434567977
-9.822412644435731,-13.49743350649976,-2.175923144307617,-22.38294361780073,-6.770213122390054,-1.430054077744444,-6.873001975809523,-20.025651570833222,-10.122589152470212,-6.184054656370222,-4.785349820034938,-5.7757240050963645,-1.769349974974844,-7.723883736610743
-11.239298650697044,-10.74199067272859,-5.100286363630758,-15.410717930865465,-3.362750584671516,-3.0968920421827306,-3.027664920958632,-16.297209516549614,-11.956761149529058,-6.5103164508049645,-0.8925886577540467,-8.73670494180999,-0.7649714586474801,-5.477127282924045
-12.671475379639816,-9.330496450876808,-8.013008779875321,-7.075243379690918,-0.4887374628633411,-6.062398117736308,-0.7647696357019677,-14.164190485653538,-14.38623789907183,-6.383354505754966,-1.806799191540975,-9.934947608354436,-0.4458924412264622,-7.354594118429105
-13.270080621282284,-9.475303292769354,-10.594893817870911,6.095960716548125,1.6742561803608766,-8.913363325963104,1.0167747566559382,-12.308772196507656,-17.38830387592813,-6.763381035544768,-9.662398401168588,-10.580706069304156,-2.917495262940633,-12.39505338111475
-12.741038390895644,-9.440205763234331,-12.516977500813567,8.586536281406651,2.3666500223126405,-9.468268322293111,2.564349805100082,-10.00274637835823,-20.031556285707325,-7.903012315045885,-21.01857342439192,-12.178947858942252,-8.133369895068569,-13.966844608362848
-11.072252009498524,-7.797957182699918,-13.376295079552904,-1.5828227639369925,1.2184155761893225,-6.3217435625910525,2.849039032903544,-8.272536972790292,-20.95767229112002,-9.369528171975617,-29.055484030440056,-14.874806095829824,-12.98156170105048,-13.282951230933438
-7.294123278459692,-5.078532884510139,-12.64864949438578,-7.820275253384771,3.211084325976556,-0.1189071352085875,7.471310885189529,-2.176677423032696,-19.181535799481765,-10.476534804682077,-28.45035929096133,-16.818542791540494,-13.30800859634448,-7.937851529400895
-1.1783455842484651,-3.10949559312391,-9.974474300622605,-13.743119028634878,8.243152857159835,6.461462356770085,16.54090395961883,8.473115167495822,-14.781527385087116,-10.67869902131099,-19.094888884857998,-15.447858754230596,-7.601837718164973,3.5302128087884017
2.630886979213121,-2.8875563817833267,-5.73598017950215,-11.691732422976294,10.697686602102698,10.117792887455863,18.33225914378341,13.512117274722057,-9.135640740947338,-9.810466831321406,-6.004025316663501,-9.853142316299426,0.928400403506174,7.926136579784855
4.05850843001485,-3.365809206491832,-1.3704084981622486,1.6261061347743857,7.892006648868024,8.838874164677492,13.225954478088576,13.341471940143382,-4.458801870778103,-8.259154359412776,4.171828884213852,-2.137875716743281,6.220634763598554,5.344934813092989
4.642752314198486,-2.481898637824997,1.1825848195290405,9.228641812501731,0.9393640105506906,3.093572043321388,4.3650974873567,10.45372826428538,-2.654686435435025,-6.944648003805952,7.289312676887874,3.719364085216,4.094671383020426,0.8456233653094941
3.20585094057304,0.6975135063123901,0.824408828440454,13.22951109446554,-9.777710204964263,-4.418113415392156,-10.996462916921796,2.4892960243208244,-3.996740527033865,-6.794550297489167,3.761672846392571,4.851751348612481,-4.063250654178205,-8.633968194527244
2.2367745912553825,4.989756985093294,-1.5466274617698446,12.504269009709525,-16.063466552644684,-10.251424247198145,-17.171717469993613,0.4739416959723146,-6.568774802400526,-7.813418979198929,-2.374529372946938,1.8867775191225176,-12.046776113862023,-11.446166423213498
1.7483805536762436,8.2034076197084,-3.252991624180595,3.526713432739432,-12.781648132089709,-12.053944659467788,-13.21231121894439,4.91501118089298,-7.173266415385086,-8.568128102973787,-6.258640371187795,-1.4245118721475478,-13.65625663078606,-6.713900013523753
2.380160449938632,9.030680411900818,-1.6776567660461126,-2.6519456015121947,-7.163915616722618,-9.745102331649464,-9.243954805112397,9.466246241322308,-3.436059817246587,-6.955407582115839,-4.957529136509976,-1.184752806029337,-7.620965617053741,-0.2520235745012191
4.849835779566424,7.771527030476221,3.507045612146385,-7.1237440475323,-0.2804745413384684,-5.414349935464031,-1.4904483196975933,16.75055522017371,4.25865506344411,-2.019427830757593,1.214550668573679,3.508063206681072,1.537085536535983,10.970208561709777
6.371935433809666,5.4776977474876105,9.637949253745433,-8.072207301614736,4.780801552202548,-1.9813349382278036,0.4364093945511106,17.732923101672537,12.576608851782964,4.711976887578601,9.15394991102724,9.895312390489096,7.329799626405389,15.103969018474032
7.249206370525255,2.899247008847027,12.814603385271395,-2.9929263668576915,3.792243432883669,-1.3570725365678982,-5.0980684893611565,11.221011842308664,17.241111007976627,9.869410843077333,14.74114979321331,13.878409167098454,6.43681934545458,11.06608417703334
6.351169990788241,0.5391872528475119,10.951118072605482,4.252986095802143,1.9986141667264603,-3.2442690276997155,-9.406030636448676,3.9193536805026894,15.960542192712497,10.660195466112526,15.0614604355992,13.268048654816,0.8514477728921293,5.088429353499838
2.9851658246661947,-0.6042832392827506,5.596662578943892,15.156162098640523,2.4479585675396174,-5.448274949967072,-15.050206427699106,-6.577768510078977,10.073064484143655,7.046280959113403,10.043928528131689,9.191690283502794,-4.403029142358719,-5.992280084055253
0.927570742301728,0.8695969418199923,0.782398148929957,21.43427088200132,2.741601467264664,-5.583085791653815,-16.808140197814744,-11.9136926940026,3.5434088222809805,1.6812948036240698,2.6123092955705545,4.647113925820975,-5.592537852153612,-10.840771647991929
-0.1313932997786713,5.343389068987207,-0.3251478022262404,22.116208317727573,3.211369853685713,-2.9496402973473157,-13.240093876787832,-10.77296289048645,0.0281468258621089,-2.360064302061048,-2.934124205698652,1.7537859155270326,-2.864466822519546,-8.39473226338082
-1.670556444934495,10.910948201157424,1.877636225697856,16.21614821360796,5.304871288018512,0.9079483190690212,-10.723764458371646,-11.259928480710952,0.3296984729532397,-3.95254955155508,-3.552770891801486,0.2668583223515384,0.6341551758319639,-6.601249374950852
-2.990513133315481,14.10910934636442,3.813442479527722,0.82219074624457,4.367341217160254,3.470778453639852,-7.746245078099922,-11.223186283223884,2.223803745179396,-4.286538995020734,0.4688517011203004,-1.4853952861872557,1.6805527514633525,-2.635755003201773
-4.058938606027219,12.504564600846264,1.934361212138299,-9.303712142906674,1.6179161299268732,3.2992992111443016,-6.7414255488045605,-12.326755360031262,2.611185909514475,-5.177639851203907,5.425112001271799,-4.463964585900499,-0.8514912230977245,-2.8553495419442867
-4.903021425790436,6.761921344748743,-4.050313899641225,-14.62427053398176,-0.0046865915465112,1.1254850970981067,-8.821186578040612,-15.729566481416663,0.0261661537130635,-7.222127507194173,6.340538588611835,-7.83479128238443,-6.025686344720143,-8.485597112604927
-5.17359692629084,0.0349213122878993,-10.767700675386765,-13.323193815145856,-3.682131495012296,-0.9206132396843144,-8.37923601576674,-16.904592673154344,-4.54467776332249,-9.57954534674554,0.1638478984965701,-9.93418756110954,-12.238356063186297,-12.805560675021438
-4.808984174396379,-4.797799736253431,-13.8937004110442,-1.4671718980246395,-6.006671925606371,-1.188282443322258,-6.086337381236127,-16.415021127592457,-8.871703162923637,-11.262926872709407,-11.923848069421576,-10.101189750827288,-18.211143221840945,-17.477156807512795
-3.3610914476854696,-7.259284150335628,-11.544320943535077,4.908408026667041,-4.586282132781889,0.213214151890078,-3.8032169310801383,-14.425396895622317,-11.286879140840592,-12.265692380457448,-24.608002117109105,-9.342536632840272,-22.855603304957302,-16.99319692652736
-0.6518451091603152,-8.6757186483694,-5.484759584353309,6.884908615196356,-2.3549284418056717,1.78265619519707,-0.581222259023486,-10.056275085122662,-11.464438602662698,-13.253468228289146,-31.15966501812742,-9.110840842307368,-24.80121162526145,-9.904234600957505
3.346857883075237,-9.751305945880915,0.5956701925663985,5.089499051089898,0.2084781244292619,2.146625265377182,1.269024423259173,-5.377539050461092,-9.883273546083249,-14.308723185683982,-27.4195266134243,-9.531156229690712,-22.666842263142108,-2.895727492136407
8.868104040449847,-9.207121036589946,3.968626161388357,-4.117297276788561,2.6470270313464224,1.266082391021392,1.4975080951038209,-0.1727688311931403,-6.984414394636907,-14.321634698547015,-14.658736497117252,-9.03683616157592,-16.089632849670046,5.640462097871515
12.60777390666504,-5.141382026641935,4.47393626502884,-4.745800373385493,2.707306089536296,0.3101822981276285,3.445528756990233,3.6417988177401135,-3.0289114873950496,-11.893888968060024,0.7932170246283476,-5.91099956113986,-6.469713842613956,11.142043072409754
14.37478740491466,2.3524648064281166,3.908891403492007,2.999929158863581,1.166132975527173,0.4766238103647424,6.709384128960185,5.451719174143372,1.4068225874001854,-6.909986132294151,11.397162094201406,-0.2134331614365692,3.468950211682128,12.246415760807905
16.337543495966052,10.328566654722492,4.229743424052487,9.67952708679314,0.639863620480706,1.9218389872633,9.901346993916658,8.633212527363895,5.178740082307144,-1.102740189866665,13.405795049600384,5.902890629782831,11.097803865054884,14.670024026629676
17.693398007251258,15.136353908248765,6.236442576417744,18.526353790161885,0.0786185462846611,3.7160517214192623,13.574852418725934,12.655359929947164,7.132539658032272,3.1261880737180263,9.382620784096702,9.91339829204827,15.216369923836451,17.017312092272054
17.449427361376763,15.580419005717118,9.495431758067468,17.880011451882943,-0.5208537211601381,4.731905757192948,13.567856147522058,13.75208185964639,7.037387727337261,4.639263045255035,6.065703050606459,11.079445473150116,16.38394042446606,16.506864055076395
15.645610756056278,13.882153006632848,13.0056760262282,5.724738423251146,-0.3737160281337053,4.587852608739922,9.359440493281877,12.152489747191575,5.915311292231223,4.474337551722641,8.963590173601915,10.969606672399465,16.160482226147906,13.59858183558039
13.262656073987168,13.377869172963358,15.748209418333031,1.9280520608684224,-0.868101382929131,3.831170606756018,6.317902997469737,10.163916702956444,5.287850914158298,4.871257368382942,17.87900592613954,11.8163609198279,15.863925293712498,11.224071190138387
10.108639941220758,15.184891106284226,16.835971045262795,4.26053807368195,-1.48424239310279,3.302302786880261,3.555738704779718,7.072835437664891,5.90345024168289,7.258978546177559,26.97963105302068,14.230050393171382,15.627919438553022,9.102346164732763
6.810000492634862,17.11271107925421,15.610533007250808,7.1486929410032936,-1.174602802221586,3.353070486840977,3.306601345330588,6.303004125705627,7.070185130555899,10.953076454015443,29.336857917841485,16.409172410550298,14.33323453584154,7.141061077384306
3.598916214144557,15.84998497855736,11.982856321468716,14.232110192366896,-0.6727570440953696,3.667369401749226,6.777339987669251,8.458176467121737,7.252530748701645,13.650992098267691,22.20135114877428,15.62440960306418,10.549066341621597,6.014616262394431
-2.2035329895397666,10.250218914725622,6.76856016659508,10.936851873928145,-0.0600752322027397,3.806316654139096,7.234788144828205,6.859923981841925,5.489094407063874,13.260630358617789,8.871560612984752,10.686430275100236,3.985915610285133,0.0971316070638082
-10.57363840517417,2.5741930016140486,1.479585575422789,-3.828652135906884,1.1155935623693105,3.8563674923238977,5.260437257736386,2.093514684391496,2.4192002818948595,9.546823831229917,-3.963983951204455,3.213178416048663,-3.60680935111634,-10.84469042494371
-15.094882426097314,-3.3540466715385264,-2.5404183813832333,-10.943433157168396,1.6497770826435727,4.419501181506576,5.04533284090685,0.3318766526966679,-0.0232510962088099,4.351102127028071,-10.910964304101071,-3.4420426691186776,-9.056175258506414,-15.01518814359391
-15.834669081744073,-5.204879742763978,-5.012504972474289,-12.985899152263334,1.221077223183444,5.852313268825469,5.517785891499607,0.6970973583560849,-0.0566522905080546,0.3538712004589115,-10.924176407040932,-6.705531584231153,-9.789384358511256,-12.881635296710384
-16.343503274191352,-3.657273398701477,-6.80433066941896,-14.393592325353591,0.7430504896360213,7.526679760070124,7.5598130474476815,3.1934852730706904,2.575548848054268,-0.58577271024933,-6.924492043627538,-6.61274451733118,-5.841087494322437,-9.769902351603672
-15.222851985886956,-1.3531237813112966,-9.015748481301555,-11.776105331931094,-0.5249645816703515,8.027521510124757,11.85430568708765,9.08066348110793,6.489079305349492,1.6458564019106916,-3.006302368606839,-5.456319117798444,-0.1392888067477997,-3.193962118602025
-16.260974685944408,-0.6424477029893296,-11.861798155599672,-12.71591735300691,-1.647865689335026,6.331775252473449,11.698235508450304,10.448947235966058,9.866623568046975,5.657556496642201,-1.6977624860005562,-5.6611609006482695,3.360943977117813,-3.580210961361082
-20.050026203707738,-2.1679565011882005,-14.42836369031727,-17.424225510646917,-1.2533008742485958,2.9234240078296807,6.989440852599268,7.163410995702482,11.8657353612997,9.531799186458445,-3.0441386990775072,-7.781316124824002,2.3173533513735265,-12.1006452961447
-21.24249316867944,-5.078986769287667,-15.575386203387552,-12.782575108134154,-0.8823002304239269,-0.3372966818975556,3.715752445307317,5.801024092036636,12.963546168905054,11.78692219201332,-5.534437758253262,-10.290392656566157,-2.629129941987685,-17.162239408855132
-20.62483954838818,-8.091009715766518,-15.110099323579108,0.4661716352496866,-0.3958111925155357,-1.6588702571590377,0.5848759002538281,4.799225213174378,14.02793148006208,11.837594629026398,-7.627392390954242,-11.181980013499356,-8.669786069725774,-21.05283563077419
-18.596317959556604,-10.263210554074476,-14.04101301326557,8.189465242383848,0.6021696705638598,-0.8142911582607439,-0.097043130314722,4.622179628597936,15.117817520828794,9.944697787283303,-8.62335622904925,-9.838137430518714,-12.919878901603852,-21.30397229436315
-14.172573057578012,-11.160927755842296,-13.628437158614132,12.18204265346472,1.062232611328714,0.7267387544088706,2.8466291022348083,6.266666113911012,15.21826316399165,6.915950887199642,-8.5446528643472,-7.532343813816169,-14.041438209690568,-15.765737660233446
-10.829784269128496,-10.779110437846612,-14.174821594132482,5.603653697350549,1.698021356089641,1.166994009649784,2.8911300739976933,4.664641343448287,13.156870878218,3.776908104389236,-7.604645626231559,-6.255299655548811,-12.413457181147123,-12.36138413913522
-8.512611372768669,-9.509575904833753,-14.756211334721511,-15.227860323757586,3.302987433189588,-0.060360889043693,0.6239004607378619,-0.0786304374721505,8.809305618242092,1.4555901149427657,-6.007923369034927,-6.9918403408649965,-9.26578171618263,-10.092554608316032
-6.52264134916405,-8.00874258801764,-14.11233681148127,-25.615820286237486,3.642181580228761,-2.004856575814415,-1.3914961760089877,-2.0662119849559444,3.4634568749489745,0.4611041370596922,-4.204172125129446,-8.8920731576315,-5.837883514673251,-6.615352870106916
-5.68702947831394,-6.831279999429626,-11.743588089174068,-26.95595941613384,1.902411998114475,-3.3333072922351903,-4.333758459024482,-2.0080145740346635,-0.9745791710357709,0.6469563198808146,-3.034821259239834,-9.887790634787052,-3.10489317403426,-3.2445638283923226
-2.2234151066791124,-6.099025786591483,-8.155968854832054,-20.12431007808293,0.1345651805467339,-3.6494312173169874,-5.806464129012388,-0.4043561280786868,-3.23320131087803,1.2761743394562473,-3.248962843535992,-8.159342976690596,-1.7582698748301482,1.85719451877486
3.984386777837635,-5.584723933969372,-4.202679354216798,0.7567771784186917,-2.7280879479509617,-3.702646815694607,-5.4884911003367565,3.948700518846694,-3.3744485016742374,1.5057465250149562,-4.635618835490618,-3.3765904002258367,-1.9506959293190675,8.833120701197348
7.019022449514569,-5.136188147484404,-0.4108578657001089,9.38193316132871,-4.305155190007061,-4.429084917490286,-5.919176219590683,5.1791323504890086,-2.489976449499636,1.054302050854062,-5.6845147197099095,3.032965188485946,-2.914942544474343,12.45247014249044
7.361467503884992,-4.92625274825366,2.982844325939596,6.085587241372594,-2.7028466098801065,-5.936741578185888,-6.558210277913862,3.1960554192902646,-1.779334271439211,0.4992979701646618,-4.404944378957794,8.673086021197946,-3.094577624015642,12.71384338846245
5.798438235364827,-5.220027116502479,5.552288259830561,-2.2307903818815795,-2.4563909189629443,-7.4584173164302,-7.384693343915705,1.7364945130840033,-1.796673959966938,0.7947905995407609,0.133089174244219,11.54824617747363,-1.1081090165251908,13.156257062001885
1.0293623777998615,-5.968485541754717,6.601795127005289,-21.780562004081464,-2.890844420094157,-8.17951994695909,-8.786428199958879,-0.4598307110533468,-2.371564111160069,2.2694854294708198,6.779310374828697,11.236468832056062,3.0720592536432605,12.681321008333814
-0.1579788058900604,-6.743534166349718,5.797903745548297,-25.00302872600629,-3.087452558936802,-7.979514605630356,-9.285732806272572,-2.1351938107660597,-3.093099248716157,4.007766656677632,12.7455546498785,9.116353413691172,7.853446559668555,11.660606227365328
2.4363159140619866,-7.050128369412619,3.8327637735957296,-10.652141204918932,-3.405824861397034,-7.369809826956498,-8.920962242360192,-2.83397994165752,-3.8238248117050944,4.392338458631343,15.286529097211089,7.3797159072806835,11.147286159466717,10.49937396579413
3.999434793462509,-6.568287153603819,2.212462364369685,5.325365013787107,-0.2734854654952929,-6.859840341914946,-8.055141150213291,-4.733896008096292,-4.789255715405488,2.572585545177162,13.418790773525416,7.397752678459597,12.029930356491946,8.689272738195783
5.995742547638386,-5.108525845900658,2.1516083231080074,29.450181467683635,5.552527978784314,-6.5307718988042325,-6.350512608781131,-7.504129078003403,-6.223676823549681,-0.4202672651474586,8.48844834446993,8.638489230241703,11.435860394505768,6.462898118493088
5.833863455310213,-2.669505236449595,3.585966028029702,34.21516052254436,8.935655443045356,-6.216470338735689,-5.042070996972832,-8.352414079558674,-7.939115884557964,-2.142251808287824,3.26223647861832,9.085466324643107,11.189630881507355,4.798545764179052
2.740307497622963,0.0253000166110268,5.305664954795361,16.08842056631309,7.686919458498299,-5.922444810129377,-4.167980431599468,-7.393066677162634,-9.219343594061058,-0.6814330682071841,0.2006599321831004,6.949732247427505,12.25616746291604,3.8054998049945623
0.2399868755980459,1.0214406540036975,6.109231967994106,1.95705204010286,2.7935521472863933,-5.867649383885066,-2.9644904199700832,-5.825772709366422,-9.167646200625882,3.499614288453813,0.0298979329210737,2.307588231508646,13.843660604345873,-0.397201190840696
-2.405550911739071,-2.205645471210289,5.832084233518856,-14.848044216624247,-3.837134817669196,-6.056720015346116,-1.7059230838463784,-3.0401104217423374,-7.313250138670071,7.538628591295435,1.4760971246497547,-2.768758181410817,14.14253385364168,-7.861360325152487
-3.021125843955785,-10.623181739402582,5.24117909580724,-18.55933272217784,-6.995509757294109,-5.931166445804422,-0.0531126841633026,-1.5814534056232574,-4.1135249732287775,8.190706250016035,2.27192267684876,-5.782553081704009,11.911651745551469,-10.113632295675975
-0.8500200567862943,-21.5929314380104,4.972955901795388,-3.971752497439215,-4.0462187382574255,-4.651287173767514,2.085052938769475,-1.7057099555662376,-0.991782456858175,4.306178749595574,0.7376740680535931,-5.778374496947663,7.450333431338208,-7.395884436305725
0.1484742785288883,-29.251540859456327,4.70093612721854,1.726380445882394,0.2031154992127612,-1.8914368856633248,3.7790269825580887,-2.019186353851936,0.2840171670232791,-2.2578208600189957,-3.1136201487803987,-4.003002688872527,2.295595370634487,-3.0070658474710528
0.5750837230989683,-28.000558006290877,3.4867916363803886,2.8248770804242667,2.684672562411857,1.601516495978899,5.067691081968079,-3.2108776923054263,-1.2949045610529597,-7.996369819019605,-7.625661985358135,-2.6931885019684785,-1.7670061979434308,4.951698204587942
1.3205543666029576,-16.797733837992013,1.0098771218629563,2.940207924790452,2.317668045306917,4.332994509965033,5.293543849217008,-3.66832106885569,-5.047986341518225,-10.230885205290178,-10.549226671055235,-3.0857002559278897,-3.4591581603828843,7.214005010790417
1.7424816563224197,-0.5751601052727153,-1.6295456139184523,-2.5020482542557043,-1.0125394334762454,5.12544422012374,4.154317604662415,-3.2390124882376736,-8.6775062987968,-8.768663385028901,-10.31100074883139,-4.425555130954336,-2.304780561174425,2.9717829985178104
5.2589772309583225,12.8694537659658,-2.5252918418239005,-2.5259634758055323,-3.3603319962748928,4.051866255811135,3.979981181881334,-1.0717611577510464,-9.621395292450842,-5.647362009054589,-6.745961099878713,-4.818420299599367,1.1620274851094194,2.185545021624957
12.13318537632852,18.2837118363794,-0.6050300024549102,2.601890727362831,-2.2349957233464472,2.4111568841860134,4.655173126464583,3.4290069559153533,-6.89174444439179,-3.408724030285981,-1.0619231399310394,-3.093465426337304,5.210999105472638,2.90561237382817
14.548137057608852,16.30496072384451,3.2074691168211302,4.203696586444019,0.414309221086276,1.7215975127734993,4.147533592797895,4.571141109774627,-1.9448509528070372,-3.3072860080001547,4.734110274009446,0.0364974029039899,7.336159468405448,3.6380376874316585
12.779334307569338,12.097318046936367,6.50109393186715,4.105107050548121,1.887060228285382,2.5459988755140195,2.822274806073416,2.3543899023240846,2.282067782540061,-4.6714808111730335,8.617633162290858,2.525992756485788,5.670148313214025,5.876178279337092
8.953641362761104,10.72841599292802,7.241467064670497,7.125063143969766,1.8099203524837184,4.087999319078925,-0.6408436341901871,-2.142496318392887,3.4993935675011785,-5.691866089302746,9.285339450784663,2.682359584103004,0.6086192657207468,4.534759184651714
1.2647118266808586,13.394280058851107,5.383443732063379,12.352382391257883,0.1801469046036652,4.842222974114014,-6.745285534481633,-10.379215544632832,1.609223058920609,-4.963583693278487,6.618733263901262,0.4544157619294555,-4.949543569783273,-0.5670329647642874
-1.424054859201484,17.456206333427147,2.806288316096761,16.121962041578616,-1.440254510452518,3.74542428087571,-9.35895287689906,-13.516733893289716,-1.5830251597119158,-2.683659556716023,1.664148453627348,-2.70275068798599,-7.502754868952692,-2.2463437726162514
1.3792045527903718,19.58741729725392,1.6489592205718182,18.973697956831597,-0.6701995037637213,0.962378222985123,-8.491640185544929,-11.174918483275656,-4.068193097397803,-0.6500350040625023,-3.868160549105127,-5.056098488577682,-5.733552067108917,-1.2258775181569956
3.475083733333649,18.71684784942387,2.525724830541648,16.703358611305006,1.1459341898665991,-2.1956757461108936,-7.245302909454034,-8.97514131711011,-5.121403106075988,-0.99934758123446,-8.285628124986474,-5.73433942488937,-1.7546987141020622,0.4012172212689048
6.911172649070335,16.213220359272356,4.1299248276432365,8.115277901422111,1.922452869999921,-4.082005984761352,-4.246478214570868,-4.864932424034936,-5.37385363612151,-4.530997038161161,-10.424462955345687,-4.956378451271505,0.5103664807691075,4.0154718344387
8.16002033974689,13.777026842486691,4.451625456503038,2.500828598644984,1.1914330754272735,-3.697014781618776,-2.3431335138710243,-4.21043580895155,-5.765434051511747,-9.880115479451334,-9.903223492666529,-3.515770492631489,-1.4249111366722076,4.519255885365028
6.308581803385039,11.624402808966408,2.493371493722009,-1.0209838289175543,-0.4763336280499087,-1.2664331681871346,-1.9163625592469355,-7.954037539688918,-6.645805253490678,-14.275056426484651,-7.244084476437621,-2.213175060680797,-6.55884172285171,1.5543598184946634
5.746082829525157,8.802451604889285,-0.8953898781241776,-6.465821074347772,-1.5725893100608426,1.89492097086611,-0.7969441174723048,-10.535470711670197,-7.821820077858405,-15.40723723192751,-3.8379193855317055,-1.6100619336847617,-11.36583626584482,-0.889312089481901
5.50748211338987,4.963148703738511,-3.6033779256312073,-12.19606451968348,-0.8299734325962411,4.165472953347091,0.2847066784573823,-13.331935627279258,-9.142563847219662,-12.990685523483762,-1.484448457381859,-1.9295517710323795,-12.871594214259062,-3.9729527355916567
4.652973273754273,1.4034888781221184,-3.727707454284285,-14.521308236927958,1.0689792894793837,4.606005468106218,0.4536405134207949,-14.086114684010688,-10.686525018569228,-8.788059860102464,-1.422375292253406,-2.8998474595848904,-11.041669613179351,-5.092305579559261
3.725636843094637,0.120348140860699,-0.8918590919419671,-13.29556975105874,1.8536146465847856,3.520219570397927,-0.2053353521533828,-11.83350744304924,-12.285106957377764,-5.153982339429518,-3.3869127165741872,-3.735022142529175,-8.396398042792072,-3.537947364486536
2.4877259409324983,1.8293452367306884,3.413461317753473,-3.932307982079166,0.5846224184680572,2.154558002972493,0.8250916760859651,-9.425370896279617,-13.094402981840544,-3.390603598546221,-5.580175546606682,-3.569514128215588,-7.372848266827503,-2.1272738007025365
0.9162767112676136,4.979532526292161,6.679484448112248,15.235193528850411,-1.4122209206195189,1.7057356334766496,3.573172252095987,-6.0347450516874375,-12.005544678371509,-3.2658655865627395,-5.882168118724735,-2.183757363937304,-7.992643801559012,-0.0679840151221275
0.8076847703749412,6.774823624048167,6.950762547070099,25.576111083928573,-2.2126898153431345,2.393235207555648,4.778922170350517,-2.7983210978881057,-8.724011663283079,-3.857153378714173,-3.50654639788462,-0.3249482539222583,-7.9950779401446255,1.7987184264016365
2.2919965257336377,5.3172403600787845,4.159236143207863,27.41764951677318,-0.6547307049231649,3.3640259934009293,4.833498695930973,-0.1175395697996761,-4.415989198426075,-4.616491912168954,0.2856896461899794,0.8776828585335181,-5.208452426964811,3.079813217232212
3.1865268053329188,1.1086731075635328,0.2735656612424861,20.71106830086737,1.7810961319061134,3.5191379661384588,2.343081856956422,2.1839364856556904,-1.0229127278323915,-5.482075240925013,3.1480843151263684,1.013813045971801,0.1588038625582726,4.17157749278918
3.844033911905032,-3.1411011203763906,-1.9760251626187824,0.484302819395486,2.9771295170855017,2.547424187839539,-3.526599991023236,3.614233655881117,0.3883390583791311,-6.055047459183385,3.6047992716014505,0.9639188689071148,5.490933701661504,4.69093846935009
5.398992023873488,-4.147787928663661,-0.9729099294146408,-10.701352014445217,1.542215819155595,1.2700223797329784,-3.984339464856135,5.963120958405066,0.7645077295829878,-5.047273135535704,2.399403411655556,2.2728870479504906,8.020882013378412,6.345137950724658
7.562589009661723,-0.1189143468391478,2.6953259417016966,-13.357992741985049,-1.8560748713471356,1.0212097221840963,1.025641451514644,9.16532807895894,2.450821908074744,-1.0504690459742392,2.037200329097317,5.790359492093927,7.264109543302396,9.184595895782468
10.656717873409525,7.806392815623639,6.767219652924467,-9.469452056202208,-4.067026640265175,2.61963934653042,7.29200164303897,14.874758282712484,7.098180775915921,5.793247399412309,4.757912358144381,10.79848482582591,5.414902463156523,13.888953932797795
14.884506482792816,15.591206582605338,9.001465454268157,6.57304527411075,-4.876446203956789,5.764346474934087,16.842700458505472,23.70424984731113,13.839535048480286,12.91893913023668,10.51329726931604,15.435446076256454,5.422846749675728,21.018586645073658
15.72807999363174,18.22791913174484,8.66978932209878,14.161364145794144,-3.325644663121348,9.240605435801854,19.595503806686065,27.508588435577284,19.48514235461613,16.57316685789681,16.687250838799628,18.03776277079197,8.576515161244373,23.892778590573595
12.915338745085943,12.969064132631615,6.76284486619997,13.792659425360055,-0.2718955689436869,11.652828978210351,14.489537531648867,26.260203733861047,20.84488233399901,14.554264727781458,20.02516523844361,18.22792425938508,13.7391163608944,22.336592721483708
10.872680125697103,1.9245415544058064,4.966258567284797,9.425031964955204,0.9415215482309376,12.120983905413368,9.707193730569143,22.498438103911685,17.366518001121506,8.228936207068443,19.38010665045084,16.906953445062356,18.698117412995856,19.4140595557113
8.641548700954054,-8.303069057557991,4.385915975782382,-3.777990910680704,2.7658597751019687,10.59043609272294,2.748492557960028,14.210485850102268,11.82385116771161,1.9461930106955092,16.9191539246074,15.362359294842094,22.102006755124503,13.49105562925314
7.8445414608129935,-10.59073656669193,4.970607266502412,-8.186872645686279,3.606057358690846,7.75650403100633,-0.5255383228350384,9.906638277000337,8.325244331083212,0.1248446422714266,16.431738827493163,14.401025382278505,24.094603917362264,11.639403739886864
9.33210896290984,-2.5247220313170544,5.849291690226522,-3.61133034173404,2.450142433551115,4.746538272517796,1.3108515686329447,10.026518011617666,9.182010340306704,4.284964319513151,19.854942865136707,14.145679033921157,25.29668400635319,14.507157454869205
8.291656264693263,11.170448412766843,6.130945243733095,1.1640110012312794,3.605959053007247,2.656435905813254,1.1096581778331738,8.715017361470386,13.18712889011185,12.294591083538847,25.03432414806028,14.32564014080647,25.581111854715942,16.34227513798676
5.124282654036797,21.42835658665108,5.552231108585204,10.070218998553669,3.2260651086432315,2.0391157803868083,0.4786782115656752,7.916743798453254,16.693440731335485,20.176754375436644,27.08441727432705,14.486996043239005,24.23007395228844,18.832438370664256
2.411074747338505,21.174395005745865,4.589026474257992,9.70903631361372,1.2024843845224635,2.5649912806346435,-0.2460891650685385,6.84838288184609,16.5487194458686,24.80199204325632,22.634137588963725,13.934545329108346,21.368406229548555,18.36325413803053
-0.6654773798223661,10.383228399670957,3.986274320478543,-1.5140246385671334,0.6017017658714237,3.1327859254079726,-2.0541929882793424,4.914867102273464,12.46766498239488,25.41297623109045,13.344363163141525,11.81640893288278,18.85507999482826,13.940236637094491
-2.8911040322792987,-4.14781668216915,4.0057277118581,-8.613187086781815,-2.160355015613439,2.5020584363172134,-2.3767538603742966,3.950981792574938,7.0168201250811535,23.23953637504465,5.261782691926314,7.727011292811184,19.09023642957005,10.08572416396544
-3.864018398460512,-14.073260009787326,3.963447979299005,-14.535867801551944,-4.141852534636549,0.1253319681920288,-1.3454399763268563,3.6757455172561415,3.4347681085419026,20.03872818273382,4.071298913598227,2.4602899678680075,22.42335193944229,5.760964970818975
-7.048757708741425,-15.542132879972216,2.564557958729217,-12.65374776200396,-2.9359873031337043,-3.3953878548525083,-0.0852884646609338,3.3337136643787826,3.2045640839079117,16.898556524083702,10.129616479964596,-2.012282498244467,25.76338250519386,1.2994865732632117
-12.269496657502769,-11.346872831096306,-1.043429433639794,0.1681188461489408,-1.8234339111426645,-6.6263826263271,1.8884603567743237,3.174590325643072,5.270654038380236,13.979949461927,17.682726068131352,-3.778143102267123,24.33388011978343,-2.632980729131638
-18.05066101317504,-7.943938502962247,-6.322428703752571,4.0207369384990646,-0.7766179234057126,-8.24497882134775,3.614321628172632,3.035963852043356,7.2497278414052175,10.946327337020229,19.180789180434004,-2.6302384120063707,15.565713875325685,-8.054707738111555
-25.09422491280712,-10.202569480118242,-11.454420949856283,0.3680296514847646,-0.5852984392776845,-7.943057644673296,4.947908172287315,2.818526199353498,7.351231771025407,7.462491916428505,11.15722366150552,-0.6112965330843636,1.7192659796166012,-14.747899810209857
-28.19123157084608,-18.076549741094148,-14.614348411696486,-6.779757748552889,-1.7320078369585974,-6.594775448697494,4.209560986379223,0.5481225698990888,5.370128410660342,3.401039396200097,-3.2150107946629056,-0.7044251434231548,-11.403924078173382,-20.03466182246651
-26.783540360606267,-27.27502542001853,-15.357833163619144,-21.619873822243346,-1.9343753676191384,-5.5391755941850604,0.8964176214059661,-4.069196668754271,2.183813756820413,-1.1911609205826093,-16.82873902908775,-4.5821187894187645,-18.81152645234629,-24.05111506901405
-26.126759888117935,-32.695107071149664,-14.818494834392558,-25.282120790544436,-0.027993614865626,-5.549092613062925,-2.292733213691064,-8.263398804597577,-1.4062414645335606,-6.136194618955206,-24.04893605984802,-11.281339489327417,-19.98442823654385,-28.509762546258887
-25.013483849475318,-31.711252802484932,-14.481927071236427,-17.024831840948654,3.5141262738527885,-6.33590113278915,-5.845081859338142,-12.4757928209132,-5.2074210900249165,-11.05699237217864,-24.27229017546371,-17.928773094186656,-18.69809691212757,-32.90271055177518
-25.081017307294605,-25.296236201314493,-14.731452719899382,-12.879173448973493,5.540302057677506,-6.988843439775061,-8.17691490644516,-14.33406109057368,-9.124858165240648,-15.293154987313546,-21.171195666561573,-21.873831644922955,-19.40247780433816,-35.77020795606365
-27.25902795069384,-16.970942864664416,-14.657939433741095,-8.967800904772822,4.174503066018429,-6.921685311241829,-8.668565180480616,-13.081585857714744,-12.417287282394083,-18.009332860343005,-19.05340740258577,-22.450474723664414,-23.60603339949366,-37.15935375631698
-26.29642236477428,-10.821911038676284,-13.37033367508461,-13.359460266718653,1.1185620708678607,-6.446502262333507,-9.31589172267271,-12.727837972606324,-13.820605892179588,-18.586020777941293,-19.81588883718471,-21.05914266328033,-29.35152349625225,-36.82750506226835
-22.58702659357295,-9.677993347443408,-11.432575530601945,-29.13970185320917,-3.035335231165466,-6.451832730685524,-9.548720966456274,-12.608300791622252,-12.64354573288205,-17.09236159706923,-22.643121056726585,-19.75621584102627,-33.692023465014145,-34.343381355168695
-20.51613049522417,-13.888082667096338,-10.77727158800387,-30.886667959579363,-4.767879281044772,-7.502053103292084,-9.142297037081072,-12.531840462729658,-9.70803120443453,-14.431387868382082,-25.717397137680884,-19.651920293501032,-35.38157918428796,-33.28842465203057
-19.32832722863349,-20.960644841485237,-12.907648529748036,-19.83026484553494,-2.207349415704397,-9.206268543773303,-8.28010030929792,-13.19058361675361,-6.94516703365295,-11.897413080082352,-27.761233320184022,-20.319124598180224,-35.31246613910949,-33.719352698952456
-19.04367402575387,-26.4944633960477,-17.0219263457943,-8.221113450614089,0.3274854681668669,-10.426968771512328,-8.248305308576116,-12.65276418547058,-5.794290586806085,-10.365409265223056,-28.254928047033893,-20.441152751336084,-34.85761811200402,-33.048330592880035
-20.482624294103715,-26.47546269959269,-20.027857712788688,8.97323633234499,2.385835611689082,-10.1178494174263,-9.19461981897877,-11.030059381962934,-5.927989197586776,-9.733617110843916,-26.9998467771524,-19.007416468776974,-34.297640657331335,-32.026935401497006
-19.123168372644507,-19.882349612967424,-18.79604595025122,11.826756729564806,2.651916313983412,-8.060918967294647,-9.730177542330049,-9.234098786443274,-5.67067767002554,-9.122991857613648,-24.13882127071698,-16.12986186801883,-32.98765315366703,-30.65670240681561
-14.938662709436878,-9.673823397735433,-12.860448156279574,-2.3371549377732794,-0.0611883209184839,-4.950403753972623,-10.165777914708636,-6.911933676531043,-3.793637496813524,-7.717085099148022,-20.590451108515097,-12.96517226293183,-30.754638767463533,-28.642550872436527
-10.754292779185173,-0.9576998956167416,-5.154866050079015,-5.686945174977897,-1.5942670380712782,-1.8795777548096664,-9.354415983845607,-4.324225625766659,-0.877031002564955,-5.546594259830343,-17.88449455048721,-10.880423446850628,-28.690949325188853,-26.854719406938823
-5.613915984180901,2.6380747548723207,0.0434975362418583,-2.2468746006685563,-2.120956522206191,0.2926157697085472,-6.972178572741604,-1.5575705168939462,1.2017652889571622,-3.5463973989153104,-17.006121795501272,-10.472709497208996,-28.3335962102351,-25.249492314945755
-2.8763464270518715,1.5553890654174438,0.3602661456298506,2.4413006260150665,-1.7193564069589808,1.280702535829931,-5.598682831130185,-0.3545132349014171,1.1581623715457,-2.8329261921741704,-17.33066937368133,-11.120433451170108,-30.093848637845568,-23.07674469815865
-3.1338962649975906,-0.407549807108083,-2.9336895354607435,13.20217023620598,0.1033862249652547,1.331858137194445,-5.007006082001017,-1.0007462677450665,-0.4035177394102192,-3.8143296673442393,-17.061573167174352,-11.37817563593758,-32.63063600218112,-20.465065660641244
-2.233044828086509,0.4265585396887985,-6.118039973071006,10.505650830799311,0.715501311970526,0.954014139837028,-3.3002507005203183,-0.7588167675478367,-1.6623536560632743,-5.860352885444698,-15.081167649670649,-9.957724418828718,-33.848239341211965,-16.540071047497783
-0.9830347237688086,4.46170597346736,-6.0823772167461385,-6.647779212056517,1.4208974603067257,0.6018407397438921,-0.8630346306008448,-0.0030720179846843,-1.5237955147321287,-7.767266474748467,-12.379159023591413,-6.631003599473601,-32.55398252419541,-11.072500234502028
1.999195658949568,8.845903034735997,-2.6450043080261167,-10.480254235817846,1.70578665169433,0.4709366820435434,-0.0686078759665284,-0.3354997694091072,-0.7943603025374557,-8.614898020766518,-11.365925265512928,-2.4371851125578416,-29.26620399228989,-5.734756268629062
7.533263202381465,10.547051369704334,1.7120193659068548,-3.963472376631493,0.5203979195959759,0.498049290081866,-0.837648025862963,-1.3791394512651387,-1.364324682389423,-8.360405286255272,-13.499104460660078,0.9525703266167797,-25.6147297179012,-0.3286716762330738
11.03809076697292,9.499370504388793,4.234385130144858,7.678463283785811,0.3186306760400718,0.5444307799064916,-3.9498243757414575,-5.1235030714211245,-4.258842246937007,-7.785004786081316,-17.546443787197973,2.289457434826176,-23.066231194067186,3.254620168360373
12.860644984537885,8.83539799058488,4.210847830852259,29.96522388545787,-0.8268193550414844,0.5732297317711215,-10.124097107282031,-12.025335761892018,-8.55772412852366,-7.910606930499057,-20.34273006698429,1.5195164724535175,-22.036622768956555,4.474526746036634
15.403924447937692,12.07238380635009,3.288680633699414,35.885799308522344,-1.7593021115967278,0.6156125789367337,-11.874905880072594,-13.609585574633805,-12.222121270430662,-9.322172850914328,-19.44204101952057,-0.231686894417237,-21.76973832061801,7.989950572844609
17.864791629520358,19.976825073526506,3.761133493633068,24.20466733008333,-0.381836091751973,0.5631002840952561,-9.05702951098154,-9.805585938677586,-13.894750262394922,-11.78333399133733,-15.14459921888492,-1.418582455146236,-20.677059226570364,13.450329228004684
22.591095238721152,29.9303845826722,6.516118137378143,18.385116305855608,-0.1935262864503987,0.0982663296701815,-5.301489171048256,-5.232977693449982,-13.83625961159246,-14.279788473320863,-9.983699813037632,-1.0109794545427633,-16.858000907677464,21.72871442332521
30.057014383913472,38.050425653333086,10.411296607357784,12.808555872318983,0.4902317343230358,-0.99814439337392,1.1691830103897514,2.031273267102151,-13.18243689326176,-15.417867917769357,-6.245442878347546,1.0528012256256432,-8.872261969640533,33.998085104148394
32.41510454779133,41.808856245512295,13.407599563882314,10.859730091005448,1.1047909533916656,-2.374485730544784,5.683984087648105,5.547219608387112,-12.47855572825263,-14.044317773844815,-3.920832128885465,4.117118861970255,3.2803931010696914,39.707982824568695
29.75023652690684,40.87146903295773,14.268525070729396,16.212710796453823,-0.4055202871146725,-3.030997324569583,7.763193186377677,4.455111507981651,-11.099795022813176,-9.910445345837672,-0.9017269398514642,7.391040812558771,17.61367620063958,38.67039244522784
25.66510745869555,36.05458649465326,13.336734330853616,8.667630695029859,-0.197080259371852,-1.9559928834017484,11.141571768987946,5.638009767107157,-8.111216422028491,-4.065072415333489,4.992361470356727,10.300187361928296,30.84702331639322,35.46889649307156
18.397709414020163,28.156776500516955,11.911510089139242,-11.067506329325887,0.1431766134572183,0.9228405306672584,14.700391370768116,7.594592686695551,-3.558465506793489,1.4148233167504003,14.126101604937324,12.441746622439156,40.253701992784976,27.560128234606207
15.403544989410836,18.05219473163146,11.01437320319991,-18.37092856583628,0.1771835728496972,4.350328954606006,16.553541901255894,9.673109582963972,1.2467064228923022,4.473662451208035,24.776766477821297,13.48991802369784,45.336429062032806,24.888317350806325
17.460397753376707,7.516736790297372,10.721816272942569,-15.80629349854009,1.319586301789344,6.454114649057438,16.895248211225947,12.84299205135438,4.786676448618913,4.410810111702702,34.254299028058924,13.401487633804322,47.82786341005863,28.30459760744223
17.200931990460546,-0.8508969434541527,10.53360347212162,-5.70708278267472,0.0735701166272059,6.133597874839438,16.79797631603181,14.773150578381596,6.658103643812503,2.537974363164004,40.171641149191984,12.738869986774858,49.89258317632382,29.65019631432073
16.32238377985251,-5.2051792802784576,10.200244634750938,17.16914863294522,-1.2019025150858431,4.004804237718929,15.901930007205516,15.524511004096498,7.792383554261654,1.4767055719463684,41.103940261064295,12.54009775725718,52.11182447169147,31.245451117943706
15.208718704665449,-6.100975019442132,10.054758690509452,23.550138284566323,-1.086497483540454,2.0289626594300927,15.099131029446305,15.26239554534879,9.347882664840393,3.412682863346788,36.88380848928332,13.537958256897651,53.09537134321992,30.980229467229897
12.83495449535774,-6.209471964081846,10.50251966653071,12.63976849604652,-1.116592424721035,2.0141667559408347,14.586206445793747,13.428743584126854,11.401636490721003,8.545258349283316,28.93795313584364,15.357392749209446,51.02931225312789,27.709392945181463
11.419270633432935,-7.867366984669822,11.278296906547226,5.977777452572581,0.6629166903576289,4.166912065150289,12.655009602919916,10.649792503353382,12.764732652205051,14.92329234483838,20.32439691609927,16.612175411934338,45.64308476540798,26.05267255026152
10.791272212378049,-10.62645834597701,11.392085125723284,-2.649378284711022,1.3985337688906607,6.915082943292905,9.475732783185926,6.720935874277892,12.110327292479909,19.7974396745063,14.734109942116111,16.059612077132428,38.77316102751918,25.3468206216696
9.733868634437725,-11.375396655301037,9.99140768260616,-4.980649743592443,0.1474801924138818,8.21838736775884,8.367984240782205,4.731116715567711,9.306933554112014,21.449508214967903,14.541876895371209,13.833041794458405,33.119637543572395,24.271031322968074
8.600173432941128,-7.298877972227061,7.339294164431305,2.300842808593868,-0.8511636063571936,7.308524165261186,9.300030016517692,5.031726913614,5.682129113218206,20.18208733004418,19.23849622041946,11.50772653265815,30.422014347304252,23.55532587557918
9.88745561760189,0.943631388907992,4.838333425301975,-0.5153464881681221,-1.595593261965918,5.355057067027536,10.191245494503969,5.289140317599347,3.0153179794737,17.890743894259394,25.670730202650304,10.78376146270421,30.56127231413572,21.49124457661014
13.704636442469727,8.95004057522809,3.899806274874626,-11.53297159861584,-0.2288549470450707,4.410693671557286,11.74913051697927,6.321327565825509,2.241094581152545,16.658781304144405,30.058022015250213,11.927314636215542,31.994157444245783,17.917981840328427
13.234843706745666,11.778932126239775,4.643387182595305,-14.19549847717094,1.9267606540606048,5.508409430770719,11.5694848815889,6.987925000674614,2.986830830213316,17.328711685996748,30.18633429840133,13.4216365317475,32.76944036505229,14.353534476266573
8.555843182691182,7.907030964306514,5.680916713444919,-11.098090751278882,2.3312218157237266,7.626271404792297,9.222786345477171,6.9991014191853935,4.158871862181448,18.873749285299517,26.1648029553036,13.194446144067031,31.272204544089547,10.416395282154737
0.6372644199403321,0.4236574149090315,5.248919928342739,-1.9941828362575376,1.6964911250890644,8.534616406468631,7.077401146333284,6.90804239822385,4.855995886943244,18.941825026201435,19.621958745782955,10.34870484450554,26.580284696328807,6.4447104448832615
-12.285462022382449,-5.568768696916114,2.676917541212189,16.39673062389242,-0.2540655016221456,6.823030421031215,4.489738898280305,6.32387409307142,4.819107289315325,15.399947036417066,12.512695741413228,5.899424098742193,18.808800630638988,2.674458147091037
-17.186524931116196,-6.991471664233276,-1.108052269892577,19.044653331683072,-1.6754382135954875,3.2499253294642285,1.1626248983706482,5.21737975755617,4.2901185531284565,8.0957418432616,6.511820298006901,1.9416811321041323,9.482549184205944,0.2099167811690643
-13.455763732243868,-4.810514805996716,-4.380620711753471,5.194032879721671,-0.6330708031708272,0.1246813750062578,-2.656464031875021,3.504590358881666,3.700470611840772,-0.3816305654559615,2.855643455397231,0.0399684994146412,1.3629327340068755,-0.6232822474469691
-9.103604295632646,-2.637992413690132,-5.8782820849729,-5.529386083240956,0.2907625375397519,-0.7500862277928615,-6.504473454050452,2.8793666700301137,3.510848073667235,-5.856344424168073,2.022025064302584,0.2037473345467662,-2.760830415233192,-0.0731234516836202
-1.0309404721510038,-3.54017898881337,-5.441702972415224,-18.41231643755588,0.8020553005278682,0.3057302944338378,-10.305628986219956,3.441987577846972,4.106111724772672,-5.274175702541586,3.3041753352521788,1.1816616749915134,-1.851252459343144,2.3414511834538185
2.686952242790974,-7.845155737405482,-3.729189895879278,-19.9203265768506,0.7029739929738171,1.1491668926894096,-12.347181408981184,2.0364980374048605,5.546601628249386,0.8750515799036922,5.017613117421794,1.6413654240408615,2.3784739350663564,3.458915952791741
0.7656531832944791,-13.322843174117889,-1.557288344458584,-6.200597441139254,-0.9762058755360528,-0.2629879088157842,-12.268238521761369,-1.1330925698386811,7.307854279554656,8.507047058835923,5.6273315017497545,1.1585531998401777,6.323082813739912,3.17357460200943
1.0654686959454225,-16.911968015549157,0.4935946935715982,-1.0191607451022815,-2.081311929784486,-4.04164356958505,-13.224369665037182,-5.570570224683316,8.39457078241652,12.712052210106483,4.923675832471883,0.2917787184165874,6.836442559005775,1.5844930769469436
1.53846748743232,-16.35552388962315,2.109352308168148,-1.0684943646845588,-2.964116958969567,-8.15866796401166,-14.850238520480971,-11.989881196043903,7.948337010351702,11.382209683828613,4.020063766815859,-0.0832685323274766,3.3430556843590686,-2.22383727442983
0.8449453849180935,-10.991352515160514,3.2010291169673373,-0.732350240358728,-3.218032541539779,-9.932221115676114,-14.178227037541498,-14.426807272481383,5.912826531477968,6.718593946011952,4.042421170692624,0.5389465375131728,-1.9753333094477408,-4.8494260979023736
-0.1734150084483916,-2.036880824299917,3.914765403003983,-4.040988022231549,-1.780452896477844,-7.931116877349023,-11.563789605431165,-12.525940399067917,3.122332739320722,3.2023606675077225,4.786435754420861,2.068761577867555,-6.055581880958481,-6.441296961592579
-0.5788194787748113,7.33161852706429,4.487804126746305,-0.4206603677432624,-0.1447659954019063,-2.8879798040236864,-6.576454022774754,-10.937520753946478,0.656783143272758,3.62179482567748,4.735332711489413,3.935298155307304,-7.321777725663459,-5.434837074761155
-0.2650076104781496,12.612349043576517,4.84056303924519,10.64724048227595,2.8411274273741247,2.8627572674821984,1.475282562425108,-8.295977702184459,-0.9854173525300888,6.566453089643261,2.4700139959026224,5.192706880659731,-6.643921697465316,-0.8410457976547735
-2.109581546723925,9.958377175519754,4.2713413068882105,12.477755408833591,5.05992265204857,6.850542172637887,4.362716264432151,-7.429125355127152,-2.1317066227561945,7.667813776680013,-1.900630546951373,4.640011045945094,-6.2849458996280845,-1.6850421057169132
-6.046143778969771,-1.0781884154150454,1.8014541446943468,6.4322891736947145,4.225621501134506,7.830990398852126,1.7377391122215626,-9.13834327895882,-3.3689683801410237,3.62484392494282,-6.683369501510303,1.3210434362004548,-7.943920970588426,-7.899348063481661
-14.344801581626678,-16.071261092096677,-2.828323240897049,0.4955946156991477,2.955780930755007,6.291599497586944,-0.4284618869525818,-9.075949552731553,-4.726713961870328,-4.485928132788622,-9.994918532038458,-4.560530507384552,-11.591317752630436,-17.293282909357956
-28.004308698121548,-27.405819225938032,-8.339915955800151,-8.394195111606788,0.2868502531653035,3.926772503303514,-3.9980806534527065,-7.982535269183272,-5.444114215421191,-11.634920877930217,-11.35165027692937,-11.062280608946494,-15.87184183992916,-32.091048356242126
-31.76259538470717,-28.783396356855853,-12.272367586746109,-9.604396366420142,-2.217474718178638,2.4676354211195246,-4.818554160236734,-7.650425176592368,-4.631803414154387,-12.835350756756132,-12.041091007011794,-15.219417956815915,-19.42456444682305,-37.81569037107196
-25.25258159564148,-19.569718832532185,-12.588187538927112,-1.4826269929136378,-1.875684007882752,2.5819954858987835,-1.864212708007985,-7.502804582678722,-2.27771110167194,-7.401685048107492,-13.931489218062955,-15.028644757137762,-21.858752211562944,-33.627504425792985
-17.440925020650887,-5.48406074934309,-9.347031071357588,0.8467536543789634,-1.1886689583650274,3.5213317912184934,-0.9744320089136008,-7.731148362824401,0.3528017253093303,0.164694208432234,-17.71610328370663,-11.241144086950246,-23.70958493629823,-29.69559716224305
-4.8025580924377165,5.33071226433464,-4.919439076050399,-0.3864942134711252,-0.3978815969953,3.74836051952336,-1.085183917696379,-8.563425211245264,1.4140878083432042,3.48179283126505,-22.10702264426798,-7.199577863865272,-25.700654952314625,-22.62589807375883
-0.1014249651420211,8.05914311476613,-2.310942966283342,-0.5790539427206208,0.4342467303774318,2.1333641244913157,-1.467681800861662,-8.451831165446503,-0.1805298989950685,-0.8993221784429508,-24.73945843603624,-6.436845974160278,-28.06730968666568,-18.88230583197382
-5.141247982554838,4.266442317539337,-2.846749494247224,-2.155327487448663,-0.2321359841120331,-1.1204609825361975,-3.032199038804693,-7.394286779332458,-3.835884061998012,-11.013375864769433,-24.07533173040003,-9.838932539901752,-30.33656002988865,-20.010610946607315
-5.565922157582016,-0.1775953588659256,-5.166240539715009,0.9261490651924816,-1.6725566807535073,-4.519016830105265,-3.6480088125097336,-6.827153598546882,-7.54111211855226,-21.08484547810372,-20.638061258953705,-14.810095486448528,-31.451691971660495,-17.212120548427198
-4.347612646357364,-0.437654752824212,-6.442968318656842,9.299399508007056,-2.8589426196607377,-6.309152639342653,-3.361409535655461,-6.473055628530824,-9.156342697682886,-25.63029192097977,-16.439338023242264,-17.279596407667242,-30.088781629414967,-12.121305280181131
-3.444205260707731,3.3157317744776518,-4.827888905429081,10.885769688961048,-3.17326334295462,-5.770954869776084,-2.573317991391406,-5.022945721445455,-7.757870799658079,-22.795052799289987,-13.155902547141768,-14.923314686651535,-25.28109805875556,-9.375318683874822
-0.8050558330778925,6.620556406845108,-1.0399462590500868,6.38812077666928,-1.9281676051818848,-3.78849937159535,-0.795108782614225,-2.587026970154044,-4.096385256328384,-14.804994655675673,-10.888412967045634,-8.915428883112195,-17.387444417174446,-7.984663959980804
-1.4971163386876185,5.200846991346484,2.2103851852342,1.7915777148794678,0.6012581987638832,-2.212168805991768,0.3069639009735723,0.5767951046992176,0.0361061067269474,-5.934651780783611,-8.769743745529514,-2.838159264036824,-8.804987991528748,-7.059308742098184
-5.5587535048028816,-0.9984777095278776,2.403504389489978,-5.248677935378559,3.768261344854841,-2.4588521082028976,0.7253879352901719,4.759376697810591,2.942001464099583,0.062709339328391,-6.687984050015942,0.1727015807588738,-3.37628385553883,-7.320297174891163
-5.598473888377443,-7.776724439882567,-0.8469142031643919,-7.378749799563627,5.48164860476812,-4.444317408337916,1.0436408403511943,7.720604607855488,3.8586952037214735,1.5004328294894176,-6.017437293402459,-0.3964932951268736,-4.127288886646422,-6.125848717469616
-2.2054850631277785,-10.376288415098422,-5.556042160474096,-3.466449303049358,4.445577508851735,-6.720607683780512,0.8721966230664727,9.318312960655748,3.11021336264378,-0.989808861157627,-8.17778341345243,-2.5625809554700947,-10.62568948541377,-3.31989564861485
0.1690122057565013,-7.354804066151713,-8.78829995091201,-1.0897740027164664,2.034401848371132,-7.703115660599494,1.53968051448806,11.528351985560528,1.7137377883825309,-5.04442817718668,-12.327293433364598,-3.8035485043104096,-18.315789691891894,-2.636248837263956
2.804093999169879,-1.287426645001272,-8.500319259455484,1.5736234985457345,-1.4369536937458256,-6.9377616203630055,3.1241476253536438,13.85751724202321,0.8019935138756491,-7.684149934302474,-14.898996534931044,-2.9655384792798145,-21.14719284123313,-3.661751091496061
2.5533133344237395,3.8423065443178,-4.60233682887489,1.5888659722223104,-3.749139802823176,-5.34147936930717,2.273339936859318,14.327614339126075,1.1004312459813974,-6.810957427756226,-12.206935574297123,-0.6416099675388196,-16.0405839472501,-3.690152412073844
-1.4544123992384193,5.805547744178577,1.1062020643040809,-2.382124743042548,-2.60337989384041,-4.295827125979153,-0.9582040894673176,13.001885574104122,2.5522465989068817,-2.523490189234858,-4.143979480070104,1.8501367453236772,-5.637372939334741,-3.248291205381293
-3.4988899624323824,5.10909044930512,5.7833686766354,-8.722103966439402,-0.41770678063619,-4.498158475585262,-4.467900653614637,10.41430476536485,4.22756840267189,2.7471128410679464,4.695984862697154,3.5835347048650545,3.3334004380981206,-1.2228952693378792
-4.312620060967466,3.526923246902854,6.761425175967889,-18.767852295811675,1.8824512220385257,-5.59637361078973,-8.945729688564404,6.077867072091015,4.720191547577043,5.775388347558238,8.233222904510509,4.217345561913778,5.176662804764795,2.978898399767434
-4.957490139129052,2.1271537345373357,2.840580255708945,-22.75239052014546,2.9444622882387232,-6.77505053439803,-10.676234265846505,4.36343071035142,3.028681759771711,4.866766415798733,4.143699227808223,3.4976761907919496,-0.244224495427356,4.124595265916639
-4.394780069700694,0.6991401876687537,-4.811756844050212,-20.04033284049572,0.5905838380140962,-7.544594759806801,-9.077716626933642,5.595954217697866,-0.5519180054979049,1.132828454492981,-3.5794302376787086,1.0806452229111416,-7.419357121661677,2.3020365579794944
-4.933683359793177,-1.2966023742884651,-12.869558764537985,-12.055829672735143,-3.198647617029719,-7.93236252015765,-8.941494691840855,6.057053924016756,-4.283281939870827,-2.4423711075114314,-7.537920854959835,-2.846799212002455,-9.679794018519916,-1.0170734440980802
-6.55127693034216,-3.5960033755700995,-17.499962709975108,4.0973557174076864,-6.76807925587469,-8.046447035061789,-9.417663223883617,6.7539781820457945,-5.960753754206005,-3.40243394293266,-3.230148183239653,-6.866417680334028,-4.49148297234729,-7.072826188093203
-6.786606219505479,-5.009313559866301,-16.700171016201594,11.12458860862588,-7.574902558569437,-7.664917639544358,-8.77926433148568,6.376591289924708,-4.476423155192812,-1.6087064928155077,6.758767656752513,-8.687219547781158,4.812490881225663,-8.257149089505113
-5.973778960678557,-4.2984944101742135,-11.671633480029955,8.5269441814715,-4.347603167896672,-6.3760095422028416,-7.682145285912329,4.335572028587503,-0.7738222472221921,1.05504533299159,14.676541333693589,-6.730397603522151,12.035648421068856,-4.076996723714539
-6.2228025736926975,-1.1844579370908352,-6.006157781302014,5.805875575448482,0.6111669595609855,-4.0905743441021,-4.935662791444972,2.953361073976298,2.6715086806487074,2.5447206152414883,14.192524040932172,-1.694885500328907,13.015355013365802,-0.0186398558357762
-7.249484287156754,3.273331820167705,-3.126816086960735,-1.0671615321820116,6.295888838881717,-1.3135531091931512,-0.2673994818509978,1.811433368888432,3.5266316404982985,2.1688539595134744,5.777674546430404,3.4581855465324502,8.28418232789966,5.713222862298048
-7.309987274813337,7.098009643935304,-3.9326308093776343,-2.632513783301351,8.798971798564027,1.151436661973242,1.5739531364916728,-0.5420733528353441,1.1165200236607655,0.4307200204674402,-4.069887302146922,5.398556011984102,1.6975796842061222,7.031064431558716
-6.67045416377579,8.40465614000261,-6.470334073360822,2.430347372397445,6.773854566336906,2.771499091142368,0.5590605308464338,-3.87041749877763,-3.3813005285598443,-2.212658788884842,-8.973301395481222,2.8106414403296283,-3.181974824288836,2.814695708239053
-3.652975250597836,6.607546793488665,-7.736685937627849,-0.2489930236082692,4.371579413800062,3.587473048074882,0.186902344945079,-7.792544431605007,-8.044652244333415,-5.943812389645364,-8.279171494916444,-2.620958031475004,-5.5483018834290245,-0.2300239375172435
2.265998982597041,3.1789877331748126,-5.976436440183642,-8.926215629589622,1.2599551426978288,4.041731072281465,-0.5196914779907532,-12.561051481237405,-11.528821792535693,-10.685149919169689,-6.746449156191901,-7.384960185982723,-6.808322586830191,-3.678131785517345
6.236585263350199,1.167040718348482,-1.6615477172537556,-12.03497973341596,-1.6457692260184074,4.58074767236219,-0.8066092285205728,-14.843604029894353,-13.54274755504926,-14.82474677679482,-8.833041190356276,-8.544319299325158,-8.145577445051789,-4.433778268292571
8.516981588859895,3.257919666349494,3.2827886334947376,-11.363442198219946,-2.242011395958285,5.383297561387856,-0.1726031724058063,-14.323398833084877,-14.386002226187951,-15.47785416577128,-13.511165523247575,-5.606570508489207,-8.889974213136924,-1.245555110759677
10.795001115371967,9.475897828611346,6.966714237695431,-0.2559173562115121,-2.313803093284674,6.318501615224077,-0.1601031963867009,-13.687951261542196,-14.296302132501324,-10.725150150937669,-15.009323974455048,-0.6462253180717923,-7.296202601008883,1.9150399436709236
12.054181000252976,16.490240069861432,8.482438586865488,24.280150202262178,-2.383174151568776,7.022997899081159,-0.4752398226736027,-12.10932300145667,-13.288830529349918,-1.9324833218504285,-8.842518296723476,3.2452920173180253,-2.7854096724408013,6.149596962901107
12.683160943120969,19.645851094516992,7.971342662983924,33.53455990161998,-1.0874928104744117,7.028305599467474,0.4217596247855181,-10.544255982530926,-11.447568901036767,6.384708879478813,2.9550808387983825,4.033857445201551,2.7964162824108625,8.089417183571094
12.627928031383718,16.507180102410487,6.304154611682315,28.04511263277442,-0.1759117088433119,5.987237287618919,2.447032399155383,-9.358936383518865,-9.146916307178024,9.638766252697325,12.795026664987237,1.949065046089524,6.379140811105349,6.958653310092954
12.08679593996441,8.984318017252201,4.7858037344436655,17.555812938632663,-2.3093319885898485,3.986950300568124,3.702489811873453,-6.887652306108399,-6.890026222158257,6.770440348663785,13.97970704945395,-0.9296406435255288,6.325657579676218,4.87718917759697
11.111719592899806,1.969778403144625,4.741401996815602,-4.545961713736186,-4.38186655425038,1.7253864152718157,4.3907158698175,-3.398303727494969,-4.968328603916272,1.1425225333735316,6.542804196143075,-2.330867275523812,3.988224428904545,0.7256963990684852
11.434592435398592,-0.5519221356867003,6.779496903664692,-12.374106617561338,-4.900081777879259,0.2747540837500892,4.831542676160869,-1.39565807975805,-3.3287850353832464,-2.2150867884297902,-2.9263803553446213,-1.4117259073666553,2.5527552670099496,0.3431857199354158
13.31650151728774,1.457750675425315,10.13683082349943,-4.275296935646894,-3.262928617127008,0.4407672265488624,4.636712904447431,-0.8395472230009173,-1.746481163816565,-0.6477282685527168,-7.057183457267734,0.9065603425126784,4.15920058951914,4.251722774322765
13.813413242752436,4.595178381490905,12.899206950276264,1.724527855051078,1.8584598335089,2.135117074958549,4.472962989054581,-0.1338169659241534,-0.062643901378566,4.295052396038861,-3.567117683363726,3.057548485334431,8.005395228050503,8.93657096531615
