AF3,F7,F3,FC5,T7,P7,O1,O2,P8,T8,FC6,F4,F8,AF4
1.255967983800535,-3.892193478533089,-1.9828917770366372,2.3600175132758263,0.7872805527815881,-2.1323295237069466,-1.9908671667174505,-0.3000507878628501,0.1520847422911166,-2.694887381281515,3.315401643406529,-0.4310295538625416,-2.03722290723292,-0.2068346662176721
2.074356322519741,-1.7359152569481986,-0.4970433466734212,4.839301179066083,2.6266867450567637,-2.851411609565198,-2.5067259675502878,-1.7430510059790474,-1.1004822201120552,-2.7484017815048825,9.22033942108242,-0.3613765300464825,3.3636062168020664,-0.5079335497748994
5.232763559037764,2.719848773401598,3.4963034155678576,11.316235707272469,5.550626584535401,-1.0927774429826702,-2.512639398104671,-3.458584919755275,-1.4748418437199562,-0.4296894327672214,16.99310771690621,1.950167355420324,14.266486868172631,1.997040403922208
5.772387472598096,5.33792017824884,5.543449989213611,13.52951817503198,6.876224599258284,1.0282459957009755,-2.1861529872147893,-3.6735500195787374,-1.0204066070832614,1.2013893328952374,22.53548603956158,3.8950750396574394,17.73811613760005,4.714251354315974
4.066925198292308,5.475757115250697,3.9747934094803457,12.103505798233185,6.702884076352366,1.179745590927398,-1.86994746424253,-2.705701140890717,-1.1670467902478114,0.422280412549634,21.669264331554103,3.48463747554211,10.881827056135284,5.405549835585682
0.4925930870428793,1.1091369225194077,0.4888950246908023,8.093378686373944,5.090524627774794,1.1514135200572035,0.139844911084659,0.5986162296370807,0.1808828476569904,-0.2108583106648203,13.78221974873568,1.1697289881423685,-2.576158568750592,1.3832892694167829
-6.081604413397492,-4.466399590796334,-3.9878563603719455,-0.3524379812602528,1.3335257398767868,0.2603266101560062,3.752983286226175,4.364316634118699,1.118866393048068,0.2861605440747968,2.649006685418936,-2.8298843212765505,-17.227953514820904,-5.026889216200733
-8.433474199815892,-7.315206725270389,-6.1993997024145004,-3.9997386999276414,0.6346274423410716,-1.2015850598139688,5.599277765165761,5.110543255856509,0.9304921938408866,1.4383845164362352,-6.089567043473762,-5.679064867505884,-19.73625438756977,-8.777302005896576
-6.341861896630704,-6.018085818184567,-4.109261738114745,-2.6291002084337047,3.14831096886562,-0.728507262636126,4.621849539076599,3.2985797730276523,1.1905299412576251,2.8028839889430994,-8.582604345214255,-5.005397916365693,-9.480380612925536,-7.967498161502204
-3.993034137737553,-0.0143276626459529,-1.1317464887415052,-1.1715796123722102,8.457465957536288,0.7252391933794613,1.9873130681678972,1.0392671908818911,0.6259667168533856,2.3219397594248137,-4.895622816581362,-2.749030929210859,-2.189606711036765,-3.296149112195923
0.2837417261155417,6.148260605463911,1.8999595724525815,2.4976025085716107,18.03539926542973,2.7388225400171704,-1.9376222188098045,-0.4335856776370211,1.1297786390809432,0.3007191533828889,1.5124418764228222,0.0686143391280119,1.126607574526258,1.8260131601872247
1.773730203887294,8.618903110866311,3.9434847602485967,3.173354240118008,20.684551113218657,4.049931441893427,-3.783664655546936,-0.0868325473321837,2.149429042235945,-0.9960890698500005,6.204359758704792,2.188062361148056,-0.3567699311234851,4.095901563445266
-0.2205497967846141,6.357837467548771,3.319697976750168,0.1575105078961146,15.982624009886912,2.783061518290053,-1.7989070109346847,1.3299073624215103,1.5403109394377164,-0.6006445627275288,6.47945200937882,1.9614349955139927,-5.792776237004658,2.577276250895737
-1.6208829053922824,-0.9345152112698428,1.0848805679227993,-3.3922670228051146,8.473892011519705,-0.4473720710170721,-0.1027884901360791,0.8132190796318982,0.6938283415667652,0.2443545935493452,2.9082571940695474,0.503407318572173,-1.6005616084248273,-0.7815095323975719
-3.6520283047302295,-7.690859429990401,-1.293858316233035,-8.912655824114639,-4.690525810661626,-4.2295677623002295,0.7563402924540567,-1.7489160604986584,-2.066812447640681,-0.2378100458373641,-1.1966201717001024,0.1756554784968663,7.67815208158962,-1.8121390267525797
-3.956037684669579,-8.916416584564665,-2.754486205011341,-9.965605304848792,-9.89334892740091,-5.098535546592575,0.9926280419532608,-3.691366956062065,-4.44192408588851,-1.622802129205939,-2.227441658104516,0.668349403899261,12.355470916790296,-0.305874300648211
-1.8759090791210271,-4.716251115427896,-2.465924464828535,-5.853470011083107,-6.101428103631294,-2.326494278835184,-0.4639819104500611,-3.9484933945961744,-3.4672211505281143,-2.8190798077669257,0.8506429331493441,1.3980966968190014,12.53360443555252,2.55476609634242
-0.7818774412371544,2.915848405511157,-0.1449945283872428,-1.1331372016930863,-2.661554027386349,0.6717006097207487,-1.2410225476690304,-2.440484687634089,-1.954714047980574,-2.655202055763897,5.4466394602938495,2.837537560031507,6.628494803446724,6.340664176944129
-0.0405155583534694,8.597514362289594,1.6829867095268245,5.865537823784267,3.745237781566032,3.065574760517258,-1.0104665018182777,0.2963673074831655,1.412166896624263,0.0428844804962891,7.2656013058599775,2.185674363534704,0.4916801985888384,7.129471788095005
-0.1116618682387515,8.025483630125581,1.8864902217375767,7.49454311519065,5.8159001392665335,2.798851115172603,-0.9391551700585434,1.8895741966414017,4.258334050651136,2.8515177478845146,3.883988390253167,-0.0182051049000963,-0.8585997873450624,4.155193241965347
-1.597306038931371,2.7422920568337616,0.7110904953809981,2.672008040563364,2.115183996481075,-0.0806496338925633,-0.6407937167780268,1.1648723378896708,2.9592948469681644,2.941857822959153,-3.070700728862308,-1.2962038189723744,0.3064942026314163,0.4378096036270873
-1.2752199356052376,-2.8098889601961745,-1.2397697097808449,0.4184548019536446,0.3774227091572691,-0.5938504741404503,0.2407191135915925,0.4029285479680985,1.3030923655171796,1.31923892781063,-9.270999582727624,-2.1045791375695626,0.95694462636067,-3.231905452864526
0.7429753790994883,-5.619382596799309,-1.3892470933639034,-1.0248885340131069,-1.3173986436839922,0.2222045231984186,1.578668218389495,0.6907149257588767,-1.029873647348136,-1.202657209556234,-11.462740266648446,-1.3108132877203424,-4.090872114761158,-5.7682838411299935
1.638576745059845,-4.3896262269464765,-0.2629856022962985,-1.232579282626483,-2.7073084129842413,0.8219776394538144,2.338092762091061,1.1199048634710262,-3.01620276880074,-2.863504002594081,-10.141783239131591,0.3480887676975519,-9.483659129768125,-4.901794824199416
1.934691738375182,-1.0271764823086358,0.8028802135253472,1.3187024974198656,-2.7551094014785,1.2749660485140368,1.860658502091082,1.6712657668406,-1.7289224167023638,-1.5339259337578142,-8.619981956148754,0.6015958442821895,-9.629698714520028,-2.6480919742579285
0.6596468594773256,0.425185860768894,1.7277242406025772,-0.2775588135870591,-3.7919953639263553,-0.984883012966875,0.2670455328801245,1.6027035518253805,-0.2542830772361298,1.1129940465297177,-9.499653373162316,-0.3537151643737434,-8.432041722453041,-2.3724781670899797
-2.784672642528692,-0.1245909280849911,0.733682951317719,-5.824928374737509,-5.48114791940851,-3.810004846616612,-2.245199704790825,-0.4267206395624933,0.5917845347937682,2.935444538787173,-12.107207744402842,-1.7916879632281972,-2.092579827042174,-1.722991555317927
-4.298052743124685,-1.0620966753712109,-0.8629361536634441,-8.196709164447503,-6.545379636109856,-3.991624105949341,-3.3773736293676366,-2.102232297458316,1.0731538444346007,2.993322687792394,-13.354459554328498,-2.404409458005125,4.161745411645395,-0.830872344456453
-4.048297075563331,-1.3060029522027723,-0.7493361938161294,-8.416137245035056,-7.2678666194802,-1.9617444747009396,-1.82082849049714,-1.4546377916174835,0.4483823216704908,1.315209150857367,-10.960661618487196,-1.0221420137633757,3.710713630496677,-0.5765850296278411
-3.755991756559091,0.1612461421679296,-0.7892763096302599,-7.272932721648504,-8.156976098045417,1.1208925628707664,0.057918615781164,-0.8252993514841084,-0.2842924947452994,-1.0333013802248607,-5.684775636682879,0.7983567338780972,3.832501026581725,1.972859260401949
-2.570381161294333,2.3261397461118216,-0.2932145307566598,-3.4222154735247963,-9.052494281769956,3.7604630854188223,1.899522114475628,0.3829315998106413,-0.2125368040793401,-2.514685418549634,-0.4868489374245754,2.194147267487329,3.6500344832723215,4.151669708401109
-1.9608258393010456,3.0376499959528647,0.7561135584955276,-2.0411507487820773,-8.884425926716771,3.79519425042575,2.603146267368761,1.5162045102242432,0.2321914438645293,-2.2944797875620675,2.246149477704948,2.4284941512847658,2.074227947623823,3.3786566845076678
-2.084103753513707,2.071362728000801,0.3734561904755775,-3.1643737573648822,-7.607002451379026,1.5800024107580004,1.0435217037674709,0.4496303262177045,0.2936284236335122,-1.2980087953590294,2.510966615613498,1.004011937910506,2.374202760586235,1.7392302364586525
-1.3786394511180613,1.0005622972851058,0.3510365917878774,-2.944680325449431,-5.774775847970557,-0.034755520949909,0.0563130278688659,-0.2067104609086252,0.2805871762215478,-0.4212500244334317,2.019058398618516,0.1537319461675155,1.8958905343010248,-0.0836640895436519
-0.1464800332346813,0.2573481777464755,0.8999892942912073,-2.397374766532708,-3.110968209116697,-0.9463686842804642,-0.0921041617411507,-0.1705373613738194,0.0487633518402718,0.1991595818352405,2.2106227055779573,-0.0342651697636845,-0.4316061335304914,-1.8534162839319788
0.493136328488796,0.1369447346250563,0.8443219899899677,-1.631680679578038,-1.7525506323281084,-1.110142014963378,-0.1293266292395488,-0.3141097340697528,-0.2817272336752529,0.1781906181719486,3.1418125785354576,-0.1637227857835165,-1.6561034876256826,-2.0692607771850264
0.6839151358859917,0.4441046832641087,0.4536622435440687,-0.1594488051681859,-1.9152061991484008,-0.5609110451619257,0.0406170342810251,-0.2080438074981468,-0.3877558668149146,-0.4415732324113051,4.046685288873852,-0.2634036432774536,-1.779279641876844,-1.4844253130369292
0.7255931160651787,-0.0239268293025657,-0.108202623537588,0.5789388902698669,-1.393192944470652,-0.773073246940095,-0.4061922020443103,-0.3029601120183429,-0.365877185313021,-0.5960252435686694,4.488976931459989,-0.8671023762845174,-1.7275139695100814,-1.6696052108829529
0.4028785845218831,-0.9662395606282296,-0.8383667215844054,0.6362623383919377,-0.6696734571472411,-1.0591667597036103,-1.1158897116825983,-0.5890592592709599,-0.2673256431111896,-0.2993734452292638,4.726135082795341,-1.3729836055210984,-0.9188086048913974,-1.4543550381419277
0.8374371853682838,-1.4923116323826764,-1.0262703010012526,0.8951226901295427,0.7265331693485544,-0.4669053435820976,-0.9604750217761544,-0.396229913210548,-0.0655995128664645,0.3023676384388419,5.177400569459066,-0.9225359770545,-0.3041387875556949,-0.1418594562558987
2.1126928721367904,-1.6321983452521345,-0.4547009654675266,1.0945581755865847,3.177671229283461,0.4705351650531157,-0.0132096840883191,0.4398666979949301,0.4287676569325369,1.401812742124128,5.8930248271156245,0.193739438787578,-0.16158234732523,1.4316924489914131
2.4855420002885924,-1.950054973708956,-0.6161874978381162,1.3953672085879316,4.657887712588626,1.0169161371786195,0.3430067630511301,0.8470723684489482,0.7541339016861899,1.967538738892654,6.642682075455574,0.5101950744107562,0.2402765636072004,2.756768300299381
2.1291316143148857,-2.89739862774937,-1.9370000053794436,1.9154712112725667,5.286716738371351,1.1223089557536954,-0.321950794587002,0.4695789217254869,0.6731640325966184,1.880143992765392,7.29850354791372,-0.2347673384338778,0.899548104001095,4.080194949423097
2.4451785190170936,-3.4865527875431424,-3.147235550573133,3.020718519372749,5.971714138530613,0.3593524951465291,-1.674543724613983,-0.595421033212924,0.0633237671334387,0.9265193972563576,7.907684350489072,-1.5691450530710216,0.7918551164635012,3.485746630961491
3.191201516560902,-2.68977436870562,-3.285198565236911,4.849158468163396,6.323324769625267,-0.6091063048905656,-2.6059464142316773,-1.766365117967167,-0.7877339991180662,-0.6175248273992412,8.423328535480584,-2.4478262577320256,-0.1365083141983939,1.1715132528759542
5.251194883060646,-0.3259165356624313,-1.089855863196096,6.485931735103841,7.580062707703759,-0.420587534498001,-1.2667399996738669,-1.3071470642943277,-0.7668045503519185,-1.3197294496980403,8.551406185015217,-1.1174175581765926,-0.670301358720222,-0.575520026181599
8.979330805882705,3.6307250193851353,2.6545745675704104,8.023735569776363,9.907515570361417,-0.7258112377406827,1.0889412532588552,-0.1383918471879215,-0.2646171917063843,-2.4576552413474717,8.026970349727,0.6326084022454085,-0.964101791871399,-4.489377601933868
10.0299026688216,5.9805202530600265,4.76228493480154,8.198412594299038,10.152743697334516,-1.1331452545014415,2.762715094144928,1.1161282123869825,0.4849085153539244,-2.5235660950335594,7.023965993754175,1.6251104590978953,0.0653467242639731,-6.729519077993239
8.394610874857584,5.004868344116881,4.333028468280198,6.682226357105166,8.415425624323493,-0.5816325460497178,3.245626697327821,2.337926034160234,1.116849597142594,-0.4198164004149332,6.220782027257682,2.3354890191263977,2.016697968734405,-3.9801407027046816
7.1476373419995625,3.3391281532263504,2.8561627020182,5.56810736498113,6.522184140093241,-0.1292279195910651,2.267624821774666,2.151276607127319,0.4808865506817815,1.1680509515257893,6.397796611905699,2.4667618122930346,2.149223763634055,-0.8130570377854144
5.3969767404525735,1.449683402019358,2.2719700015507747,4.5339354624306925,3.840361338689893,2.4000277233709224,2.647039793567897,3.0209063756050023,0.0669925455586141,4.865016456700256,7.869303695655953,5.015979974796944,1.9294538261397545,6.144102936234459
4.193493838913986,0.235634938656156,2.5454146113507234,2.9015640815780857,1.8294847701305084,4.704856133971606,3.5223632183627545,3.820698950520144,0.1184919568875555,7.1518288741722245,10.101233864427783,7.249686487376155,1.149724407804935,10.997460093397407
3.999265689337226,0.5810901859102924,2.553357127353848,0.9899587019196332,0.796343083953843,3.3647368993870828,2.699434142260812,2.5878199279084777,0.0450743537719325,4.16638925643576,11.761612680031988,5.3490250293712425,-0.3664796784855431,6.870240266383037
1.146746135532694,-0.2654187113055718,0.5557241419891483,-2.3338722843677417,-2.60420574453064,0.932087571224816,1.0500214707849551,1.2190591574106873,0.7086576235043536,1.4118935748266996,11.297589439401554,1.418093704627406,0.3864676154044856,1.906244178892112
-4.224050365008873,-3.012619349577749,-4.668481881849389,-7.2098301899875485,-8.160871685403139,-3.400740024186333,-3.78388335332732,-2.7821994359849915,0.4195243403802898,-3.678228912943264,7.878560947175596,-6.315189250677505,0.1943868368147923,-5.506497857286122
-6.463453157996573,-4.642733982022709,-7.811521174953059,-8.818543226009021,-10.891745151708124,-6.221992757260175,-7.53952741020501,-6.217087376805903,-0.6388675686757241,-7.808280664717333,2.15507302637878,-11.419997618210356,-1.3310819081811474,-10.535555824164415
-5.918432984685072,-4.322938158129195,-6.216695239700104,-7.047135081122557,-11.08851272974552,-3.9420038615179847,-6.190115356375332,-5.599868170899104,-1.0521406930780166,-5.857365510394633,-3.852492786967821,-8.740614089107494,-2.069476465368843,-6.595583211477129
-4.75197907242971,-3.264678822510261,-3.608612426636349,-5.37500003082402,-10.27385198439373,-1.4951563752440058,-4.503765331774632,-5.265064157239481,-1.786997153551785,-4.795910214634822,-7.901013295404993,-5.631342055737365,-4.3632429783619,-3.605739644907317
-1.7921165102607588,-0.827157614081209,0.4149933035375852,-2.749367224459846,-7.36253491173264,0.9550031418840662,-1.3882315044266125,-3.724357090143611,-1.854527147024511,-2.93310993443866,-8.913846296480813,-1.500232209510793,-5.381654531755272,-1.3419928375407837
-1.0763264832112651,0.955972178916446,2.576277317486557,-2.5646356184997745,-6.218112791836846,2.20402471240642,1.2533632771691892,-1.280782197589153,-0.9633842754177429,0.0706847890519832,-7.512775598178174,1.748666389824284,-3.550632703423126,0.718607167462937
-2.9749654123354623,0.6884702697105354,0.8761781253692486,-5.54136277386016,-7.060212550414877,0.5042296805191555,0.4520795866823008,-0.568558953976932,-0.2157892314302542,0.4548888485604461,-5.28779858581354,0.7965095112975159,-1.2394767775149105,-0.461779879089893
-3.071138274240312,1.0343885794610583,0.6185946401623806,-6.633197525362555,-6.541398361281883,-0.1523664201184368,0.8596998479853359,1.353656289077155,0.6379529133376409,1.611223692186651,-3.5029343245758806,1.6116879219704523,1.5042831138254609,0.4776637001949596
-2.200987082621353,1.998167169809952,1.3152436655040267,-6.636169714368402,-5.477089338253402,0.0683320527570107,2.2935259286180014,4.176101230016137,1.435107038877128,3.658681592730961,-2.383685458034397,4.049465918102834,4.011136871409167,2.9101994494448413
-1.365515513174359,2.3310598652297627,1.6776388076544249,-5.776711738556104,-4.284500327923894,0.4757395195927389,2.9843472130706887,4.713297278253313,1.410577115189122,4.002519889155868,-1.38940508314405,4.46619931932085,4.182863328962772,3.1919707325276043
0.0783048164125338,2.2838423906117247,2.4982417405889064,-3.148588787335459,-2.541995271195176,1.5488668428189845,3.6394622269327503,3.709047126762053,0.8292201603806285,3.3418666547478715,0.0161772402218671,3.7610383815245134,2.6355498915581914,2.4399967071887123
1.6447826703498285,1.659992551804815,2.297161235908002,-0.5076367973870329,-1.3472145037136691,1.6849289721360454,3.4766772832783257,3.3586874230620998,0.6103674248676731,2.6059289602421507,1.809314800632115,2.898268993568517,2.211394680837208,2.256707253895329
3.331185596841032,-0.0766780188901097,1.912149036984112,2.382083976924198,-0.7273031801337863,1.64685624426609,2.654167084496754,3.253179933044075,0.5495803929852447,0.2250650181855412,3.311628573046153,1.2197844438121357,2.6686746996624686,3.515727961134452
4.141330934764552,-1.327979493257207,1.8983372239512435,4.62635341255161,0.2371968689160415,1.336977128043142,1.6976706378817294,3.4356780855037354,0.585207663876836,-2.147997264664285,3.411354869215657,0.4362326775807101,3.224816457922117,5.325395400535542
3.864350340038772,-1.3271310517202786,0.7264687013828852,5.816453834102266,1.336693818077792,-0.1635824777618143,0.08234732214978,2.9409256240671,0.5411764014235871,-2.5515433142625543,1.033474934746482,0.4039456839497417,3.002712135494094,4.6673755004869735
1.6569818659147573,-1.1286741056324192,-0.5547955520674293,5.89634136905683,4.4254437189718026,-0.6993059367147658,-1.2436647746150151,-0.7451196160991803,-0.318872095377523,-2.617485388165792,-4.099783628807822,-1.4078840318204158,-0.4638846244615535,0.0329872366831123
-2.967627334722246,-0.7391812544954566,-3.0564726503884403,4.386956140776272,9.831646587527512,-1.7898281854108926,-3.642361298338407,-7.016019647699496,-1.8402453552132243,-2.17149689976532,-10.714315899459868,-4.06589941274619,-7.042464153244627,-8.246670894596877
-4.760551391479835,-0.3145690081554433,-5.071825105481195,3.467364273150882,12.141498245485836,-2.7171555665274068,-5.280896225922214,-10.229091414485772,-2.5784930160789874,-0.7388609815906984,-15.990533165376585,-5.045494528192115,-10.556571982813674,-12.950500661848595
-3.7056122775161753,-0.1199375449694917,-3.4594167458597567,3.0541020808668424,11.495845222709692,-1.3007152828637596,-3.554821284308105,-7.360328325963527,-1.6415358012360604,0.5104672986538578,-16.889204584526297,-3.45291249959491,-7.297540986692246,-8.707153227318146
-1.3823428925671577,0.2236516421426193,-1.2293940153600351,3.206949494074536,9.267816996667412,-0.546537693297331,-1.7687922410419978,-1.4203857516716152,0.3302414233333139,1.7142876814077372,-12.241622698398595,-0.2508844776549882,-0.069191968053527,-0.3549483588844193
3.507064198169363,1.4253001011037163,2.354855614113361,4.474161946240272,4.174331774240822,1.4770974526484268,1.9341990517448664,6.644701903981627,3.171791837678984,5.267316234852635,-4.066721125375032,4.167101216488917,10.298910682852233,10.366645043636046
4.846408832864613,2.242556282879079,4.994516633398293,4.359482926270404,1.74042196375572,3.616993602080669,5.073809219641108,10.323810495519396,4.474414754369887,7.455169407524722,3.202978834820589,6.136842923488658,14.94535161943885,15.021940198847284
2.3036371434110423,1.7603074914231231,3.618843484118795,2.93160020288275,2.1949685662000897,2.910727403179913,3.973433813388202,5.974720738307991,2.755918303895759,5.154338748422564,5.335119966844651,3.936287538432684,8.517776444647087,8.54329532172084
-0.3504815740518114,0.6571566436672709,1.3215164844174456,0.9117961178839272,-0.7231450329467846,1.6621265444905695,2.020126429726178,0.6023554157680163,0.2232364073623856,1.663339519382148,0.9932261756653382,0.8330311008139484,0.192608609504858,0.4249895988258918
-4.5745325857527295,-1.590896586352969,-1.723327372923963,-2.26207963540672,-6.03579596457344,-1.1946297912851795,-1.2999706643837976,-4.617230391838912,-2.810260116706614,-5.33516717268535,-7.465571323543411,-2.860617378319419,-8.904861455031387,-7.553496606500178
-5.841056986641248,-3.068987910142696,-3.485343522019607,-3.049987619503324,-8.754938313901466,-3.633179852845082,-3.715277015147115,-6.635351886526143,-4.185666101263969,-10.310778131232182,-15.651337770870338,-4.574892326586894,-12.841707801906432,-10.656373101383917
-3.4726019090824702,-2.385135401235566,-2.373370551410741,-1.2025100122287236,-9.556478162496058,-3.138987805459144,-2.860243535862236,-3.217089923470632,-2.570615523969908,-7.521097894906641,-20.005276838702837,-2.8538639625192026,-6.9826212144130375,-5.860584054116689
-2.093577724013028,-1.4752147026520122,-1.277856946671228,0.4301637563827455,-7.597645656076054,-2.3903413837768355,-1.9256842152214415,-0.7482306944208778,-1.1451659244642425,-4.265789247216728,-19.764959898523145,-1.4469499235392538,-2.10153522372084,-2.5677279831431807
-0.5896850433396419,-0.3139570761677519,-0.6237704826786783,2.664866226232191,-1.7318697516262196,-1.3337861273205258,-1.2781642785089142,0.2097441510809358,-0.1047750706640598,-0.1592973423578754,-16.729338290541055,-0.6960052022489569,1.5372236142321212,-1.1694264683088549
0.324250381837027,0.439080501564151,-0.2902080625116023,3.6556114130774224,1.2762690945803552,-0.2117112303700491,-0.6821715672506283,0.5621235990688115,0.4759508368178934,2.954300775219941,-13.307193586552604,-0.1984523311790936,3.495294469101474,-0.0599754573871938
-0.0569008262282739,-0.0886712278844852,-0.7333556907468803,2.8895798275286104,1.5899134616862447,-0.2896109268537921,-0.9541310863567666,-0.6327286695287724,-0.0445839836763929,1.4522182923879,-10.637311325352773,-0.5288560700766417,0.8236917477556949,-0.6762308582460125
0.6798072463502501,-0.0895885274472425,-0.1538322775159974,3.388076471812288,3.627718018189936,0.3771308046529224,-0.2641867152246492,-0.3818378529512332,0.2843445469458642,1.2379966791904191,-8.293579365197857,0.303360396039034,0.1098206833513733,0.9724564602213028
2.231165128795638,0.6191413463200459,1.4389029500287058,4.68895158015026,6.091231948743096,1.910019791518327,1.5762576484578472,1.2285486319757026,1.3072386312449191,2.6071349806292288,-5.483298849416009,2.145559062817465,1.3231590844430972,4.21006967138808
2.4516125403760207,1.2498364644079525,1.887810502067534,5.670586184377831,7.297671928985665,2.183549871200347,2.355526292193765,1.8620592740068636,1.3845293756529118,2.649993746640209,-2.2474132258138795,2.20558273379489,2.03179385891043,3.9777983834989263
1.5923368290835345,1.8850817420212045,1.4892049549354855,6.778548772242123,7.581254794856482,1.684742526707663,2.45568032122096,2.0600102433699354,0.8317921234482265,2.1034822414002274,0.6598427461761673,0.9812244314430314,3.2143463850723117,1.6568682560922596
1.6231866729281046,2.166666947095057,1.3913840895225875,7.760452969229724,8.467753966784555,1.6632462334705258,2.954866848593856,2.3263830967437724,0.5286211147279506,1.2243444297568653,2.9313409024818498,0.5798569641104782,3.3041703987337145,1.1378696444681675
2.2738994741566976,2.171052432732595,1.505882423687734,8.508305542651387,9.772688670334576,1.644821893482702,3.386469789274479,2.603091774705808,0.4840110340489383,-0.1996942553356937,5.338493454808535,0.7078865399437624,2.3051490594156285,1.602690086303726
3.053629724949499,1.7756689209950236,1.9331921262619705,7.831996306295621,9.606121146389572,1.7938285011683095,3.1874630503071364,2.6375134632972363,1.0078113105329576,-0.231530741799138,8.816587014796308,1.7041550040239049,1.1762251293223671,3.262343699089452
4.322275275966485,0.7413342894851968,1.820514306314581,5.497075742152217,8.112014505174521,1.552164615772885,1.8237672024358589,1.6355527431748436,1.4040265711243554,0.5904014128254242,12.886597298531552,2.496819470168724,-0.3565696625157594,4.24813771759917
3.575638787323022,-0.4149521847336135,-0.2023163596673224,1.252361783137557,1.8288297766351316,-0.5728880564108869,-0.8843267811007159,-0.5230441006744244,0.0198113823404073,-0.4650334053112013,15.380775813002298,-0.0357263542885087,-1.1385266963121925,-0.4311653099741307
0.6109912823890243,-2.43855494818238,-3.3902415274830227,-5.4007882126505855,-10.056686123441658,-3.478612964933587,-4.497379013027101,-3.759975526076303,-2.2585159371671124,-2.2708129679890723,14.197320570607822,-3.920766896772968,-2.331710861340449,-6.944828020388861
0.3045781103342751,-3.78095105075254,-4.886376901261927,-8.666132622819514,-14.24830930003334,-4.495743602717585,-5.809251764756402,-5.342301447786367,-3.308986428344669,-3.1334545163560223,9.502461553358394,-5.492072820065719,-3.3389715534700777,-9.068619898882105
2.356233821103717,-3.0833741322943005,-3.509012113531383,-8.312748435853338,-10.806419075815471,-3.099508590685299,-3.9578525238729023,-3.8739057037994673,-2.3743686896580707,-2.282201373701088,4.019495655819071,-3.964279957794984,-2.6649614646778392,-5.981408237293596
4.901435475035188,-2.4178567336097343,-0.8582845681777574,-7.325087016927664,-6.243171039664129,-0.8626122194700523,-2.293706553050887,-2.083679068272001,0.0236073839809707,0.4632147858720332,0.866886580177475,0.0735959338177986,-2.7666302628421757,0.7622626392029267
8.936680037195483,-0.993428331848348,2.0384552853641624,-4.274366532848454,2.4320041972172954,1.3085552885681266,-0.3075869569402527,0.1957598088972711,2.4828464961018915,3.259299039082898,1.0244969630848857,3.934438632889178,-1.9306197718512104,6.88676548407882
9.477336221005798,0.3565213778886935,2.8702345564741067,-3.028970383718885,4.645777540202538,1.7311103717829377,0.9074005122204876,1.47485708318227,2.8575320263801123,3.577489871303212,2.955223400841536,4.096532355958518,-0.2664400531306564,7.061291482774235
6.041418291889008,0.1178722742597914,1.041702476879245,-3.999414414921716,-0.8155294710436303,0.3487043292999776,0.3890188139418558,0.5516693824318057,0.996842024494732,1.497956591988122,4.567434678646926,0.8525855839056029,0.3716216031177061,2.099307500869478
3.673880945344808,0.3514824181687824,-0.4315525875253955,-3.361833600601753,-2.5925117757063747,-0.2926018852722528,1.000698440672689,0.2993695325383977,-0.6804428845118813,-0.7074962956259299,5.248451681971854,-1.924156369500569,1.2321050793045798,-1.9935446833096928
1.2655928002951131,1.0647388205186572,-1.0238855600058858,-1.9770307726451888,-3.0388715051453645,-0.0942043752632741,2.0556760350939403,0.6988656157454703,-1.5153688483555348,-2.2227055814958083,5.8676863351207125,-2.9834658988033205,1.859653136405766,-3.8637228059911246
0.1333646269802853,1.771904082219626,-0.5192515754502107,-0.5932807900320295,-2.6058575156613952,0.5617840454095491,2.246944467038982,1.314859284935086,-1.216205075061447,-2.113532909107707,7.153044212894688,-1.599498693286418,2.109556513203534,-2.925783626021492
1.1742897039651323,2.6913413701663225,1.0422636475050744,1.276061729016173,0.4508467987342185,1.5363080705533274,2.021904614276485,2.3026515779332986,0.1145974314523008,-0.6348348481461381,8.660556205480525,1.665580995946656,2.2980790244459484,0.3481906846118572
0.931170582999294,3.0418612562725347,1.7319107161445428,2.43725572190915,1.323164870966023,1.7612243965430991,1.3746737105822662,2.5627654706274754,0.642791363532999,0.0734708721324022,9.567677702384971,3.33785465309689,2.294218355049958,1.711102555390389
-0.1215500256440925,2.943206699265571,1.9349806511327443,2.7953132698305776,0.2760834437232961,1.7125493822215658,0.380786336371924,2.3835331852949646,0.6957734214971949,0.44944519522704,10.054446764264783,4.376850006919623,2.141052336297921,2.2254040162445827
-0.5199621624260001,2.1527537824761374,1.691791296032899,2.6119802824542906,-0.0611122235188012,1.4224920870084468,-0.1958501266158764,1.7451195701366058,0.6560591104844833,0.6681772581562029,11.2252456676895,4.135971884177845,1.3921003982937044,2.391317459417854
-0.7720845496015716,0.5774953804364211,0.6700301088379169,1.5472842238912623,-0.5362139770410284,0.5200970267983911,-0.4434496085281624,0.4304137696591164,0.2049517206422381,0.3884228884170879,13.418574569482807,1.7795791431223444,0.127947248958948,1.224025611637709
-0.6713183734012803,-0.5926399976359472,-0.0782655715807293,-0.2011417802142216,-1.5528973989179888,-0.2211044837057854,-0.6750596055426036,-0.4891658415595428,0.080721514729107,0.3322598898734463,14.996398710565794,0.1167335644248662,-0.6384191015239913,0.3555153230182878
-0.0533421218328653,-2.783559083576667,-1.5025651195376164,-2.7377407068529163,-2.885914090546512,-1.6430211236294223,-1.0260451881530976,-2.231771683534704,-0.2439660162035336,0.1352516668063536,13.42565908914073,-3.1261029102941635,-2.089816965326232,-1.3358162933777962
0.0631312275283973,-4.375999580956295,-2.598283059763125,-4.453320113800587,-3.805480555018151,-2.6794324545675243,-1.2885416364510855,-3.5653712546868874,-0.6638017199187247,-0.1702546308639743,7.823342865428495,-5.594263693073947,-3.2388701883928963,-2.7082471521941383
-0.2984072902339497,-3.51208857531445,-2.125964479364672,-5.20196685286226,-4.260337052967261,-2.116527225554692,-1.0237338981228812,-2.8550824362750906,-0.5394932228911671,-0.1897570958684111,0.2718896783701385,-4.432474864413659,-2.5979316007181894,-2.2022921660022168
-0.5453986044724709,-3.05015310224103,-1.801113490591281,-5.696122998118463,-4.31266336146173,-1.7661006339019782,-0.8267641675987337,-2.484544161787801,-0.4948523671312071,-0.1682851388995151,-5.674509585705701,-3.8358343433859785,-2.377503702318445,-1.7691545127409818
-0.8818820491839156,-1.3269051484814025,-0.7986055550032205,-5.478949227889953,-3.724387077571642,-0.7564969359193757,-0.2697046406876798,-1.1112946098124714,-0.2511079278175823,-0.1400666821290775,-7.868576272659304,-1.7910377700048756,-1.1718472672682572,-0.7826161153605173
-1.283328061369854,0.837926145557014,0.3880923197775916,-5.151914359387856,-3.355459142569933,0.4559191624513297,0.3795099426703093,0.6596826317568951,0.1129230540975033,-0.0970948206689575,-7.019381815749185,0.8157318338605748,0.5772820641427712,0.2781778535808358
-1.6961492153215638,1.0349166356466082,0.4137703289122724,-4.709673662633937,-3.173713156658891,0.5320914709633185,0.4819721917108706,0.8444779135472031,0.1701240085678832,-0.1434634143012167,-5.469544289269194,0.987309646519202,0.8632629044688412,0.2036360220801009
-2.083295853789063,1.5802082436329672,0.7887933723653524,-4.033640683090093,-2.667348218961481,0.8954846963395063,0.5797246644814897,1.3157823596520188,0.2549442038243822,-0.0555835810420662,-4.843760292309494,1.8096092111781847,1.328787003668796,0.6526145943984267
-2.412891236012241,2.1203767942848435,1.3385525833714529,-3.256399825537886,-1.995805696881259,1.3019534796415368,0.5104777363676306,1.781754554041174,0.3275162543885882,0.2071621039037368,-4.999844677170479,2.8504634239338174,1.7242929291537723,1.4378933781043
-2.6405367514584346,1.7963566491751886,1.2573454273876197,-2.759320082651514,-1.5263975431370438,1.1351616263108075,0.311311665154601,1.5160041982840404,0.2738309981754194,0.3009194343120242,-4.9288501914005565,2.5856256002113165,1.4378056078072377,1.4604915931996227
-2.7306158500982485,1.4045468086600703,0.999338548018117,-2.623736310938024,-1.2427060832186303,0.863851889813408,0.2079267885270411,1.1561142274894052,0.1530927405985899,0.2267728970002887,-4.186160306751745,1.9714046365952176,1.0939839666785307,1.1371914064351183
-2.8086081144634165,0.8374283146499893,0.5895075901040452,-2.3741914534229496,-0.933925501413056,0.4888937440512041,0.0808479467227481,0.6581041191571521,0.0237944618324622,0.1120810451582847,-3.249075756203439,1.1232455614218069,0.6590741753878189,0.6352414459986947
-2.853185454771645,-0.3564805635842004,-0.242539238556711,-2.1212966473980592,-0.6794455021499279,-0.2388201856320288,-0.149936055247617,-0.3402372897912076,-0.1567098168382116,-0.078200353167372,-2.70730079432186,-0.5340695449646968,-0.2516592828805029,-0.2927801575250208
-2.845083972213677,-1.0471015265490144,-0.676664127752846,-1.8033714043456397,-0.3247579809302264,-0.6297297373739299,-0.2821982259092973,-0.8973348014914109,-0.2421976205036263,-0.1448604180166665,-2.515988460535567,-1.4301242825456608,-0.8098191723816839,-0.7341381230577997
-2.803744893325354,-0.8894821313015302,-0.5364130034736592,-1.3474158037683517,0.1606981228886329,-0.5051395560781761,-0.2269201739940614,-0.7268381379635528,-0.1725499530310734,-0.0806405395072522,-2.185800120968665,-1.1501254207179423,-0.7104738604804249,-0.5488947959376338
-2.718471081624953,-0.6770399436476671,-0.4217379405045808,-0.95659281597201,0.5567876946390655,-0.3688511955512836,-0.1077652708619527,-0.502195258503728,-0.0647712734027819,-0.0529041764391862,-1.488632492250396,-0.8610581038691303,-0.5467028247407842,-0.4373763777787002
-2.592860284218771,-0.212080632439577,-0.1735126460716094,-0.59795226935928,0.898005847296965,-0.0807465125279047,0.1097166330549509,-0.0634962306731629,0.1100643659552689,-0.0105328035044284,-0.7120979452009166,-0.2696366685809787,-0.1791945108564567,-0.2050173085049311
-2.413454814495702,0.0724882116691972,-0.0025495227342487,-0.2604683760550974,1.2447436030680057,0.1085216179741406,0.2674321409296367,0.2042196247381614,0.2142281389471937,0.0274554987568477,-0.2085068152248865,0.0680858259790894,0.006507564140625,-0.0564846431396452
-2.1788125995718977,0.0124717061417032,-0.0075863830977864,0.0221092914597737,1.562496883296367,0.1024594570206256,0.3323735489808486,0.1811370807637813,0.2234736733503189,0.0434867138200562,0.0856614841646035,-0.0435078195289172,-0.1237048643439853,-0.0875100786538633
-1.878563197642989,0.1081905727173519,0.1024265360121481,0.3152876938251405,1.8890520328159943,0.1995029462131717,0.4467633775355368,0.3118526377970808,0.2553459006779093,0.0810306147690138,0.5231033867090531,0.0750890189858697,-0.154930241876635,0.0184274586383999
-1.5072041491361488,0.3655658352910803,0.3116207352690933,0.6111721062343961,2.227160321179648,0.3802898925630767,0.5938586826413519,0.5682726135977718,0.2891113860592516,0.1236567017623578,1.2305150700014875,0.3678447407233798,-0.0888194256733836,0.2203621734491528
-1.126351291902972,0.5144058661591802,0.4035889084426801,0.9356230034289508,2.559097829198788,0.4353209009722833,0.6021768767433493,0.6666604040307204,0.2919084777041707,0.1323497008314303,1.9311134101560012,0.5199182002924039,0.0085841658900331,0.3139745579291518
-0.7362309154942575,0.4960751973049511,0.3646613819872481,1.3036372624782204,2.8936301225012486,0.346582209451607,0.4617413321327485,0.5710130121542247,0.2604755770491418,0.1186529411709762,2.34556673051182,0.4996454526340741,0.1085512934385244,0.2906660027910381
-0.2617543514225586,0.2905531426481186,0.229987273249497,1.6172539013826577,3.2017928329949497,0.1450658834305894,0.2217711472140965,0.3160150625199175,0.1651019649034222,0.0877902890586233,2.598405319729053,0.3146927473204273,0.118371428479889,0.198106073267284
0.2876336923968111,-0.135972083705511,-0.0466642509360764,1.8818396579156964,3.480754732763632,-0.2073080735116354,-0.1709252463866613,-0.1232780012708164,-0.0099875724434648,0.0136736397262484,3.064390463025205,-0.040498287432219,0.0460527135585701,0.0356201316297884
0.8241134360418491,-0.4648555491219188,-0.2778346433600484,2.149169589915473,3.716681646862897,-0.5347342972284638,-0.6410754027577164,-0.5208511170718952,-0.2286629310598263,-0.0711532980379544,3.822703519676338,-0.2634339428769816,0.091378914430478,-0.0312309429190806
1.3543284718294613,-0.6475470068897362,-0.4434730036279862,2.4008225468566318,3.898806752686927,-0.8330022731402127,-1.1854430299159264,-0.8924980814796996,-0.4756954667382458,-0.150132628223878,4.494464273626853,-0.3862890957140619,0.2970977714809427,-0.0487318894415218
1.898906949578815,-0.8475515536813542,-0.6292496250877011,2.7179816419736413,4.084197722096867,-1.1917097275823043,-1.8092502903039132,-1.353989001465037,-0.7418896528543462,-0.2248124094279749,4.753777805336306,-0.5682754039340403,0.5668486465830561,-0.1283461400835888
2.4386726330497432,-1.0842889938270293,-0.8032787498812147,3.113278948290197,4.26857396140775,-1.5681857896250069,-2.4780715897910337,-1.8383529213777257,-1.0581540851188986,-0.302049360788819,4.836409155171047,-0.6999045570807128,0.8791961708580986,-0.179739061394808
3.4461697371855164,-0.9682270892340424,-0.6833692951503463,3.4696386861302133,4.768957184610308,-1.473861012376614,-2.297211721218972,-1.6707589523845408,-0.9927072242259052,-0.2723238621477176,5.295788513003394,-0.5383834333064685,0.8196972907581985,-0.1021031447799482
4.965197758895698,-0.4181607960984826,-0.2709016999339518,3.804158161722608,5.631063187173409,-0.8970230986483828,-1.2283198968950266,-0.8316431488343251,-0.4751036819174848,-0.1242864803071797,6.21030949463087,-0.1432586996406181,0.3627252978884734,0.0672768124466707
6.248300997832949,0.3080499754252107,0.1941428254701837,4.210978255665168,6.319418261103198,-0.1714791759845181,0.0129691301488889,0.1164204268898148,0.1423130521178456,0.048841698198277,6.925145906186678,0.2171124533641645,-0.1146434085191855,0.1555484192164284
7.375300825446676,1.3545028271341475,0.859696081629319,4.6772539421637225,6.893780850661169,0.8934191144717089,1.7418512427769464,1.3947861015040028,0.9816932830505156,0.3067647151529981,6.869263338449436,0.6823662481658743,-0.6384997314455563,0.1625399320266687
7.17641657200259,1.5999137522018665,0.9622168923105606,4.769868792940042,5.9759256821632265,1.5839916245614805,2.4278690863848227,1.7321258645002455,1.052999990803435,0.3056750312037192,6.51325985361288,0.6171635990890941,-0.8591250460780933,-0.1680946236636273
5.368943210825071,0.8024393375854086,0.3293778824882537,4.464130708085763,3.3098486751979013,1.7793951275187427,1.844537138472506,0.9628260354148264,0.1989563172391485,-0.0427541617569112,7.031482152592048,-0.0916957733002946,-0.8850836158998265,-0.7961895494714486
4.4061146737375285,0.5702226371801876,0.0868652263307473,4.164919784740862,1.3599260656563017,2.4653306689743792,2.268406080038827,1.0286653072699967,-0.083997244299542,-0.233246270186839,8.645666676845721,-0.4311964991800391,-1.373528208563484,-1.1869468130755028
4.054482873845458,0.7344253770298255,0.0121144856160731,3.777646210119285,-0.1503555937157548,3.3636983731472228,3.10184614535898,1.3936546105000815,-0.046135070201942,-0.3183898140337615,9.52161988467627,-0.7675739724114197,-1.9484817467030704,-1.643535805619022
4.101665012777601,1.4317288202073837,0.4199923945147684,3.3559053063050186,-1.3948169501248109,3.309036770799927,3.43810056937431,1.7662857016010582,0.4844468673429615,-0.0768350528264757,6.9499383461195805,-0.5135851946539022,-1.8180366315845944,-1.5703249914763244
5.068362322497027,2.3290786675958097,1.2451344860650329,2.9637943836453204,-1.8689928214616127,2.0678509586306526,3.019451476611103,2.043212181755486,1.3198675729820113,0.4395562170631246,0.1484425211139637,0.5016886223181283,-1.016407846496516,-0.7497758226377832
4.262819339856605,1.0571735970713625,0.5536338832681015,1.0402387678243494,-5.088474513556212,-0.3576659655928191,-0.2340897745161146,-0.140614446872208,0.1525967364380313,0.1732988218658624,-8.173781839017817,0.2525519280889381,0.3030887094966619,-0.3886413163882477
1.6345807455546912,-1.6085639845464406,-1.2287568677617664,-2.528193501303418,-11.188931195954575,-4.146705100652395,-5.771987088431179,-4.140674765557008,-2.226932690905828,-0.6354712093779868,-13.507383060305676,-0.9255237818121858,1.6890547436551484,-0.0365086755863338
0.4334400573385475,-3.773913152900632,-2.7024343542694704,-4.379597055630602,-12.923720738108807,-5.961561553324945,-8.45457390475877,-6.084746945514722,-3.3854025900014344,-1.1615651668453533,-13.206946060922704,-1.9896208843727683,1.9230994249378892,0.4450472709517576
0.2334081683721732,-4.435132242797281,-2.893743939363235,-4.667920472472878,-10.588057727808586,-4.412488792188666,-6.2602509930608665,-4.383157879220264,-2.377156850969671,-0.9203786835947242,-8.700887054213997,-1.95268758624618,1.4972746197903404,1.1509378525962557
0.6767520824314806,-2.635538979592299,-0.6114884825189717,-2.983132925317846,-5.8348453425374505,-2.397019524010721,-1.2550528801249767,0.4452477417663041,1.2572742104478982,0.6648317865509612,-4.116965005900764,1.0371620969703534,2.000750668930035,3.468896185020139
2.393705442490338,-0.7250684213756572,2.701817691250415,1.5677568228116956,3.0255585028005147,0.6137151599937558,5.822923981217546,7.394424552682384,6.017209271324519,2.900436846336487,-2.7706041633873344,5.877080055845785,3.176095176051935,6.992076932638915
2.1210438515986216,0.1312644779482983,4.265936548702021,2.871382656759544,6.068857806824403,2.551552373151649,9.056497084862649,10.282988525883534,7.423968860362318,3.680443739891389,-4.876042502817757,8.153619665164758,3.680746247508691,8.00740805159283
-0.2377020675773697,0.4307154808928893,3.027188293272248,0.9158176040294476,2.7595802328952783,1.512237060014962,5.231049036784004,6.039177672825847,4.030875865744364,2.245723247884319,-8.2800210291539,5.632723798539782,2.7712269787936066,4.942019663364376
-1.6403736331859744,-0.5373639575510476,-0.3611441560781459,-1.3125005493578326,0.990615563400107,0.9412768785339368,0.2933622837776286,-0.1640226008342107,-0.7819786682971623,-0.2942722563094012,-10.88027956034118,-0.3459854581878002,-0.2869970374850426,-0.4380926584814407
-2.715968530509422,0.6430508110477009,-3.425062065991832,-5.188136519340904,-1.439384775029002,0.8038002689165414,-4.532689197219626,-6.957491603811893,-5.751553608625342,-3.104207918033016,-12.13715977950192,-7.448547300824837,-4.683422142046453,-7.935851395498986
-2.288412578967188,2.974617184847297,-3.7010578852948464,-5.880274668103063,-1.348729620259096,0.4897872348970617,-6.338129460006424,-9.531321703682933,-7.270850446096225,-3.969811802493993,-12.644033095494194,-9.800396455346526,-6.3580484647231845,-11.277679849219234
0.2542153210298856,3.3020571152361238,-1.4396997086170458,-2.837781262392221,2.525757657903556,0.9014478575048944,-2.8380356163241687,-5.055667628489128,-3.8830784587926703,-2.222050474721086,-12.90584416627901,-5.68206458032575,-4.487840393667047,-7.479004948750825
1.7125913368332495,3.941821374126391,1.265487936838909,-1.010042559830537,3.7723493242298383,0.8939065333632695,0.0225327011910248,-0.9689957863212344,-1.038165028163255,-0.4573779978029952,-12.855737342762836,-0.7991386272089572,-2.0247105817193813,-3.448997137345478
2.4076348436779518,2.598835738677729,2.6334676348779835,0.7007745485922675,3.243459226398417,0.0185962777124086,1.3370921306408052,1.9784439427353744,1.1341829385505349,0.9899683512577816,-12.29777921826198,3.086935150145373,0.7853280355391754,1.108507488498918
2.2530590456446795,-0.0457939616028841,1.9419630056654984,1.034810039760064,2.643146651135005,-0.5154444245365246,1.5779741491494894,3.090151263539846,2.107317024563665,1.4459462902555964,-11.36431716727924,3.8265152910712654,1.97295790434596,3.657276091223478
0.5529980598256028,-0.9567165135117446,0.1100211233670561,-0.8756008547936504,0.8910797134867581,-0.626362895079267,-0.0416716184886994,0.8654908006675447,0.7156962600404743,0.4185852390493073,-10.39555362111298,0.920379595115214,0.632691156178588,1.612594074244896
-0.5314310974719276,-1.8535023532076496,-0.855526884080893,-1.4822841070556687,-0.2457067955328036,-0.6297470721642937,-0.4087158371354182,0.2083339876780061,0.5008618072225205,0.1115891555413519,-9.574000718900038,-0.2164163185749753,0.5447100509363371,1.3253317763657957
-1.1841181399027485,-2.5448015039598784,-0.8809862245450654,-1.218065651525514,-0.6838773032455959,-0.280447423147234,0.486508097101631,0.9829371790176912,1.0975259632491228,0.3917141722804508,-8.851604071616151,0.4021670826462599,1.3902729442840336,2.383851752827245
-1.6445809127063682,-2.343398314481327,-0.6171686915486038,-1.149554973715038,-1.4169226633119478,0.0010303765465047,0.912240080221546,1.1692997211108165,1.092339569486691,0.3619893910446917,-8.143886944557181,0.8686498663249717,1.5204457368743816,2.324785189484526
-1.4676594707341275,-1.8196431061372187,-0.1829675321751145,-0.6772091391114112,-2.053201420541221,0.1085311062053205,1.1828882038781714,1.330078904918332,1.1057088972116549,0.3184565772632886,-7.4197196536538,1.506060536088161,1.608168041739574,2.1064883638763634
-1.5613937628363088,-1.2324912113881616,-0.2293451250923839,-0.4923208008221767,-2.578123335558017,0.3318819119533055,1.113391633287668,0.7924513925553074,0.7018309184231085,-0.1204337490268014,-6.624449451692641,1.1592516236420571,1.0955412079812248,0.8883647482757578
-1.8410603864193185,-0.1657855226738178,-0.3371957734095632,-0.6434517520164528,-3.041895225191941,0.6641665168454162,0.8572214175689984,-0.3433479372404754,-0.1412171321392535,-0.905085071486312,-5.702052335176546,0.1759312686584412,-0.1501909221661287,-1.429571727740334
-2.084129134487093,0.5745076332298088,-0.1128408395767305,-0.4985787596532785,-3.782857904665887,0.7722772329585589,0.7737811691094139,-0.6923253521825553,-0.460220253378954,-1.0724257719522323,-4.750405985740201,-0.0738440077371048,-0.6666532383522394,-2.2663931856186763
-2.453815686653445,0.5207104549952092,-0.0482919356055176,-0.1868344399332592,-4.842360357808868,0.6097453488481234,0.4889719700213215,-0.4776345086651419,-0.3930725920591441,-0.7416919717844619,-3.997688088961695,-0.0872251078951259,-0.5953297978517085,-1.6964860397521178
-2.7336697691789613,0.509499560826967,-0.1466524313615714,-0.0689117123047518,-5.881234114309798,0.3175770900854082,-0.1956119961277587,-0.4455281609024015,-0.4581194695381296,-0.4654418879322864,-3.4739188363580524,-0.3941353904305624,-0.7059389086677266,-1.2942970664941964
-2.9281297175180314,0.5293808398780002,-0.2294217018773396,-0.0803883503299314,-6.985444525004677,-0.1816037943635437,-1.079541186891509,-0.3483524150646744,-0.4121499618122288,-0.0348452025600687,-2.821816190737138,-0.689049560778157,-0.5536554683005762,-0.5167025182625066
-2.9859628178793374,0.6083894707765714,-0.0571541434852455,-0.0146674472918686,-6.953500939989094,-0.5889188293222961,-1.3098144165276928,-0.2682605641060606,-0.3039376826414663,0.4174254351496476,-1.6985325583896156,-0.778014434424572,-0.2090169351499554,0.1616837190848488
-2.85116961403163,0.7272792738546563,0.4366825162362053,0.0790590448100477,-5.617446463011293,-0.8832576655847352,-0.8551742246987842,-0.1781281487353178,-0.1767042582280722,0.911622890988539,-0.372189719127789,-0.6672518127758498,0.0635648551916813,0.6285344170234008
-2.8114053876269844,0.8504471902044652,0.8918670080519026,0.1379325482345636,-5.304125291603763,-1.338081883863435,-0.9105138303539992,0.0782463105940539,-0.0222214468980876,1.709349130265667,0.4116690858862739,-0.6908023026748024,0.2990816381597205,1.5370765974221592
-2.850161913045128,1.1191190397087176,1.1305593470618616,0.1883896461915069,-5.823905006826573,-1.871191210605357,-1.5693818637112664,0.3073125827743942,0.0504732839029482,2.6203078097306225,0.4625324109363475,-0.9647173383203188,0.6189709002679173,2.563454963405464
-2.661369885796746,1.3551432004900406,0.7698627234286562,0.3367010062894973,-5.3398166189783725,-1.7592298726367532,-2.231820581548778,0.2328332782975542,-0.0699390647518736,2.455773999843682,0.9131937246687584,-1.0913661186736523,0.7367375087761344,2.4088615199023966
-2.282289004090096,1.2694471329621435,0.0549954363660389,0.5889734163100647,-4.200126157136108,-0.8821786425146055,-2.1499860666368837,-0.0251592129886569,-0.1849725288678107,1.1460387517782604,3.469897688920639,-0.6611061655663408,0.5748139572388367,1.1484036986954422
-1.495830646540948,0.1710059148884632,-0.4700204505404116,0.6418279131774133,-0.5199457417354574,0.255372251831518,-0.200326950875025,-0.0885388137856499,-0.037661347023397,-0.4331443157377317,8.510716509530596,0.2525541200846029,0.6024498487195398,-0.4704619891507212
-0.2142161121961018,-2.051440877714079,-1.5066233771891522,0.4985701800362461,6.220536745641217,1.9733092175783484,3.0004455629718896,-0.1040009116154195,0.2166405907327092,-2.7498607562514263,14.039682489858592,1.238333245089712,0.2328990542341138,-3.251447323454647
0.5875102920748824,-3.4650118996339163,-1.99691439708257,1.3785687836480012,8.22790784240096,2.757192843811056,4.617946065065511,0.005521343138562,0.4483265806352707,-3.666684542833007,16.971196915423775,1.4456161568018686,-0.5410595271713823,-4.401321172424413
0.9182794148923354,-2.8015525803292527,-1.131113800466169,3.324332168303584,5.5095804726189,1.9396652055244856,3.514310135995936,0.2110441097313719,0.4265761270025713,-2.388465811933389,15.808131245325058,0.855007243816567,-1.0612688026087644,-2.5853660185419907
0.934514905924972,-0.779051707552753,0.0742077636591541,6.714478218602542,1.9977260364597436,1.3144484144581137,1.0920374307110858,0.1486330048936624,0.0979762837104072,-1.453222215986688,12.09413583693862,0.6979402684980991,-1.635103069813616,-0.362203631962977
0.3877195765828402,2.061648938125984,2.8204606884243937,11.954694637617266,-4.062659343867301,0.1403626901276961,-1.5174369688376497,0.2537999804133177,-0.0951521866828791,0.3953816193686772,9.080325635068675,1.054463998974473,-2.396964294051484,3.961251822725925
0.814528669096079,3.347822761769524,4.6835951292897455,13.772311608956278,-5.94033682554444,-0.8467991226494428,-2.307903967845922,0.4525928096809991,-0.0587171170637408,1.8638487891153,8.90699714177552,1.3084379603750231,-2.3866453833484385,6.683884061314335
2.275708673203971,1.733471313510682,3.034909940086055,11.964229320536605,-2.8391457101183737,-0.436448795354166,-0.7480053116978028,0.4373723550012405,-0.0039584068370389,0.9939950658050782,11.0672232951097,0.922145523968012,-1.3025336140376154,4.014442596666892
4.263015552897207,-0.1154689946697228,0.7132923988803306,8.903685409854399,-1.7794770034476726,-0.6179624351258463,0.3244028495585879,0.3049683841325569,0.1611460896840234,0.9305089894083992,13.42674739292329,-0.2660276480894712,-0.0008444113358486,1.033642624354173
7.1787492049381445,-1.4497024087883563,-2.891553907044191,3.257562620354553,-1.220906325946437,-0.911248372818326,0.1172845574184516,-0.2912163451633943,0.0236353625179762,0.6782092222110818,14.410996410666884,-1.8385204474701544,2.544408164855261,-3.408420572264623
8.350771923399847,-1.7449426639987462,-5.236895602281786,0.7250212750919939,-1.1599877979740427,-0.6148791117760612,-0.5510559826148728,-0.8198210719615573,-0.3220508826909796,-0.2340698645559981,14.06365257086938,-2.314059289556359,4.4715766382048105,-6.569093508117791
7.593594652075534,-0.4015298163678581,-3.2570772475824743,1.789272985521932,-2.6520610050264426,-0.6108694436401653,-1.3159539152283557,-0.7107753183718755,-0.2955951329984924,0.1593844145870951,13.28988500138894,-1.1656162451529923,3.6023223506344157,-4.014523241650322
6.598908798510955,0.4213436635673682,-1.235433661631739,1.830048328716392,-2.8033676377855463,-0.2900267672371976,-1.1820736934532912,-0.3820251289992786,-0.1925909562376326,0.1604964048388837,12.585421012651864,-0.0280481251391892,2.2339429454129127,-1.6796980986619798
4.703394224365826,0.4269492479297705,0.6874123970298104,2.1860003879603846,-1.8461167687584576,0.3790096982135396,-0.1258756047753499,0.1708245295729404,0.050581112308046,-0.1963403863045943,11.7404795345182,0.9539152261388744,-0.0342612149800569,0.4045522803967654
4.0264436250445,0.2502738011723424,1.9096072922798075,1.7313749010052706,-1.4631473596173552,0.5114575308884936,0.4521131766006174,0.4970875737553007,0.3112607817016158,-0.0092580331123249,10.521952662020738,1.29803537012545,-1.727643888006953,1.94955209326736
4.874281109963094,-0.2394222122057453,0.8489588650656832,-0.1610712872371994,-1.1962782247132984,0.2661208602015675,0.2068546803095046,0.2228314067424899,0.2788053718694028,0.0624611301254546,9.170227166395108,0.8548105670320122,-0.7026170495628261,0.7068164300583272
4.871528194408191,-0.3408084042964899,0.4336489351540292,-0.9248928167182636,-0.7618501753191296,0.1877605557355798,0.0040790759105833,0.0680104920292269,0.1744652734958542,-0.0375451435540716,8.077523589580068,0.7497140466003818,0.1192138599950542,0.1091580874670556
4.512809201466377,-0.0896732383260918,0.7858282336467165,-0.9081200560285858,-0.3524640884664606,0.1125158067545581,0.0734131591787391,0.1479274718273062,0.079803687504932,-0.0436002173075419,7.234724910691156,0.6015546842471499,0.0660091682799294,0.5769853119774057
3.8697162614215936,0.1790581746450954,0.80411383907838,-1.529728757790615,-0.5005681712829076,0.0278165934290705,0.4209395586703891,0.2212093067462067,0.0200218525253559,-0.0335155229380425,6.28943952288563,-0.005021887108279,-0.7093500226280024,1.120213106275182
2.578952433079841,0.4980079295941331,0.7225209735784148,-2.4426304764689664,-1.270105173754822,0.0059150612977117,0.8517192080247281,0.2641823435944758,-0.0453367558904235,-0.1785570212306631,5.109258413341209,-0.901414059914036,-2.4060385284515275,1.7337493039693974
1.951537457876968,0.6418990446366568,0.2602224965736613,-3.250208809942452,-1.4520765618359943,-0.2616156929936342,0.8000051670429348,0.0527428514342612,-0.1372377921366495,-0.1661213955738664,4.00779445486009,-1.7380188738684406,-3.018846703554656,1.7048740347872815
1.958067535264599,0.7926305362363566,-0.4934704513119278,-4.1280496710212935,-1.1168437202451766,-0.6608023616397922,0.4923223961218219,-0.3358002218097574,-0.2241229687336996,0.0412835772754567,3.2674837200300573,-2.372475798430239,-2.440648520176297,1.3059721346248097
2.2746758755720564,0.6197455132361742,-0.6580199460190768,-4.386521006994452,0.3361657128463024,-0.7432035595583645,0.1530168463500799,-0.4898836461411626,-0.2069469062666356,0.1659051881364585,2.6197833425881125,-1.9420142549895687,-1.09892126037957,0.7157575657058105
3.2025944425850583,-0.04619108105387,-0.3474833649301559,-3.927470019432275,3.265107488993208,-0.6593177394997802,-0.3171161413931713,-0.4538163438717545,-0.0708538605621797,0.2691163224005988,1.5216605223720665,-0.6947766575134166,0.5715532492554765,-0.1160620743435516
4.082531428929346,-0.4726019276976624,-0.3743061094986405,-3.923450704750218,5.664038383906514,-0.4099007234066032,-0.5976905687496962,-0.3450230662546116,-0.0451304541032564,0.1033757860285456,0.035410197461192,-0.0599570330351624,0.7225969653987944,-0.9545160016239088
4.926154007944173,-1.0789858163624022,-0.4544520422247833,-4.253648820958594,7.696117033021432,0.1149333900072309,-1.1008548282088877,-0.2118204225836448,-0.0753739786669054,-0.3441775638599057,-0.7857250930760635,1.0113002417964554,1.1102796302736757,-2.545673830117923
5.6316966533755615,-1.2105624833918252,-0.4555404185001066,-3.6223285117621007,10.119646967767968,0.6370398812120854,-1.0755182039778268,-0.0726677231802113,-0.1732299597237806,-0.6556320767459262,0.2610521376780035,1.6341123701440727,1.5910018232324352,-3.1955127542692865
6.024108785371568,-0.4480559952938336,-0.386412507108716,-2.151875839099798,12.559072091066817,1.106698841521484,0.0151348209427453,0.1977475227124921,-0.3349849209296005,-0.707049888047622,3.1554119402961547,1.134068092511386,1.0344631172842833,-1.8186596224565563
6.408747788783136,-0.3755265797367644,-0.1154822522917543,-0.6303967940526046,14.40366688260802,1.271056458740306,0.5527927353265538,0.3267599784213639,-0.3479467980080612,-0.5075888882225993,6.257441687834628,1.3678643962829322,1.729739532719326,-0.8451054520248067
6.689174935992082,-0.377941496301675,-0.2398896449599045,1.160503339731288,15.596764420041774,0.9044367005933918,0.8337430615981326,0.0984908441934349,-0.5278647543811437,-0.4130561994724632,7.556026610825839,0.5239940327114123,1.1559825935752872,0.2217722331511406
5.717301786380305,-0.554982728323482,-0.9549015896291556,1.0788356220418172,13.738698473936491,-0.0133480407561465,0.2187339020869987,-0.6350971273753371,-0.8755797858603834,-0.7738148804845839,6.483116399679844,-1.297312504697815,-0.863165984529898,-0.1417318355990302
3.397624000797385,-1.1866669170980149,-1.6949868436431943,-1.1981993965596704,8.361420904105813,-0.7830227870863811,-1.2908401150932116,-1.4348166705978764,-1.139697673854032,-1.5728085597304484,4.416035956030015,-2.243534441165583,-2.1970253073396786,-2.7236749711458845
1.5173422659390203,-0.5565089539393956,-1.4818697352770789,-2.2525776313930725,4.410215229395655,-0.8284529892645087,-0.8949870614748539,-1.3504828770992856,-1.0627623076906625,-1.501788268729074,3.165352743429274,-2.9648972475961206,-3.233659405540875,-2.325222226877708
-0.1207987755583705,0.1419759455642716,-0.5752041288904214,-2.507865987120641,1.4508855003676129,-1.0889096201574593,-0.1483085007947237,-0.9249750085114294,-0.5004421348157216,-0.2453373392735268,2.8555780344437025,-2.9760714020001022,-2.8886884400211352,-0.4108383738605128
-0.9848716869449878,0.6852969841623802,0.8941589949739635,-2.6908173333179546,-0.0246104733802348,-1.038980536300136,0.4050493475788816,0.1559957387591561,0.662414680579776,1.710092800183107,1.5802743747256756,-0.8558935452527376,-0.5161435725845664,2.273468884639462
-0.6352882576976476,1.7501611650137796,2.752870037508622,-2.1730999031344047,1.1535150782008572,-0.4698044912511577,1.238332714643516,1.7823234624484243,2.1819947304271103,3.789843289048875,-2.4979247597652616,2.466009060916413,2.727769958160968,6.069083503561564
-1.801812048140545,2.2586402148193936,3.941830738861913,-2.507693247486586,-0.038759663118856,-0.1449201502531235,0.5145899220195181,2.7085357724473638,3.3930496113116444,4.29339561724012,-8.628459167708272,5.523678178559865,5.161842869771695,6.369985493580431
-4.374452907213052,4.284706606296749,6.213812872776182,-3.7195989385995407,-3.333259250915966,2.141835403387582,1.4227736059952545,5.165471581769853,5.084112964330144,4.227833478779477,-13.24520102491499,10.601891660154712,7.981460954768735,7.7084114693282
-6.500322105849375,5.75343763001545,7.0343801070308185,-4.993707085075478,-4.027436081509329,4.371946612418706,3.320301775632455,6.560370522053565,5.230743680756471,3.161541127425389,-12.876220371813249,12.233696878386215,8.023467832747295,8.316739640258215
-8.672088320532936,3.944996062973112,4.340417331239195,-6.667449512607902,-2.8409112722525296,3.687219978405431,3.1658413275760733,4.272392545825804,2.790763202214638,1.191729112324726,-7.749427592898044,7.1503224059469,4.141922985758337,4.560357088064219
-10.800950893518284,0.9688991303448746,0.6547885821723989,-10.298359958989357,-1.3174369735861629,1.6003969979808284,1.976438285285628,1.1508349126617707,0.0880597801012613,0.0898474212976966,-2.410264900858685,0.9916827083580524,0.3645366403716298,1.6116561966498095
-12.633523541457558,-5.084796085202638,-6.4837165122092655,-16.01152602333974,1.306170330466155,-2.9432473845697427,-2.394983970264815,-5.276129313276337,-4.783376805683132,-3.1806110162945025,-2.308322318490802,-9.995491014128266,-6.556918633975345,-6.988897014372558
-14.35214929905862,-9.322054466419932,-11.140215384480506,-18.98487663670642,1.066978948593004,-6.231818796470146,-6.253322070645491,-9.753550304834548,-7.858684641895761,-5.802989023750446,-9.241977239828492,-17.00469208405442,-10.919333749307562,-14.422440581461297
-15.828815767895554,-7.231911222808014,-8.658316773074384,-19.246187259397733,-2.474141422586921,-4.536618841437511,-5.211099841932991,-7.262123380869895,-5.952536347203802,-5.265704922642184,-19.797478656535112,-12.531554865738812,-8.399138576472776,-12.06899799418962
-15.97773801748051,-4.581180133999792,-6.039711298893986,-17.890442321131992,-4.026533023807729,-1.783673414796064,-2.9251303981528234,-4.490574189577532,-4.424559035396353,-5.509569146965805,-28.190266617957064,-8.372407294718629,-6.920588375452176,-10.250965639443471
-14.653679258088944,-0.6421965658508604,-1.465424402738886,-13.69821925066106,-4.373499943949757,1.3008923603166949,0.4848545417271345,-0.1391272786643549,-1.3693095147723358,-3.286815537329955,-30.803220177965343,-1.6498476254322367,-2.992499114966578,-4.301108227874212
-13.09134988680728,2.286718294367758,2.400874378536913,-11.034215360206373,-3.7926421647637913,2.8448345066036347,2.7076083282667804,3.4377634774759684,1.6665964272921432,0.1449798755000466,-28.37564193957336,4.272102817432821,1.5056780119463036,2.7266054192337954
-11.024300254785029,0.8047838424233072,1.2161329109076526,-9.960897135883824,-1.2942025142157887,1.0056924468376334,1.2057353997065687,2.195477694768728,1.273365077122779,0.9283863007647548,-24.365942982439503,2.5359044879540797,1.4365876970328202,2.71953877694598
-8.79878665736703,0.7732649951969481,1.7414567625972095,-7.3257270079343,0.3197359435432643,0.0439311870230216,0.5084017660777584,2.149450610998563,1.95194597636113,2.620079471428793,-21.58716562712815,3.1541967792213828,3.1177715600211244,4.4130650200676
-6.638430809755223,2.388916475135951,3.732783562950486,-4.00906796529051,1.2112775713085175,0.5369040103081695,1.187997855937749,3.1364640626948392,3.217706276198223,4.388838860934069,-20.323775333778592,5.6452933944264085,5.499090298238492,7.119846705222188
-4.731661378158738,3.289991889415216,4.2947082382048825,-0.9930923024097106,2.117238163181779,0.8456572078261425,1.4453929821717248,2.5045920476786523,3.006313641496158,3.9962660416422153,-19.13648071869917,5.62258540599798,5.15862075920751,6.633226631046618
-3.310362147558254,4.115949706094699,4.6264167639936495,2.0011590442070832,2.4647976285175472,1.1526464921074608,1.5902776196114912,1.5024574460734854,2.4986349987006826,2.978272189770587,-16.896103695083987,5.173340935891649,4.086293824001503,5.256156401487194
-1.7139731975524537,3.635611779983489,3.6969462450169295,4.64238909995433,2.9273029128285177,0.5581327988984492,0.7815802299664428,-0.2058630136439225,1.4554140684549437,1.651824508961342,-13.887378727277657,3.2721305772495386,2.337157381341381,2.8797813062240603
-0.0699383085617319,1.860009942260794,1.1578371478120135,6.739369172625255,3.461671554012512,-0.9060954393674048,-1.0980247928313276,-3.3236991278003427,-0.6941748867994642,-0.9211431026939126,-11.242347797420967,-0.9605812725626393,-1.0850660817141924,-1.8049122095061287
1.492244131470322,0.4754852382665832,-0.5603065234380394,8.653610559969172,3.795684342438984,-1.3688003607196049,-1.801849320922068,-4.26866191108365,-1.7979272469427852,-2.329953328525569,-9.625462735882358,-3.1432989609701605,-2.888534151490777,-4.209983075949382
3.0613351744468504,-0.5921420435991342,-1.3244570196828784,10.233085469614402,4.03943257347794,-0.8514997868659762,-1.2071027341876377,-2.5472328074623967,-1.5078756739064718,-2.005877286856621,-8.499943460077446,-2.773461476131173,-2.53384334451154,-3.3599203995737628
4.579942044553186,-1.167432080281751,-1.5691556417907817,11.329444042693044,4.106595809347722,-0.3406121590175403,-0.5483220819095822,-0.967316444843317,-1.1054269794333509,-1.4122504549228123,-6.525417050552949,-2.071412289343249,-1.8512404041067052,-2.2823336532764524
6.050563359658674,-2.408657643515716,-2.0751904342250214,11.933402439744068,3.972674277940964,0.3634019208190078,0.3968061058847478,1.880177355381863,-0.2943970361381077,-0.1892950407853452,-2.657590644591224,-0.8098042042346391,-0.4388207405362345,-0.3391304991352217
6.94459586913539,-3.5403625043092397,-2.7374828231814883,12.102215308116794,3.595286337282092,0.6544123430339823,0.792201574494556,3.595842596505058,0.1118666384971945,0.4678644584978181,2.922745072156601,-0.3337118406673964,0.2725624935464967,0.6289319719133988
7.197025529924222,-2.8719172726554283,-2.278089696973269,11.787840717676136,2.936927558160738,0.4422585335537231,0.5106723950202205,2.6664247961308583,-0.043996040523128,0.2904606499426831,8.749999467437473,-0.4916488112598624,0.1083222492628472,0.1858239943746137
7.051335248145011,-2.464102401860364,-1.9851661036049115,10.945274837256113,2.143932301950849,0.4990691450614125,0.5248679653043932,2.422440019958477,-0.0039028888807896,0.2291990825938527,12.977635316200136,-0.3332751926427892,0.0825430244418707,0.2360595722184316
6.347224698408721,-0.90026026364879,-0.6560969785414125,9.558131809816285,1.1969479483231988,0.4436379918434779,0.4567247099829737,1.4535107534239728,0.2431866884759859,0.4176731635055334,14.61260193206641,0.3439539622412998,0.415906399013829,0.639917467189096
6.154500161649152,1.038362408169102,1.0123527292029149,8.955849832363304,0.3611360147488063,0.1816753403894946,0.2143773046446308,-0.0231766278394612,0.4355448471391097,0.6022122340439295,14.113632912796414,0.9477583666256524,0.7830180674375675,0.8623821208769853
6.557217455013489,1.366874706511046,1.3807221076146157,9.251080455381969,-0.3078914332485025,0.1499372020076707,0.2452933197513167,-0.0996140054680897,0.5458122087628171,0.774348019847475,12.861880738291132,1.1596746898917425,1.047299781722545,1.035434142012139
6.487297025436887,1.6262952056586777,1.475473331427127,9.06134216355398,-1.1786928466023687,-0.1050334697612343,-0.0499229255151832,-0.8947792261973977,0.3018468532097525,0.3374936461603279,12.004098456009944,0.7335497227903278,0.579092112973084,0.4306112049603072
6.175698369439555,1.4794354346527496,1.0057778819003882,8.681049641956498,-2.183937086313348,-0.5359224046713521,-0.6071966965220301,-2.111818314003808,-0.287897795094206,-0.7266999150928152,11.727619473542866,-0.4017570659710935,-0.6638443113633475,-0.9049565080803044
6.027349885205498,1.0333793708817651,0.4966341149049731,8.309889780433988,-3.1809368919933885,-0.5732460062381992,-0.6605278917648347,-2.101245223631378,-0.4692843353301656,-1.1507609571046018,11.530912732350334,-0.8560061907980924,-1.1458587817898034,-1.3195780601987166
5.919674062777456,0.8295373745355427,0.3578516547495596,7.753401475133529,-4.217513341888978,-0.4649205265388494,-0.4828724137434723,-1.6663030351786194,-0.3354204458144286,-1.1215465108538694,11.006694547354233,-0.7634598418948915,-1.0578104593758575,-1.0768398716740022
5.855782222362285,0.5885486829009208,0.2401912364087986,7.4148165484471695,-5.368495343023159,-0.3280451510908183,-0.2377959075888726,-1.1028697356678536,-0.1941328678694104,-1.0295050989414396,10.254289290176606,-0.64244399321798,-0.8944879607122875,-0.7960567829391116
5.890386532441418,0.0426029012992137,-0.0288754548833252,7.294334962098528,-6.625704473945387,0.0442508380814977,0.2828624560699779,0.1699375023479749,0.066332272988707,-0.6346768047571074,9.614495378128789,-0.2281951599945329,-0.3987942378709688,-0.1711056859056701
5.78267872318833,-0.411508109701754,-0.3548948854163196,6.950421553291807,-7.764564036782771,0.2545138723511042,0.5087382272274087,0.8840307944162537,0.1577933345549899,-0.4130194627319338,9.203611050586682,-0.0643280775490762,-0.1667789502574167,0.0890958459871513
5.534311075953009,-0.428894909485469,-0.4558384421008395,6.441998730272258,-8.78050049535338,0.2312896966090603,0.391395182884372,0.7342289086078106,0.1136409988323093,-0.4023824782878944,8.838590151905617,-0.165500307118019,-0.1853065602172983,-0.0408403341857947
5.519096831947741,-0.2416925192176734,-0.2895882899544638,6.235876406777417,-9.9349148747619,0.2563299777429685,0.359837931431868,0.6602408041695328,0.1870650504227907,-0.1612082048968267,8.34084165592041,-0.0605594536923504,0.0560661750255039,0.090214409930941
5.711368843283902,0.1271812860578366,0.1117407983330914,6.2897640428802575,-11.18868228591563,0.2187045108550463,0.2529143701824809,0.3881864444932049,0.23343074631386,0.2303328297676083,7.754607966334211,0.1254068963881514,0.3770783490627136,0.2840017868049063
5.451617877583417,0.0619801695988199,0.2684803210845713,5.871408361206244,-12.854578456101589,0.0969206653490034,0.0005020246947969,0.2381076497423648,0.1116782766104393,0.823915173718487,7.227787645391697,0.3939390190095345,0.6679894082791197,0.5260348508266112
4.762339479033293,-0.5570852324300035,0.0466683104930136,5.015078277926944,-15.015657790187182,-0.0353116695916157,-0.346241391639507,0.4212640598084923,-0.1124982472374324,1.7015793520915774,6.7973463472117714,0.8120870434800416,1.0496507346249222,0.8978487137322699
4.408091846593241,-1.0902328266316836,-0.2411782648104494,4.507949454247522,-16.820377332565272,-0.1701336923041716,-0.7582376836472564,0.4586266664438321,-0.2969547505120978,2.489560779773278,6.377641851521101,1.0802482364046635,1.4036141275274414,1.155554997265261
4.294073735841012,-1.438409059337676,-0.4199684900324113,4.243076927819926,-18.314462650511818,-0.3474277889455194,-1.1915067207489565,0.2814280142296765,-0.4636690923822053,3.1179054440771288,5.920273400585813,1.1582885809556474,1.6203215873784975,1.3515180616753932
4.821106619271561,-1.0405986679937158,-0.2411614626234018,4.454636152035341,-18.58141161395849,-0.3367532762125482,-1.0457091477187157,0.0225320412541093,-0.382675683657138,2.534690050904119,5.474083468676522,0.7648234227556693,1.2477773910370182,1.123991573631099
6.19205275113184,-0.0842229044645123,0.0442623035965932,5.3283013954950125,-17.317728319249696,-0.1136532431729771,-0.371578232958286,-0.2160364231584917,-0.0714387883381889,0.7524308620744634,5.072513137718932,-0.0664108586579377,0.3336496935054387,0.3652689364390503
7.115109579050275,0.4693914849014331,0.2761602269719749,5.652597469599387,-15.79612979641589,-0.0052199809337142,0.1863673435195477,-0.2895552310351031,0.0372860337310204,-0.6751159115252867,4.646711415080546,-0.4353507928911283,-0.4734082600492966,-0.2534838955847703
7.681172906504467,1.199515017710289,0.5236337726883695,5.469543461854305,-13.719333729303605,0.2023615279324008,0.992447214363154,-0.2850722180604342,0.2616723793020306,-2.601917000192914,4.090655090483303,-0.9219054629996,-1.486234015169709,-1.078248265783604
7.482900976150995,1.4802972356791622,0.4513320741952495,4.829757873404184,-10.719369958391512,0.3453307581086604,1.2936740494352497,-0.2655947862274058,0.4623894084747563,-3.3960628914364555,3.38754930309154,-1.202111438054751,-1.810090649001728,-1.4868157000391011
6.176883293908022,0.9531176117254986,0.2001358777578575,3.430852826032062,-6.932148796012565,0.2383327741973452,0.8498390792717705,-0.1876514352061717,0.3748197320098494,-2.341005516750325,2.6073324727326046,-0.762710376594484,-1.2068358978367926,-1.101268304179443
4.272630189985307,0.8934882972099867,-0.0626163181252081,1.1087443202885798,-2.596718955411794,0.2756140010072305,0.8151215616496797,-0.1782780807349128,0.440462335952569,-2.50458313037078,1.810842357296956,-0.8101414683454753,-1.2217340834126522,-1.3191132120703764
1.5165539385186844,0.0800589451174543,-0.8574674605619124,-2.3097755428403315,2.301777071696021,0.1662196452204995,0.3556152875468129,0.0394535239549663,0.2389376110722225,-1.977489164486524,1.0237112966693085,-0.2394470011521792,-0.8453763429916475,-1.5052362879884664
-0.4320344253537575,-0.9697894474329368,-1.4006484338925378,-4.379471725879652,5.313445434857906,-0.092365595261422,-0.2814509847263969,0.3140833731346939,-0.2176211996026883,-0.727405891633955,0.3594051837782253,0.7239793404978305,-0.2082790634661183,-1.2203326766744675
-1.4197283025255705,-0.7857958470258705,-0.808891155962485,-5.007412795449011,6.121227313330995,-0.2232020339857107,-0.2166861303388223,0.2422943862284571,-0.5036542612081454,-0.5320848634974678,0.0719582691174487,0.8283308152712058,-0.332350943338033,-0.8421211189602661
-1.4817219388674865,-0.8227447301838685,-0.2177952684310629,-4.003846728556875,7.959249351969039,-0.2607728633236792,-0.5568155511328637,0.2126181828887323,-0.4533499343008063,1.311910740477425,0.3709106078235678,0.8543706089603388,0.6160618393355739,0.4919049805788859
-0.079982732955067,-0.3094427520753402,0.8516612399827586,-0.6177436500864212,10.292487327127676,-0.1414626447980506,-0.7084892891068283,0.0311257507685122,-0.0800530913947345,3.2915338782836847,1.1516919571922806,0.2770622945144373,1.6696266690443968,2.244053915010381
0.4369837763423336,0.6305000102608984,1.7573400028145985,0.5731814962843935,11.38997586282688,0.0085580072500755,-0.3016526247586206,-0.2584779467115322,0.2182116015102435,3.0590930938422494,1.974191180974408,-0.550493626041237,1.4586975664177784,2.7051510096362907
0.1314766055198116,0.376839189069693,1.0070577768692577,-0.4163802137221506,11.661751396712503,0.0529767121201732,-0.2642875955363153,-0.1742114226460938,0.2607433673435889,2.117205550089128,2.3823610949269103,-0.5528315251658854,1.0981784881323298,1.839351459553893
-0.2422167875630191,0.0373168646792201,0.2305345375922783,-1.4477542649375454,10.520165183451692,-0.0356198589237664,-0.1798303766782281,-0.0795409695371788,-0.0495062072172573,0.6750590004174434,2.259266698684545,-0.3256179928078153,0.3193806587405282,0.6263264505172371
-1.2054844769369315,-0.20770500655411,-0.4973836659187468,-3.543004283288555,7.628032471829928,-0.130531428554866,0.0036262507365516,-0.0257713065131933,-0.3655441888677639,-1.104277777533854,1.8717549881859377,-0.1053684584112421,-0.6752174297308128,-0.7603742426230842
-1.6007812355839566,-0.4674384020408553,-0.9997945505075124,-4.319239630032272,6.79194581895742,-0.1082209160060955,-0.0326273339005757,0.0660281524371598,-0.3185297398127468,-1.4779885069709264,1.5667648477512763,0.0497689643613594,-0.7648359924753968,-1.242865130727971
-1.3917030423471493,-0.1977918523957719,-0.5675728220680767,-3.5130248964786737,8.06530375631838,0.0151619761532254,-0.0341605322585664,0.0122735312626306,0.0416405499517675,-0.6362157420510921,1.4472963836475383,-0.1566706960861503,-0.2316976331682132,-0.5381339891791115
-1.6634094925001663,0.0993719682764671,-0.1601618702906336,-3.835845211484787,8.2619203882249,0.0669307744131948,0.0971418040463139,-0.0496614506534544,0.1947491474321388,-0.4524833622937141,1.3625488023841772,-0.2431283087722207,-0.147659939675391,-0.2528190135880737
-2.2058551940455757,0.1269581872160021,0.0477257848889368,-4.7946050392037725,8.137426718708165,-0.0048536839870817,0.1741943334525137,-0.0253349282892442,0.0210646677500265,-0.5389917281673513,1.1578739209481237,0.0306514007151459,-0.3024772440945903,-0.3113157675620918
-2.675284495312398,0.0720847936326175,0.1404455844169707,-5.576642818513003,7.8442739096423395,-0.0170233219006044,0.1745371436671451,0.0538596839607457,-0.0304912216710561,-0.3382428841526791,0.8568802148079993,0.3207686323674691,-0.2314345498780421,-0.2852428774874365
-3.2194864718477016,0.1176268735454871,0.183773691268716,-6.56617336212749,6.937096299958845,0.0595791208102871,0.2537220254551546,0.1689884892245181,0.0537245368552216,-0.2249120090469804,0.5937089016316079,0.5539743795341386,-0.1426057291918262,-0.3437584686039207
-3.622807171759252,0.3003018586344533,0.4002669231675459,-7.2721628651460755,6.68364121155372,0.2158419852064416,0.3347180092173855,0.2767700840799262,0.3426095623563675,0.3298469956299046,0.4109759447083583,0.6821910836321116,0.2548751054845474,-0.0523831809259666
-3.8411714937273937,0.4906259677436386,0.660166736245291,-7.612373521704816,7.037950580760223,0.4238283714909946,0.3357041602653684,0.3698538287569358,0.7966678931555806,1.3154606709562822,0.2136562460830537,0.6926264150099158,0.945887254581796,0.5365074395247541
-4.377198534714797,0.4249309094166417,0.6155197152720904,-8.583540898716326,7.056988443300279,0.3909207327376561,0.2376785288739688,0.3191276004279172,0.7653014445053826,1.4206664166846483,-0.0912676487858883,0.5412859447931992,0.9957209632979556,0.6514094115841541
-5.203742746007958,0.1072676014884351,0.2697345914108566,-10.12118086342176,6.952890046818624,0.1477287447587592,0.0346607884747923,0.1490664268038189,0.3218741358464048,0.7943143945196381,-0.4585482666492169,0.2525034002050589,0.5289717084060462,0.3663209018410109
-5.8468535679302365,-0.1780083898243248,-0.1267394222931266,-11.265561981460056,7.068172444476076,-0.0543076023164599,-0.1600962581736961,-0.0031028891088472,-0.0319984766278087,0.2320972032547729,-0.7723298618310777,-0.0781080886710186,0.1739709280138866,0.1270080082205027
-6.381340098493658,-0.3986200037431718,-0.6008463541313901,-12.157156294859629,7.292221459858875,-0.2959218452346476,-0.314618460547854,-0.2138712056550734,-0.4764250502438928,-0.6720071775994335,-1.022443769012082,-0.5883928774066104,-0.3487519061035019,-0.2115255272971497
-6.748404222326105,-0.3867846030985629,-0.746677712437844,-12.612672068258616,7.145046619910205,-0.3750590876674506,-0.3090145878232138,-0.2778727683797099,-0.6407902327546817,-1.052979294615682,-1.3486896212038588,-0.7973117298577838,-0.5159013433896293,-0.3226612967549973
-6.850356440278731,-0.2493978707043845,-0.5735007748614939,-12.420961744912768,6.620069797600129,-0.2754085350206227,-0.2019863163388195,-0.1700438346611316,-0.4531667401851262,-0.7325928215754615,-1.8455961834689587,-0.5954817159896357,-0.2430820028306045,-0.1947031607901197
-6.971241753684869,-0.3373213145114233,-0.6190998825859816,-12.205034816337385,6.086711845155859,-0.3480389267032812,-0.2297644426391962,-0.1930732290975386,-0.5838824224829362,-0.9133518647520276,-2.352373697297924,-0.5900310087655435,-0.3619699450013395,-0.3153953739358705
-7.071516304721098,-0.26155921328519,-0.5280210788103088,-11.863599402173012,5.439407477028646,-0.3278208259337746,-0.1317995780974028,-0.1095568279108935,-0.5932163873191643,-0.88915156516334,-2.5264586208943207,-0.4080056542169809,-0.285349836583237,-0.3492758999263272
-6.997072025896411,0.0364641584032796,-0.2576130481898291,-11.053490300782816,4.742736481360396,-0.1384909341727066,0.0765308423255672,0.0672507869322474,-0.3292732141830158,-0.4628723972011844,-2.186836690019292,-0.0909076478355688,0.0528040007282237,-0.1565718484674864
-6.784740951002387,0.2557059143108103,-0.0574466358654744,-9.846802944753009,4.0465457196191466,0.0015046466102585,0.1842497684068522,0.1256981709272188,-0.1534111337136917,-0.2147178352397745,-1.5311677403668325,0.0356085545937774,0.1384621605920012,-0.0004673982866224
-6.512254036343808,0.4613140261689913,0.3708138802121591,-8.572580526707613,3.0905144479901003,0.2503458456236408,0.2820986830080513,0.2323603141461376,0.3073706338387822,0.4766577307349842,-0.9404052793200992,0.4178485270410724,0.3891191988338154,0.2853380750379021
-6.163536150600658,0.5072582327167545,0.8383028500641945,-7.204812283430787,1.8895505962850716,0.4820592991468267,0.2501827986792189,0.2607359040027548,0.8058124810300958,1.2386086753631338,-0.5743383239573061,0.8032565085453257,0.5159479400007082,0.5728492866669609
-5.9941177940592345,0.3503760987965477,0.9453969469219256,-6.114484778113656,1.1431193644115016,0.4285499143357975,0.0660124855680696,0.0392685648206825,0.6721737231855838,1.0390944798443775,-0.2476699756415541,0.6606993572367063,-0.0342795733304617,0.4935978733235835
-6.044649034734151,0.2742789977011982,0.8701715861653693,-5.420639895633539,0.8609319303035162,0.258615819091912,-0.0734220796211794,-0.2603374794259454,0.1511689781786198,0.268899265794341,0.255980214365854,0.2199831660172188,-0.9023037411788138,0.2313592682832885
-6.049161834129215,0.2372088103357643,0.825442687252041,-4.671510018713092,0.4273289501697723,0.0977727480203881,-0.2088490581749088,-0.5919703288094682,-0.3933779580092466,-0.5495702489156933,0.8399821962953626,-0.2650485823249847,-1.898660296838164,-0.0372406791312786
-6.07446079121706,-0.1720274008617144,0.685887787829605,-3.9914401265286994,-0.0184712644014672,-0.2579756051550138,-0.6048929363681989,-1.184474037454767,-1.1767098913776337,-1.8229687844948617,1.1992790766412735,-1.000460783492925,-3.468344047411096,-0.5690200389063559
-6.011836369450761,-0.5685329217585697,0.552270254672894,-3.185182681391624,-0.4324900942684159,-0.4843038009340559,-0.8631927205030905,-1.44773060959156,-1.463657361301096,-2.384363622246617,1.266336909780784,-1.2944735848076956,-4.070092919719966,-0.8441178010596719
-5.815403052944161,-0.4570581738967789,0.5082205785340542,-2.1822073631577066,-0.903190643125734,-0.3599717853850813,-0.6491626787621888,-1.088043881548422,-1.0604864835082544,-1.8167018101072208,1.3761006994736338,-0.918508635075676,-3.113875490277279,-0.5739785896057455
-5.735892819817506,0.0846623477269105,0.3138556339979144,-1.0321011180029238,-1.0857798089560806,-0.0864718670705562,-0.0836813648073479,-0.3694512990767824,-0.5341541429707028,-0.9375765303298776,1.838305674257228,-0.3825719174214803,-1.4033409317633776,-0.0953517854790529
-5.745498260645966,0.8541287372834252,-0.0237826171138476,0.3493507858978806,-0.9764705377700972,0.3209199557384128,0.7506705748043935,0.7209836989266988,0.3146802473020607,0.4446873245094343,2.440060713212766,0.4357336886392051,1.1873673345585125,0.573464530968438
-5.923417593412561,0.4809770888733352,-0.6951228902520535,0.3738440137972093,-1.4925157858694,0.3211568285173201,0.9002346827525415,1.3119902607955929,1.035415311942723,1.494037694680603,2.6226751065584697,0.8165724679885025,3.133222886759358,0.5913832927284003
-6.330221940066744,-1.2653645410547236,-1.785866452015874,-1.0847539324317164,-2.633443548959301,-0.2089639853178222,0.2022413558361219,1.25580660098959,1.4547422373833416,1.9808562029848045,2.260849761246387,0.5870910965469458,4.214516026307869,-0.1745644954558046
-6.632740146231985,-2.39703396390465,-2.826322816968582,-1.374733990723228,-3.183361818755842,-0.4557620326391722,-6.828397209057702e-05,1.7295779532391715,2.246744867778093,3.1309911962336194,2.035070200530221,0.8254832246273809,6.512201974369782,-0.4600029608669381
-6.8521787213153305,-2.240197790781804,-3.8161126347198913,-0.737108762417734,-3.274179032992351,-0.142686655243493,0.7539585955493224,3.1200524540738006,3.614452635793677,5.4033771038409935,2.685935422086738,1.7620837149667925,10.720071142557728,-0.0019361603196798
-5.457131944663485,-0.1617749313345868,-3.1871085622358586,1.095002476841159,-2.8863221952982063,0.6833618174740417,2.0902699564738003,4.098645515091572,4.117555836365801,6.291524775187085,3.809496595194383,2.6287637301998026,12.047979115012344,1.0606674779892244
-2.211318048192474,2.3272299411453066,-0.7003772100094401,4.750239328219039,-1.7516426685005022,1.3733631898671268,2.8566274230265103,3.4691028850691,3.0589037125761784,4.316720854296065,3.6849434618586905,2.641885375913952,7.897734488155914,1.9485419711687704
1.5254759753978866,1.5228456284887868,1.0701722244007594,5.314414651975051,-2.080027415945257,0.7095435177343896,1.2305563306948093,0.7053726633668718,0.6548138998524778,0.2610617197873463,0.7106764074395047,0.6851831829497624,-0.2025351426732534,0.651763762883745
6.17698887339557,-0.9298456725631492,3.2411508034309504,2.7040740335362976,-3.946582343207342,-0.7938757507237679,-2.0684792494648723,-4.178259923746767,-3.554477488231985,-6.305235424183862,-4.858964774545104,-3.1684098540514998,-13.317936031738194,-2.0783756619094547
9.678946539411031,-2.6520046128399914,3.988803960466072,3.102022661516947,-4.103133117690768,-1.844331000755832,-4.348559857597366,-7.111679340845653,-6.236980694445316,-9.66063953456025,-10.783748812479786,-5.594646901657088,-19.854952127961408,-3.673234659560799
11.689670936491884,-2.0491937198179797,2.24424864006672,5.746400044693565,-2.8662344316730963,-1.650940723261798,-4.040425604534667,-5.7710603238671405,-5.522171516956468,-6.931970863340612,-14.671094416228824,-4.64253601488296,-13.96951581919456,-2.937688110171768
14.169406729028903,2.743534179025244,2.5120964998018738,10.518013870066609,0.2696058759656216,0.0167281814223921,-1.385199761005418,-2.850281724186391,-4.026291163557779,-3.7777834841276734,-15.996637310364385,-1.4452368929833757,-6.819588937025173,0.2770912179483268
16.5650316831284,7.413104944519244,2.310256896224974,18.701974964715383,6.084300059565868,1.6316627190388209,1.3004243471961994,0.8461742115554293,-1.5901569233785988,0.1923327535906962,-16.23898845582511,3.071408811679042,3.115700109911999,4.079895440479604
16.9804293152324,7.461106404720769,1.0303608323075557,20.40682986811042,7.249755387924917,1.875657321239507,2.15925026836143,2.956465491659736,0.7010970550269372,2.694051585777362,-17.014433697138358,5.342192475400621,9.091932976570078,4.947766496597652
15.439558616113498,3.3935243930772563,0.3445473052481825,15.278870497932727,3.583838083178206,0.9212460539071812,1.1689080542405397,1.7883977188989597,0.9941499664450346,1.3337506015314935,-18.20967777700303,3.1056440802262526,4.482409521968728,1.9738632301137449
13.039031549970847,-2.452664834642042,-1.9329283003685147,11.458975396498593,-0.6613871521948995,-0.5500624293121044,-0.3143996160281942,0.7359703129944093,1.549338271389646,1.67818401229986,-18.074114932216112,0.0927580209077889,2.601136025598793,-1.5713015302587612
9.34763784444378,-7.058078148161338,-3.7331867707420177,6.8655995781069,-7.173505185426946,-1.219573327997877,0.0065869758802235,1.083389182234566,3.38225032912374,3.3953759714546763,-15.126805861851714,-2.233798346054233,2.3471693955353827,-4.301596508532589
7.427559178196549,-7.139630373457823,-3.3493707145751648,5.513586073574637,-8.622517508411626,-0.8613747037995323,0.9702639065390004,1.2945134401464775,3.645795387456853,3.276165047801729,-9.886036356649493,-3.062038662287795,0.7858514324151993,-4.309332616553497
7.657016982673883,-3.733543770339782,-2.089734216391828,8.898177416793434,-4.031094695149559,-0.3040009650353192,1.042049702774154,1.2749735293396147,2.2672137658810776,2.1175113975471485,-4.714364031475574,-1.179890476878059,2.104310035715556,-0.8432492317134079
6.883935281785332,-1.1984339005640554,-0.7034481833623946,9.179478827639128,-0.7201799490880754,0.1369744734860476,1.1094116972183363,1.077695055909731,1.2888564542789755,0.2224226550953887,-2.033398664330864,0.5409368261257129,1.4945983592830518,1.8685947627256083
5.839405576114987,0.4772329160040153,0.2206582119745448,7.4346618693009745,3.0942356643729814,-0.0348538314743585,-0.3334844461667616,-0.7435889252692027,-1.5424180808490644,-2.949040360758132,-2.643999089435421,0.7810152333663,-1.4445187874293537,3.802019206230556
5.380366208562675,1.0400772360238058,0.2946817689219556,7.439676257943124,4.70911646867259,-0.3778538405999936,-1.4983977390290897,-1.8759202984670744,-3.203969523996434,-3.745270139892286,-5.518085020142318,0.6722550718661859,-2.0239103854608778,3.868402893880941
5.144487490584494,0.236586238062084,0.3140763288058391,8.065377554663256,2.853423139857971,-0.2978060121598527,-0.5054831839069702,-0.9596206376676676,-1.3791340269519756,-1.467690916983874,-8.877474193050581,0.5790543333879506,-1.0633810504524923,1.2479731201321045
5.228895274291296,0.5121146686477182,0.3163773738502705,8.641226402697976,2.4416912412164646,-0.2260690028612214,-0.4777565436947552,-0.8281182551911771,-1.3320102311280573,-0.5092849767383616,-11.353175751098949,-0.0733449612001305,-1.198469452849604,-0.6676216345855386
5.711141542035287,1.461075123685921,0.3222628622843015,9.563807786919948,2.5780922516359563,0.1747318906738637,0.0756037155601124,-0.0868636247194003,-0.5969811099571433,0.866668113735424,-12.36174757786726,-0.250763675956041,-1.366199620854842,-2.906364874778069
5.595894625925275,1.9342329111450065,0.5870688603563773,9.090727186599802,1.640678291258955,0.6249022880073553,0.9105238352010994,0.7685907746695501,0.7799368981367125,1.8473305320551547,-11.855053369378023,0.0587012952406163,-1.320159353521161,-3.5433380678441506
4.8355334794503575,2.256019551717608,0.7689784030514893,7.028637923595205,0.2727956848796135,0.6887240801426636,0.0638150645424739,0.2142911756442426,-0.0864055690457632,0.6627075507181059,-10.085513371292178,-0.1036064438959916,-1.1905821120074325,-1.330082146669539
5.1497933328626,2.367319834623486,1.7681569254982026,8.114211361169039,-1.5504852672083551,0.94802452601946,0.142971342535813,0.8256376254436166,0.9287845142830828,1.1625269831847118,-7.6495857172465085,0.6611900744070295,1.3889758627969102,-0.2984897617942721
6.412671759434492,1.8829492742913136,3.487959497458527,12.253819187879824,-3.961355444342807,0.9516946959637976,-0.3930178673595271,1.4092343142162451,2.1026261421198766,1.453959005330038,-5.432049377503681,1.3624278959381495,5.947015444839135,1.5838852518543385
6.253632750747333,1.0500376118046162,4.04685417933818,12.488140840126652,-5.84878867736394,0.4714438876665823,-1.5241841683748514,0.96099391940019,1.5050369694678245,0.5316247971240398,-4.153028574975694,0.8692503144803332,7.72624004978054,2.849540393789065
4.83741022976812,0.2220765692114079,2.71342445062731,9.368301356617591,-7.151222866323799,0.0192001507276396,-1.1604424387123378,0.5786333977409961,0.746942455811118,0.2629845677321218,-3.78776067700102,-0.2350803073450337,4.640197719243194,1.0620233608755238
2.2274885319600117,-0.7612927310770323,-0.0924049151245129,3.791616778638275,-9.121000788129264,-0.4791716274564361,-0.7719083739870155,-0.5179118449922933,-0.9512630502115544,-0.8333938733969464,-3.5137537376906582,-0.8903523882521653,0.0136148315727206,0.8968185630749943
-2.1469342128218,-2.187044402494968,-4.295828165709374,-5.793260876021098,-11.546093421597886,-1.059177867118299,0.4642236297861721,-1.5242994311888394,-2.8486026004522005,-1.900226840541164,-2.436695997847076,-0.4126484328893119,-6.195119795490916,-0.1539921957637251
-4.684716374900586,-3.0547609965582407,-6.74990079375714,-8.921613376107187,-12.29531227456224,-1.261893093477309,1.6337291727766807,-1.3734274001531928,-2.9995018538776272,-1.7790068721413814,-0.5048785920735317,0.3422172973495673,-9.34744471929065,-2.0818219965447424
-5.315334145601902,-2.9151605803019662,-5.423089025921652,-5.12381641693837,-11.377108945499243,-1.122313320524069,1.1592625576285092,-0.7014715862010523,-1.2071506654603936,-1.1860736268223817,1.3184533743893718,0.6051405960773952,-5.461959699725023,-1.410792279827433
-5.430493770465443,-2.5693936747418085,-2.9245911498408965,-1.8721011118324635,-10.470930242821684,-0.948640690387197,0.979352596726616,0.020268533821575,1.40372739966441,0.055527438204198,1.9114502336929624,-0.6980198672976666,-1.3593307859759836,-1.4849375921973358
-4.148512445353422,-0.8811153821032678,0.4916787314957365,3.19870204558827,-9.146410850378563,-0.1356392281824238,0.9054519949637712,0.49420002549057,4.5031858186380695,1.90143422288732,1.124629367730554,-3.5450568042894357,2.5838530488374127,-0.7389940186452646
-3.330248414441072,1.3314916458828114,2.9518490454339847,4.309725068169207,-7.774336923835078,0.8853597924082681,0.8427493259837748,0.4000640427685191,5.503178512592138,2.9112632087119272,0.0796382538333873,-4.693169369211288,4.575510765036713,1.0828946548127214
-3.051846968697149,2.107560923176852,2.142201872551019,0.1389573175305333,-6.619291516370851,1.1468186369511948,1.0972067951235134,0.0105418772288996,3.0773397857963705,2.2579223785750564,0.2854868882846588,-2.295423818224273,2.0205598549858683,1.0565201209405313
-3.159162243831069,1.7573622076707092,0.6937183913345051,-3.232211531892472,-4.528078368096253,0.6595030097462266,-0.0393498620194492,-0.0887710769294768,-0.1421618039237681,0.5307214208159389,2.340919770535385,0.3355792647118374,0.4314011217118785,0.8707244489922513
-4.161607312658851,0.2583020808777877,-0.4157060035476155,-7.445336292752424,-1.6171936832536324,-0.786582221067162,-2.276679279164573,0.0926349580606672,-3.899637699052929,-1.8717896250569332,5.389637491707775,2.97194601702836,0.5775823543164975,0.4900228052971349
-4.372182327585306,-1.5052662563589745,-1.065655998859521,-9.782451401389205,-0.1318091255509948,-2.0217025494751595,-3.513786700863184,0.255309117469038,-5.406383172118607,-3.2588603672425265,7.780560717613907,4.23503380526831,1.2110596323538383,-0.0473160531324869
-3.868005445134372,-1.3981791913141262,0.2301326538227086,-9.253576470956183,-0.0578929626697722,-1.3969943098747428,-2.863387423616946,0.3153811835319928,-3.2162073188374523,-2.367397500788722,8.322430563900415,2.255805927380141,1.837607292469936,0.2966905381196494
-2.2214879483584937,1.012147131989961,2.942610188698853,-7.233843704447241,1.1676300028010778,0.8865864411951778,-0.5962481260866374,0.2029626917249735,-1.5309759607481952,-0.648553481088016,7.092479566809394,1.794822307717035,0.0858087398795558,0.3503320591770544
1.0175670723922845,3.7078770455386296,5.423200292754412,-2.6126614620786,3.180925574977256,4.0203079308137015,2.500575681752663,-0.0815879949709099,-0.1635158507721241,0.6677534474840908,5.243469654507142,2.831841215208973,-4.041718899870318,-0.2464901326238734
1.0060032462193471,4.435744154734884,5.893767988721534,-1.4748368875905795,4.0080917844196335,5.299994977591262,3.896836430617109,-0.178891456041262,0.6713263046073618,1.0023952995605994,4.096097302907125,2.8997361698467228,-6.372363297617463,-0.8609589389198147
-2.381438700621728,2.171247846938106,3.401873691547609,-4.153790337750716,3.95863683579033,3.083332154686314,2.5245266998662315,0.1762759298555265,0.1945826751502516,0.4484423824398291,4.274280625096663,1.8208940431579077,-4.452631591331267,-0.948261444643364
-6.159362730337438,-1.5344412516397985,-1.1529590510165486,-8.42416948596473,2.2795697855852466,-0.5547260506012949,-0.0374549677447282,0.0573339724298483,0.7054253420738723,-0.3862291648611757,5.469492935836611,-0.7146879789024392,-0.2928386873740238,-0.265774383498314
-11.430853625517988,-4.476174928787652,-6.356826240587004,-15.9042098288821,-1.5009737556353495,-4.566001472530616,-2.734500420839902,-0.382204942560555,1.8637060970461568,-0.1962955505712951,6.893954570311388,-4.619989345474616,5.100503032643855,0.8935783460961795
-12.63486091850337,-4.589546699533052,-8.085297246484181,-17.28071643291185,-2.411171724158621,-5.8890909671665215,-3.3840876774635587,-0.4179258936376895,2.091255794383116,0.7511869108217097,7.963282055562672,-6.369142624444267,7.36351200520048,1.4909278962298418
-8.995758514193485,-1.784942086163829,-5.101821905185669,-11.908603474376076,-0.4055407463357987,-3.137697634177604,-1.2351519006168048,-0.3091902358867343,1.4327969294314475,1.1017997969796824,8.63640747271047,-3.8904556673180495,4.169540493354368,0.7402333194797193
-6.676597155996516,0.7215512970770983,-1.562236987216797,-7.052721978757961,1.0342890346756934,-0.365217765767732,1.430835433610998,0.3207272306440423,0.5853682807370052,1.3611707771668111,9.277526656786057,-1.0361099480897895,0.5931871700255399,-0.6834324396473976
-4.358941726587352,2.228646404943214,2.0035441749345315,-0.5528352417815682,2.949949775007024,2.036857250037491,3.7148360070196382,1.2505610099095217,-0.5601162367116839,1.009049055864697,10.281713542734687,2.0432834358898995,-2.517808150937892,-2.025087094853644
-3.403332783193964,2.15273274978929,3.328434305061013,1.2308391877452634,3.5892502884187114,2.756570827613278,3.7576322086791114,1.2271538645911535,-1.080397382976754,0.0551632916223772,11.8166155189838,3.477349806352991,-3.660806199198415,-2.2678839894539955
-4.892373655562563,0.5968841622430092,1.222008479618816,-3.134138250301709,2.390587366059047,0.8767390432018389,1.1474181912443069,0.2468743166308296,-0.793131733376892,-0.5776147462531792,13.834407558302107,1.6300156442393523,-1.6714734256560018,-1.1603948549624856
-4.546791579825903,-0.124366983751827,0.3344228978752271,-4.8442057652251,2.4550776446785734,-0.0109186020904282,-0.946068730910546,-0.4437826832155786,-0.6358214537809522,-0.8380484564378667,16.170121656857045,0.3849089169703349,-0.3489678352607342,0.2166839864412539
-2.864862840972154,-0.4613614595781065,0.5525357090678493,-5.49633455902296,3.3376358528857826,-0.0734209034063528,-2.176735653679302,-0.7442936480804405,-0.3172606920638151,-0.8408812196971279,18.57052039559943,-0.1741620535967041,0.1195620117943665,1.3308429545068392
-1.601760368270048,-0.4713717180661965,0.7326606604384401,-5.15113536368557,4.173203934920904,0.1162263827781536,-1.8818006143186057,-0.4096408771792214,-0.0576213030569957,-0.4829913121263348,20.72032896771709,-0.1249521801329069,0.3697538254655576,1.4862099913750466
-0.0707864473855754,-0.0353486775181183,1.4152479126365884,-2.3200728271381506,5.463652916903233,0.7639836199226335,-0.3210174870124678,0.3847784097999871,0.0715633966320297,0.0663498370933774,22.44191402577551,0.7003266800167173,0.047782112257126,0.8488784000499829
1.2758788560872714,-0.3458955295638822,1.0855834051026234,-1.1719139762439108,6.375858288862526,0.1621977550450975,-0.9235638672782056,-0.0190309892214036,0.3781648266262414,-0.0696625475940286,23.94716796724827,0.2508955493199372,0.2488280312787684,0.7517196460504132
2.2676783233067246,-0.639512662795718,-0.0163413971601832,-1.377271808841288,6.846972482509676,-1.1119230926892505,-2.727256854191376,-1.0871556684315098,0.7731543558765444,-0.4232849398941771,25.783674161239095,-0.9326546528006642,1.097343777352057,1.205634714100449
2.922836988995509,-0.5217324132676617,-0.4783336817655601,-1.1001814351042185,7.130656567138744,-1.6646646696471987,-3.607254226192057,-1.6903054983607433,0.8461982506331602,-0.6860050360258514,28.33814470948687,-1.541636052266698,1.2206097494764736,1.3813558898643383
3.050601568260755,-0.4930566564299375,-0.6808666656398755,-1.0656518708547569,7.006374752054211,-1.6283092044519871,-3.19846415693973,-1.7175274675854424,0.3783321253182377,-1.0490956813422183,31.25570349610731,-1.5785046685162605,0.1826410152026283,0.6191068600351992
2.599985932104365,0.1423579549846234,-0.5691366026032669,-1.2874325676477747,6.770472658935962,-0.2508223910580965,0.2833908295368642,-0.0083393571597338,-0.0991442266127213,-0.0520362594925485,33.424965799860054,-0.2529006694108121,-0.3554941145442178,-0.5704196003056532
1.4542198783820142,0.7091969747048297,-0.422696667641661,-1.64986307946007,6.395995407029512,1.422472607976442,4.636921156994039,2.0831017859031005,-0.7771839675438011,1.162316933990915,33.69518361903948,1.3327413245791362,-1.2117547464525569,-2.223825857260319
0.2970521118754773,0.557681792280325,-0.5852578043229688,-2.316305425603597,5.379457748435327,1.6598625022908666,5.621393906777561,2.396689562592057,-1.1111056295865194,1.2875308370865168,31.74712734835561,1.4705197144678908,-1.766946067221633,-2.8860567131799915
-0.8908242772383552,0.4597748031001715,-0.4195910480115244,-3.274820178547444,3.726711992143887,1.1682379741677664,3.7159530236871343,1.4645187510498698,-0.5926859994684076,1.1064245919239917,28.320272300561243,0.8566713638295735,-0.5990362061010159,-1.3549621578048008
-2.3697132201915645,0.3733375719037136,-0.2295722289572022,-4.078702262013327,1.8811911756267496,0.3955446291712868,1.0479501099544746,-0.0954030854749778,-0.2499845936517189,0.309486138844713,24.62607613914724,-0.0446103737530211,0.0545989988827013,0.1543662186056406
-3.990838501180813,0.5377268020736409,0.249017041657057,-4.715703326325486,-0.2507097951517236,0.1043739678536659,-0.9013904566976194,-1.2362376217612936,0.2669540122816001,-0.0005847653541507,21.45350938569507,-0.5831502441855765,1.2949924505018071,2.078847871782799
-5.06278716374383,0.8974724564072634,0.7701270586867986,-5.205833626286506,-1.5309337694314238,0.6086968039479521,-0.6839688610033352,-0.9120866664497512,0.73979176411427,0.6168747119283166,18.71727530709491,-0.207637675167658,2.59151410028612,3.251886411677368
-5.503503721690482,0.9343966699100305,0.85089455479204,-5.41821204800918,-1.7709683294552132,1.1831185595961244,0.910837882255492,0.2722104775104186,0.6885122724883225,1.2679298434678838,15.7638859736175,0.5226046800160322,2.476767591072754,2.5446751077447978
-6.3557227858196335,0.2934752995733066,0.4157289233355989,-5.7881275163628425,-2.7488811946740714,0.5302350159052471,0.3939666198241289,0.4186203644886473,0.3448649924606106,0.6658545755978837,12.103923215059297,0.3588737665188515,0.9093718701636082,0.9129782211861044
-7.479027787669853,-0.8978600926813753,-0.6039178638605622,-6.290793314393004,-4.224989536403678,-1.2779769293175949,-2.010992130507643,-0.4654005244391864,-0.4182034400585543,-1.246644514825478,7.937297365039535,-0.5943812256597911,-2.355821727597307,-1.915033318300304
-7.743312915287481,-1.4927965165847348,-1.028298680148627,-6.120980682429267,-4.773869885205443,-2.1805367129572795,-3.2697908361056265,-0.8733064285496929,-0.794127302234547,-2.301183868645612,4.044213141967253,-0.9112144279406276,-3.950850950750607,-3.4969132653983923
-7.241128499431451,-1.2719267209440257,-0.5505151470658929,-5.297850030106967,-4.602597300317898,-1.871354898422375,-3.069708218887813,-0.5942350791524669,-0.4447401339207709,-2.135506904519197,1.1358979342747608,-0.4748321355676363,-2.818591579441335,-2.878090670162916
-5.938021876499845,-0.7227434986931675,0.2873687737138088,-3.918527437447661,-3.804891370558548,-0.9474943777562184,-1.767549532832431,0.4623655955897154,0.1762754855758903,-1.294877221301706,-0.7638947248625003,0.577570047393841,-0.6561852492264206,-1.6144198047882865
-3.5595113589000023,0.1723888040575742,1.4252223277316782,-1.7767416072694269,-2.097308207513715,0.4332157598858587,0.1693070427665021,1.914673293014901,0.9119203666230112,0.0079934880653668,-2.304051801221068,2.2210376991228724,2.3359950494502653,0.2307832643356703
-2.463566660886185,0.7274945162998662,1.5846138240098082,-0.3710388693428093,-1.5585254956412724,0.8976240559069948,0.637563778657028,1.8445877906426495,0.8924617025754779,0.3900210704512639,-4.138544943186679,2.6359193410508897,3.0421762725318726,1.0830902369016897
-2.730936391431304,0.5323729556454512,0.4871522875081593,0.2338283852004154,-2.276683104082973,0.2398657229973702,-0.3118058396718838,0.4211838947508131,0.0147121589201736,-0.2618069267960672,-6.285730811487589,1.4750745752730186,0.4943675605614106,-0.0374999919193698
-2.2947373417012296,0.5359998652806375,-0.2644396921762483,1.0968739810600885,-2.021549197418278,0.2161296353432807,-0.1740134071685543,-0.4511737863384524,-0.4160302754552045,-0.1107057417380771,-8.26746267032052,0.4109691629072109,-0.869985377628471,-0.1983566085311459
-1.6376152298127264,0.7705442480465999,-0.773346204205713,1.8789667957029783,-1.184351823061454,0.6002610803766978,0.6785256449365384,-1.0007808148326962,-0.5182588891674991,0.5935467484775482,-9.916198900000088,-0.7445787858258911,-1.2998335926138551,0.7210191471631356
-0.0240832795160248,0.4341805711976901,-0.8119421923592344,3.3156394664768207,-0.3058747726499913,0.5744173528575711,1.323481455392903,-0.7963204169464896,-0.3586201543954493,1.009394334109813,-11.845310377740534,-1.383873424519777,-0.7748795872775782,1.3526085905549945
2.9228274124242923,-0.2237253165055274,-0.2974566224357449,5.583507895092404,0.9571386934110876,0.4371095849383403,1.9672212823197384,-0.1404380252440123,0.0886022391361051,1.4491562979864987,-14.79176570666648,-1.2635632255563172,1.4301410646900476,2.1783298481380875
4.966403422732982,-0.9740035842032064,-0.7936230204150069,7.182667066241788,2.3194013094345154,-0.0531587998410452,2.057424367429448,-0.9593789428246392,-0.1626805028039218,1.5199329032582012,-18.352926202586065,-2.417978269893644,1.5284595927664923,2.0700859860001755
6.275689766423353,-2.4001201064801445,-1.658848633946208,8.250349415696405,3.77750496668958,-0.787750488726966,2.374518434928341,-1.6839621160844993,-0.3148038504464757,1.488230956973278,-20.65836228473583,-4.687526482995243,0.4149670762293319,1.099420317664582
7.787384626536683,-2.84148475939097,-1.7985996063073073,8.623261557370872,4.841816030978869,-0.7962577041716716,2.633273984114689,-0.9851127714598996,0.0097116177764161,1.3674576153839717,-19.80459350018096,-5.370593057510507,-1.0716236161896413,0.5538669879495173
9.083731562147063,-1.7430703929596996,-1.4688002926810708,7.949911496569936,5.395691625031166,-0.3674817475650275,1.5886791396807287,-0.6453169309961357,0.2569293021011939,0.4413298643007849,-15.25783163064597,-4.754310953974541,-2.3504091264081515,-1.1831428169016036
11.65935695986886,-0.4963120538667343,0.1352164521776863,8.841364670141177,4.621736973060622,-0.1793348611608812,-0.2695597100676051,-0.0392257475643564,0.7919435359028285,-0.8066154783344687,-10.046152853179636,-1.887285417960589,0.1078040715454291,-2.6052101340029146
15.700585124861387,1.804878909461036,2.119425810323334,11.32638491232782,2.2316768493883647,0.2001745931842964,-3.351331790181506,2.2578782162319087,0.1736708778560314,-1.9072233387234845,-10.29292720540904,6.84143968352625,0.8338789982838852,-0.0735379197022361
16.988715236368932,3.348013440580509,2.570235485299614,12.25962487948233,1.7278054054617868,0.5620090419001982,-4.812247727793341,5.362865664008602,-1.6243516165960663,-1.3654618181374063,-17.94497788605842,15.693622696910143,-2.4052498611682918,6.136210023057275
15.596154807069704,2.8465974323243177,2.0122685660512545,12.050584200329414,3.0713688481719204,0.7304471587649386,-2.8562724399811064,6.839683873628471,-2.2048568712685515,0.4199841298881455,-27.722587999416948,16.49168405255421,-4.139975430223404,10.043703023947522
13.10255916307228,2.6404446488658664,1.2119197732524871,9.451978469310104,4.490599975114995,0.9892311033068886,-1.1213785536066456,4.595162551309485,-1.1450466081658908,0.4031499306403395,-33.16931932122889,9.03140943536571,-4.163899492704256,5.250740524108177
8.536053067041896,1.8957189034429915,0.4828062270108323,3.687286656707332,6.750982994281795,0.7655900823851545,0.615328130901109,2.3217252245300832,0.5221805669276296,-0.2243668186231447,-33.357126884421376,-1.2311475085832733,-4.075263064640434,-1.4490349345708369
6.486125740814453,0.6344531190331166,0.2829113630398059,2.0427721818274023,7.019313502837592,-0.031094567786054,1.029199274452653,5.528819715346133,0.7053632597861024,-0.4230053458201867,-32.821600651470014,-1.7541051161157482,-8.47550704423583,1.109483625849614
7.317683620018384,0.3357632138808281,0.429958097538178,4.494225499751827,4.941365923173739,-0.6754956762540427,-0.8581719162740973,12.87703693898168,-1.518974967789828,-0.127937554492993,-34.38543474657527,10.834945946324757,-17.352038986434103,13.803605980624836
7.117369733710856,-0.8027517509773224,-0.1252989213724724,7.493689091138072,4.333139385907215,-0.5632084748913653,0.0556602806445759,15.39360437270571,-3.487820337765603,2.512252281793378,-34.69094929164572,19.00516941840361,-17.81352174806429,23.002023749660435
6.9342205331729065,-2.6087731161752354,-1.4397166886193562,12.671951246735118,4.625225283973939,0.0035351161406987,2.4694390316645225,5.497568360719708,-2.6956170883185324,4.104955371059776,-30.362060161525356,10.443615364299896,-3.99334990399767,14.849014225939818
5.897142038082441,-2.836434160925473,-1.962842396063624,13.259924790523696,3.925313786545392,0.5067647523499192,3.3779376838771222,-7.385402708042123,-0.1945542982124808,2.8737907322976484,-27.037935073721044,-4.61585319205431,11.148438393310183,-1.7117324740800566
3.432939068311946,-2.1464188107154474,-1.5720885455458933,8.493798800542429,2.7688659135616454,0.4604899147533391,3.02286663885839,-5.28166547327277,0.2899577547196569,1.9759224162211344,-35.42951756487173,-5.591878003990488,7.470142840424961,-3.1343159826476548
1.6470984085266067,-1.5200183804656702,-1.039311685520687,4.660850230241089,-0.0523894732897525,-0.631660668470808,0.0256900560608902,12.29258455455809,-2.662344563381016,1.4813768373784473,-55.03489249168561,13.326378399095304,-17.390744237739817,16.7004902239266
0.2331376548337401,-0.1315613107240317,0.1684069691066681,0.1473050280563458,-4.914861726650878,-1.7256596231461347,-3.545053295724383,24.17720979273521,-4.698898148099945,0.410902947946659,-68.4551624423406,27.98681216720422,-34.60863336950603,30.21917027147518
-0.6149649388771207,0.682361635936963,0.9077714353398294,-1.571109763320559,-6.565945675556051,-1.729391421613648,-3.984616423223628,5.885790213443889,-0.668982609100079,-2.3162150688147496,-61.05044172756635,6.216221752359978,-12.353143242436538,4.437831051766762
-0.4873221971086472,0.3839454088194238,0.5422945338094115,0.6729051392871589,-4.994234803551581,-0.5373924012261223,-1.460598181196718,-29.80870493736581,6.673910783861585,-5.520148663503384,-44.09627486104655,-36.95183788511636,33.257040733218325,-42.9174546619413
-0.4656412273493674,0.8419235281155286,0.5673229632247299,1.5250920712401572,-3.745781608348022,0.7670203657841594,0.9439676392523184,-42.46069201048221,9.272771466566844,-5.599698845043118,-45.54419810447199,-51.90083958629191,52.38412447793325,-59.02156689126003
-0.3871332264562162,1.2229695781296386,0.4751182075807981,2.001604610816934,-1.721803467456601,1.6144853100658,2.237282942259041,-25.415774878787804,5.577273832100692,-2.277147140358135,-72.16446032907753,-30.991753030584974,34.9821952174678,-34.765596952675146
-0.929659755864551,0.8064378100322553,0.007550406751663,1.7905256462551955,-1.2744118819627293,1.5959374525914023,1.9058304879179429,-17.77051201524356,3.8785584514970006,-1.5836178963140333,-93.6254025807447,-22.23806624212258,25.310131409235336,-24.24458926523061
-2.3549689627235844,0.3465748230052587,-0.2073691784793167,-0.0101390262799508,-3.0140191314036024,0.4350043949297256,-0.1723273992698637,-59.31902760842915,12.818749268031365,-9.435648463238303,-79.6910440723039,-74.05771044760832,70.24760083310765,-82.27773224149784
-3.3551618332711866,-0.3930484322391639,-0.6945101096060863,-0.8221804660491007,-3.335641276652925,-0.388467073057433,-1.2660943382000864,-129.85205068590426,27.90616990806127,-20.975891174320196,-47.34466986795452,-161.9489894389629,150.09814965863796,-179.95481892594955
-4.127709442089626,-1.3338184736361351,-1.3867960408337747,-0.93547985928606,-2.826127168715347,-0.9099985119002328,-1.5243043020675278,-159.35781731148722,33.96996861093543,-25.520801836510664,-47.12412685296772,-198.82290848447585,182.9646496150169,-220.40728714857767
-4.870832011312151,-1.429499845712345,-1.4380123071929156,-1.3416101233694326,-2.6769171691888114,-1.1439516573865778,-1.577283543543262,-108.02237001328145,22.705076892330386,-17.51406425119765,-93.48832351050262,-134.73011399360917,122.57122709698942,-148.90100261971028
-5.362423742311721,-0.9915469296218152,-1.0789700436200722,-1.6256613285680683,-2.3613795245360167,-0.7872523883229305,-1.0294195053580704,-49.19582149923421,10.08746302045099,-8.082596676182757,-132.32896814148756,-61.396479377665685,55.101674244882446,-67.38191380545132
-6.115920044985328,-0.7155105669652326,-0.7212527612637534,-2.07284779920371,-2.2771226954508843,-0.4948535031358773,-0.5913954954140904,-61.23546874533781,12.94168851656747,-9.757155638905592,-105.98138100492648,-76.52532942606993,70.05470780856932,-84.6178271348222
-7.122226457916303,-0.1666116583513441,-0.1362548505295192,-2.767594477440203,-2.5261922958128684,-0.11931247431527,-0.0035514138235686,-100.23987596873056,21.70695048825669,-15.612242800988408,-41.537526563888775,-125.19392870555625,116.72912931613618,-139.4423822926493
-7.866191831223948,0.6935905153983601,0.7056803563243679,-3.2623194088594456,-2.542404631047545,0.3330058057494724,0.852472103861196,17.68313976857539,-3.567238196152944,3.0526851772837054,-32.70754962251692,21.91172446949782,-19.280154279372244,23.867328560281504
-8.423526648308583,1.851152802694544,1.920798139705792,-3.620086518442278,-2.4130792256370683,0.8172439729947145,1.7988659070627564,349.9235140188328,-75.18325356036054,55.0220964078296,-113.93039572213765,436.1780127624618,-405.0945246606918,484.6279799976541
-9.068517173941691,3.2321056263948487,3.435732595134409,-4.105009147112644,-2.4886572977323977,1.3949129696460425,2.8256728731424694,665.3056421854694,-142.912228781608,104.42321299141015,-189.49086547730928,829.4905630907989,-770.7533860587505,921.643542982578
-9.727536754847703,4.463689342330258,4.912684580402216,-4.65847174766295,-2.700757765827224,1.8983903180720527,3.8067630735036833,812.3652414682084,-174.01064789113173,127.67988138041456,-141.6593992444431,1013.087982986416,-939.9202276603684,1124.869782249414
-11.074126891089067,3.727864252098086,4.066771697479012,-5.403287422359139,-2.72591452877816,1.4879269771447496,3.187350984316744,481.3195541382096,-102.5094202546566,75.95563684435663,-6.6655068269509705,600.3974547268012,-554.8982808022299,665.6977931141641
-13.2161090668551,1.351735586886294,1.0412958485399442,-6.395714048735279,-2.5942307309969355,0.2255657468688286,0.9774712463241512,-125.81462626016912,27.61708860502481,-19.343783425876243,26.636458324260147,-156.67636389225953,148.48405495815308,-175.12050995912273
-14.854774271529704,-0.7067928217331512,-1.664590895550866,-7.259796477260735,-2.6381578168891298,-0.8785897114673593,-1.243712435830763,-316.66269878619505,67.54460667242164,-49.9650434969427,-147.5322654863966,-394.87827751223966,366.87870880940375,-438.1082480346233
-16.103638741815598,-3.364397212645106,-4.803286496733073,-8.020704478072425,-2.8151303885822334,-2.1114646931796126,-4.009775997796797,-421.5416409501631,88.94214022251212,-67.4246101832025,-345.1273224083184,-526.2215831165674,485.0999790713147,-582.1073778639313
-14.36570791049033,-4.281184833852923,-4.959673205584799,-7.970222182212944,-2.857150595239422,-1.9569507502360717,-4.247074832774535,-383.5315197926458,81.29977675798685,-61.40982429668017,-213.3810844658411,-479.0089159852374,441.5928039103949,-530.2472569524414
-9.078777473045374,-3.194650557836863,-1.9927062551102483,-6.946850961030199,-2.8070722202618508,-0.3775335403282289,-1.6670277747383024,-226.6557146433329,49.51465769670046,-35.53778122214623,381.69962178131766,-282.87379514480176,263.547621758931,-315.19670304485663
-4.041570978312618,-4.008810648662911,-1.804606650823936,-6.04638670905467,-2.5166525881863024,-0.0434305576990693,-1.0818323106107943,-637.958622140645,138.97310584474408,-98.73444935832288,1119.8803685152443,-794.8576661195398,741.8410525813701,-885.9865949640468
1.3993936259560786,-4.057670493852829,-1.0317843304933412,-5.091849849930008,-1.9178792787003995,0.5109137326103306,-0.2165167524654156,-736.4375350622322,160.15538911220756,-112.92693698443642,1455.504113086291,-916.2865265947212,853.285658444005,-1021.468142864416
4.772430834724703,-2.581083905293428,-0.0956558327386329,-4.072085863766655,-1.279785832363981,0.7164737871969113,0.1498651667447719,-294.91428971734035,63.83142559786997,-43.94085734076615,1121.1309317801274,-365.27846360542907,336.1116858841026,-407.3681719786628
5.155253871879298,-1.5505837353146716,-1.2496111003849326,-3.185209101903762,-0.5516288504843411,-0.3930165276006148,-1.5235466126643613,63.671568903281866,-15.107075794243,10.232171454962554,386.2915895567682,80.48425278821617,-82.42059814164057,91.05029614075151
6.977178727010736,2.061992879653132,1.850946884405014,-1.5238551859852687,0.2076859412429954,0.627667434830067,0.9595059330972242,589.2572648987183,-127.1607253607618,91.999214768222,-204.6706665588032,734.5755227466813,-685.4001786661668,817.1089231383758
9.504281431895768,6.1583487773354895,4.610006971155051,0.9036536468094032,0.9486372508177195,1.4393596148430696,3.923197460126256,761.4147045707691,-162.9325303096986,118.49493453717464,-335.3500685276556,947.7958433671148,-874.2852225246918,1053.041222733786
9.3483420421007,6.377014866089912,3.4595813909877142,1.482367455736783,1.6221222631345786,0.8566769382630244,3.737749631818197,385.3492101512615,-82.1534882276595,59.06324892352952,-141.79470736360344,478.0974551154897,-433.5416899973845,531.8017365040538
6.943065699966698,4.611122529155003,2.3957993347999853,0.1839951712551434,2.1806404030186037,0.8114724351791763,2.9694388883107665,136.4207682644815,-29.19629497172984,20.86473677532956,25.764706422539813,168.75688354576408,-149.30371857519606,188.57620168456864
3.65385149788694,2.381864192457396,-0.4450566215159733,-1.755570120552549,2.821067324448129,-0.6151080280947941,-0.5434858131062545,52.096374443052966,-13.397011887150333,6.914153117041771,-11.592333170187672,63.93160006077443,-62.31567079081937,74.80325140129433
-1.1163556564658867,-0.8926615867802249,-2.5347506311998838,-4.9597433864915415,3.520513701912884,-1.5939828165126655,-3.948845351507976,-35.88007312860148,4.51108239001171,-7.355327845788554,-145.15369839898403,-45.716302231903086,30.485351119341992,-46.54961113672085
-2.177907631923532,-2.392350106846877,-1.2312622895658516,-6.132298920477949,3.479483714522168,-0.6893286970119143,-3.394647886762661,-53.51538683674183,9.876607511736308,-9.055064262296872,-187.82298021031997,-67.17626361459207,51.24007463990182,-73.334299238933
1.0661199519786435,-1.1819892841207345,0.6819258685791918,-4.94384782763422,2.655714474855062,0.5512518728732756,-0.5136978184901292,-83.91306101172918,18.177613995389517,-12.613526404660703,-107.71476196673844,-104.64248514520288,94.69687197491716,-116.9473986082073
2.5397142725223176,-0.933815175167781,1.6060279925505003,-3.737794402723156,1.8209386114802972,1.659779957188003,1.925447949809911,-173.4739407917297,38.96949900534974,-25.34416902355229,-25.3883203425859,-215.49576140255928,205.14362015673092,-241.4260740992121
3.3873615249643856,-0.6439673425509536,1.3298395159105263,-1.6707971547129206,0.8049880690885705,1.9714701532595356,3.0387814145011114,-138.0820837677099,31.958860293680285,-19.129715472568584,-36.01934526132719,-170.53271648767637,166.37111524481458,-191.4021366667172
3.096640210603247,-0.2573360388853395,-0.2454368019691269,-1.0228907312056927,-0.3336753311419471,0.6912630767251209,1.9816441969592504,-34.47143509819903,9.01165248221136,-3.7818891116668647,-102.83827825709564,-41.37924676252935,44.57823694504636,-47.09034578889299
0.5892506809709404,-2.0849635942503824,-2.538066084055412,-2.190501740876956,-1.4713778775922135,-1.7608209070284342,-1.281046393025891,-21.93859788787672,5.322049808543119,-3.9267934215511473,-130.62903649009684,-26.54981336358136,25.51637872573334,-31.294697970197987
-0.387566364323828,-3.706356606437977,-3.992014390589766,-2.5178513608710693,-2.6961341600554265,-3.7022648743537623,-3.5264493249418574,-43.74554898095212,9.315389747330546,-8.961333016306382,-92.48298844362714,-54.16595646032139,49.03292640501476,-63.24318730105955
-0.1543001191706633,-4.0540964400782,-4.989685486665857,-2.55896424028148,-3.937883896947706,-5.28257812791592,-4.95410437555969,-28.657310388658964,5.266274743954703,-8.195933174714868,-46.90221976941184,-35.79929347924236,31.04258051188889,-43.709899172986766
0.5458469939818821,-2.5551508377472283,-4.2512042563797285,-1.2806248967170308,-3.186346202722698,-4.598571596292675,-4.572645222536152,7.664341772783256,-2.7778421453630826,-2.658573976947352,-48.3925177357221,8.966002486763148,-11.754011363445128,6.75903512363157
2.455971871673724,0.7865850842095387,-1.3847752999673637,1.83487412430362,-0.2136620019351516,-1.418696857073958,-1.7701784671585872,56.716850294467065,-12.743706102156867,6.958055470668146,-82.3966248924257,69.94848358061994,-68.00104987730423,76.69596119461961
4.151551180285194,2.4762406905629746,0.9081193404514842,2.382227266251007,1.165024802033834,0.835281020750273,0.5796590851248413,77.19372720924534,-16.631340305075604,11.979554401762783,-98.0904573397458,95.40143292035684,-90.3248595981852,106.98067933997056
5.6863834870871415,2.2828303918642945,4.006508495381911,0.4678305323448924,1.25455119391517,3.662236607481064,3.5346634773297505,28.239179961103275,-5.897294568235848,7.263935043077047,-77.91830747285883,35.17819687144801,-30.938960818768862,42.89576883141402
6.297896034972801,0.5793603628582894,5.396172621894061,-0.1279200162469794,1.818665900231738,4.736128574478728,4.678031429379979,-16.364307048069563,3.207052671674632,1.948473644376253,-51.18608067996614,-19.147681741515303,22.30340334680337,-16.019452453317175
5.572547517066038,-0.5932555556184953,3.786842217143031,-0.1681322518555942,2.152208216043009,3.0517737173936776,3.1189671526381724,-11.823357160963658,1.8124525036494143,1.5372108081405065,-47.72901092737208,-13.216539258642271,16.27557399973073,-10.548998929540108
