AF3,F7,F3,FC5,T7,P7,O1,O2,P8,T8,FC6,F4,F8,AF4
4.326570115822193,2.352870146290122,5.134517924632185,17.216787606397688,0.8202315281375632,2.702280570642797,1.7835752612699023,-1.1887614052856752,3.4565161601606507,5.078422990649483,5.2267642897455415,3.243259365384928,0.3005503342144023,3.767487722059633
6.022237025822953,-0.4866625843204994,4.140381829184879,19.553576780276195,-1.127953322821956,2.0523487123362294,-1.3009959121294692,3.269655671844052,3.247432702752222,2.532477782279481,1.8486945348510888,5.666379163155468,6.911822932585654,9.065163325992092
7.057400688784515,-1.5381385543923574,3.982853326350981,23.179439125414632,-1.2719231264980904,1.5964354814805892,-1.69727417227541,2.222322477940999,1.3029814395742243,-0.1358724637568298,-0.116885099550379,3.77694381429692,7.229957639806189,8.128208957555477
5.0382891187502565,-1.050093492403926,3.92904655671947,26.0448203153033,-0.7576123895911792,1.944879698411712,2.4866889959116847,-2.077248651233514,-3.525296637846518,-5.64305745324923,-2.5542570089561405,-1.702796354728489,3.2721713253793494,3.887693068037161
-0.1342494390238329,-1.6089604631384664,2.619976310920745,26.59748708130304,-1.9525084953847156,0.0213489130982667,8.842052651861765,-2.9565213053522887,-4.784839143520181,-6.051286249193333,-3.6184247756470014,-4.484106466522287,-0.3491425610719914,-2.646777315193977
-5.458234035487696,-1.9596997287003244,-0.5998680300845365,25.40329755596581,-1.921396588984913,-2.108373708863588,12.008712010120885,-3.921570480822844,-4.428617002675139,-2.988432623495174,-2.8311687372975114,-7.826376414107653,-7.553656768295942,-14.914167985870714
-7.113680908602386,-0.9269939175018486,-4.747123296589406,24.700144711738687,-1.506181457333421,-1.9999760271015263,8.1355463172661,-1.708536172381363,-2.51458736438096,-0.7595476208685883,-2.046013837743033,-6.183193544681177,-7.297971079040642,-13.325108887065957
-3.8322330204524473,0.6484884636938391,-7.664845855001653,26.325703153543856,-2.194195099838212,-2.1382617210115256,-1.557767236516968,5.67139844825443,3.3035974636315704,4.487029273375659,0.150546236007877,1.477407233582938,-0.3056848852677903,-1.873179376279268
1.8942773144066951,1.9579241474561533,-7.712593188900538,30.06061190565057,-1.0261925912120633,-0.6021391270908167,-11.462986929383726,6.2326374385725005,5.135905023175671,5.433078386457524,0.9691661782445742,4.197165107340355,1.860698023044331,4.042854422536056
5.97783465739302,4.095868317261513,-5.304705614536533,33.91887084020515,0.8872039680794224,2.72128669574425,-15.93144124558322,3.8139725612514823,5.611506210974915,3.416935981870989,1.1603048003183258,6.951152259888859,5.352772673032347,15.36147315126764
6.187024893431296,3.4304359633151646,-2.8392655199679533,35.89214205285843,-0.5041172035942179,2.334641310682221,-13.349630493309924,2.3881475151928497,4.148766292395833,1.9182463229948596,0.9976791767567526,6.048476521946688,4.69288082529183,13.718236124176295
3.613302444947552,0.1460037292062801,-2.843968542906092,35.26967354746404,-1.7891298039750574,1.722828101463438,-6.485845561724475,-1.2422144374778936,-0.844777390192675,-2.073647958888841,-0.4021670142565416,-0.0939676773501583,-1.2811679768101385,0.3956698064213702
0.9679988317697106,-1.2529829304213094,-5.782759901581411,32.32234294139904,-3.9438319113948017,0.7553764204408103,0.626073341659682,-1.774948217456801,-2.930312399962327,-3.3263283817860723,-0.4082540043321243,-2.301884482969448,-2.202009385724065,-2.832236999048148
-0.3225825283042933,-3.1173314922860107,-9.450980393702396,27.033516388862967,-9.592754492345538,-3.078471347598557,5.863836631880539,-0.8779642825385141,-5.370302420334668,-3.236783131388519,-0.0857363584093858,-5.268107538645128,-3.023289326945524,-8.634190781093439
-1.2592621735002716,-3.30844021042222,-10.648263808615152,18.578036949430054,-9.484810037583204,-2.826686669987584,9.37592196907374,-1.643618995593232,-4.615569052682863,-2.457639184199215,0.2287114709175977,-5.064737095908976,-2.412509968505627,-9.20214166601627
-3.7034517846523087,-0.9840589022077632,-7.841228026453994,6.307664867713895,-6.716625009172744,-1.214237414063998,11.579323159966552,-2.5273432285680677,-0.0330657057596028,0.7476166748418482,1.3809877748600488,-0.745639078754975,1.586343285924753,-1.471444592197158
-7.950810347225914,-0.5658091714162167,-2.5632434461794134,-8.809355918108407,-4.546514251705845,-0.4948986385512116,11.675487422169178,-3.0174049746850145,1.3673796680628336,1.8137834725782376,1.2352927992424814,1.0946483312524533,2.4362625359466734,-1.996643394793848
-12.01541979575026,-0.1528839280264879,1.7043988714719074,-24.001828103435813,2.825317762569352,3.5741791501985976,8.55686463350738,-3.3201998945865907,3.5051017684138968,2.5022733920622784,0.3506250158578162,4.347399615273829,2.878740770711093,-3.460357042602208
-13.306507702541548,0.1098542244282788,2.2838372708666164,-36.24304721064533,4.934879007287573,4.102619283457741,2.895283444013089,-1.145262999699849,2.9141554717206284,1.9798402530471857,0.0349760619393917,4.560778785203638,2.830887184591349,-2.0969607086355078
-10.975058826983648,-0.7436118975554538,-0.5998311427837173,-44.214167824512,2.897592386637923,1.9345437571314017,-2.366096076799824,2.185518917192344,-2.1928556188832165,-1.4907279199187853,-1.3493623792323028,0.8884822098332413,0.2385880844035016,-3.472586391833647
-6.6767330753887855,-0.2046929392784575,-4.085066691675003,-48.90109490663959,2.990180374942692,1.302723175838828,-4.173987510952976,4.471963625953721,-2.2290745011477338,-1.994332744776936,-1.1845795771190657,-0.1025163846000218,-0.5077908348493891,-0.6043068357433471
-3.1497518002369453,0.8535355577840084,-5.01488723751396,-52.35829619574542,-0.6462389530902435,-2.1229685587087435,-2.177508181400892,8.192348620267882,-0.6205165662496926,-1.3437013449487492,0.6927502835021921,-1.5950426282345576,-0.6197706726114812,6.359452623515583
-2.02919138428436,1.3301192985941377,-2.389799522918029,-55.87270436336085,-1.601621175147486,-2.888157586877776,0.7682007296116566,5.233999084479705,-0.1081351332091151,-0.845968614867386,0.6709874763665041,-2.2933330733689137,-1.649681716804047,7.241346853144253
-2.801330344236707,2.1561759839836143,2.0003491213344446,-59.15025536855557,0.9834793009703744,-0.3189964567556287,1.1312068901903274,-2.6294983347260468,3.1927758890111337,1.9016316136003848,0.8485938252911212,-0.6317612338206136,-1.852018828488807,6.767205174868823
-3.542959386062922,1.4902727659092887,5.136430204537309,-60.9913221053459,1.5777254982275808,1.2143972621232866,-2.055956798842171,-6.7525666590085525,1.8598786373794192,1.5449868768099326,-0.0991568485167393,-1.704153713799291,-2.9264717204756896,5.32577285361078
-2.5333920622164428,-0.4926620389192851,5.168877843162324,-60.5299631982732,3.4458801328333664,4.643266878282216,-6.265344920197929,-13.4050191057078,-3.2919876411243325,-0.9164960378785604,-3.13025847402497,-3.981512380192812,-5.006490800106612,-0.5680823330053124
0.6127617324200969,-1.2221630128862009,2.757647910345547,-57.85411838064432,4.729585631889705,6.268839295085581,-7.635900107731874,-11.653976939229365,-3.655607967261221,-1.4140766440783192,-3.661828837182679,-3.633345294034784,-4.063449859644008,-2.2070129156792686
4.882055700123903,-1.916384485256724,0.3779550909010112,-53.70859898308855,3.9476902073981663,5.29670101712708,-4.215249403274122,-1.84539234276596,-3.4948082003856737,-2.3683253928084107,-3.2509082071385214,-2.7737659689798826,-1.0907499482545762,-1.7689688433219992
8.545229214317828,-1.7223739186623424,0.2174390919946844,-48.87435963795935,3.765320576537164,4.570008105252589,2.451476786461232,2.380480323159004,-1.8316960601037893,-1.564325165435691,-1.7956673556463008,-0.2796832751485333,1.5295211387507464,-2.5279334273136134
10.03506616807448,-0.1484554148536952,2.369831997448728,-43.82463413273203,3.6333584180766336,2.965180726576535,8.44399591206378,9.017013580209806,3.620535005842049,1.385375351207333,1.8959956559845232,4.8846503293552574,5.688169321791984,-1.469162925114006
8.749663307294433,0.1491498324518718,4.795597093398953,-38.65474980537844,3.0684801110932947,2.1404350487209847,10.17818870057533,10.891519051809272,4.115732683397255,1.652624668896667,3.601534073722813,5.726562630509906,5.822536693454031,-1.7833370569416085
5.596779582463196,0.1211390320341964,5.11519163435954,-32.9988742709713,2.732399879856407,2.0608838241564538,6.719574519651289,6.510333595508656,2.208962003431189,1.0446070969204038,4.793053455691828,4.342555085645262,2.5021965545503675,-3.3532219269414867
2.8309862774829604,0.9451319432057884,2.7574901028044607,-26.016599783659487,2.5787358065579,2.038656273163172,0.3485695594781752,5.161672541173592,1.8622930465524692,1.0418752927875072,4.054168978068228,2.702424699270364,0.9453322283860088,-2.66365435143464
2.800615572610198,1.6989359104373558,-0.4114024831165253,-16.880856794967432,1.7551871177944676,1.8515693452474653,-4.810481512392297,1.7436497437028642,-0.3762077977256959,-0.0665257782699711,0.5619668954258723,-1.9705640216535096,-2.2558440572282645,-1.2003529907246528
6.086424576883225,2.2009062552202834,-1.6328116558545176,-5.787475782668984,0.3780192627965952,0.989471728613476,-5.337411646635651,-1.5856003855793317,-0.747575653598036,0.530165370301254,-0.8937854622433969,-3.1620888471870336,-2.1200401109782656,0.6681928145899138
10.524765495699178,2.900232411854767,0.2924368425733945,5.3690329519216,-0.8458727888678274,0.2463305973191782,-0.8533238719062837,-2.961641498237232,0.866849172597536,2.5040436795641927,-2.016276047499688,-1.9612102466566688,1.3374672286645348,4.735776312162801
12.422773067290894,1.1267939555089224,3.830015156338966,13.686061601456064,-3.1014479473080425,-1.15270529338535,5.431105655059373,-4.733672241346552,-0.488441845969993,1.1911369368915676,-2.6305711982571025,-2.1482777104039243,0.9435094269581016,4.388461053540285
9.499682410862334,-2.747784220556294,5.9570709899694485,17.23149504632013,-6.162979114948614,-2.7412838975568943,8.760153275540835,-6.32140112326652,-2.8539986253575527,-1.4265805096375148,-1.7926264489702068,-1.1517958811818236,0.40525534582596,0.8279627850060214
3.196361997227825,-3.846393018053405,4.793629656182144,16.758545212518477,-6.234518921492613,-2.640017213165732,6.453899487628846,-4.568587024468317,-2.5868033123388208,-2.6445079552594306,-1.5110246042473152,-0.0472297533749123,-0.7489343727715572,-0.5561770731850794
-1.9571367139227045,-4.522036948706033,1.2766297151112873,15.429913964358253,-5.136077215219195,-2.126550265495367,0.4093294984773461,-0.6553335865567382,-1.9927992949512887,-4.789627173380646,-1.3506324284306566,0.5639397172573117,-4.45075942702471,-3.986598040941052
-1.8273639649139248,-2.2674055356189844,-1.6379506521922167,16.461745339261114,-2.985960083722972,-0.5512286144177387,-3.9404690110247778,2.2986408222466634,0.4991060817637927,-2.3472215782352643,1.0838412064093517,2.6606286451788,-2.768041526731788,-2.152699502169291
3.770299961954729,4.033943748785981,-1.5250106164247192,20.59460199543434,2.038262990078009,2.2172688861007863,-1.9532352252842664,7.043011531092795,6.119802753826038,4.369436318232313,5.266153891940683,6.010556445031028,2.115929780287363,4.996676557878503
10.589461094786632,5.51865212654566,1.480737098786543,25.61433270172818,3.2877289689130613,2.7337335408137573,5.951804691415953,6.848814694526469,6.315674765716784,6.10707108649325,6.33417067808599,5.557904012153953,4.282806920039345,5.263210991906115
13.133119588431503,5.669142288530794,4.902501656612159,28.3221848616423,2.5959040747965942,2.727599461366686,13.934535295854849,2.3577394825460893,3.858245543431951,7.600557633465517,6.212201533204444,2.480226902163772,8.013648721143376,3.559189521541152
8.896857413048313,3.6586563098969607,6.052422302324235,27.12992443494407,2.2557516536494746,2.090754487622183,15.08379629150547,-0.3983626200127728,1.4152237327976054,4.97731955964552,2.999687969786925,-0.1069671605382146,6.280623670425866,1.086044143462068
0.1543986294067316,-3.0553265438768955,4.125409764742967,23.015011885147917,-0.3322131677474135,0.2305826764806735,7.081569167964776,-5.730395486034617,-4.655695269403716,-3.899657230902837,-4.679561392539014,-4.705464420482636,-0.9160092043545768,-5.822034018337797
-8.076003856444176,-5.140993779247232,0.5428445157413408,18.2780479274303,-0.9462996640326772,0.248088493645705,-5.664260976801327,-6.304426746324196,-6.328369800838761,-6.706030909609633,-7.26480766377863,-6.160147861610243,-4.494136889803965,-6.014975207046343
-12.008311361846784,-5.928680933540311,-2.4769513761300117,14.60138618672633,-0.3214488565622896,0.1055900798446516,-15.383734145787276,-2.5071959363901306,-5.344386783391432,-8.659015295113436,-8.159946897415114,-4.743897160537205,-9.57517425415823,-1.589886652216699
-11.652667407566016,-5.484039960607673,-3.659152447175618,12.27183834532672,-0.5359161942342471,-0.0149299577561627,-16.998682367886964,-1.1592959374118554,-4.902792188398524,-7.843223194513617,-7.079265870072744,-4.897493764509534,-10.204237421239185,-1.9779539042763716
-10.025988061078882,-1.148793162929298,-3.264557417317937,10.936462813871032,-0.524652599420519,0.9205768050888926,-11.7459772230259,2.1265573040641885,-1.7899497535719928,-1.1521570765613678,-1.202007129684029,-4.049215771805306,-5.674634660570356,-1.904877586713552
-9.989799852651789,0.3614794802491347,-2.3368978310885096,10.636934021225898,-0.2886889708207512,0.6416288065214335,-5.496233991641176,1.6681594644253792,0.1546734548541536,0.933874924226185,0.4071751462955444,-2.6616226352172982,-3.0527375157686665,-2.442390922268853
-11.598325377739306,1.501074850489348,-1.6121207682374037,11.80755289427684,0.2586625739578542,0.8583679226351429,-3.558632159769951,-3.64828519579871,1.4598310913097174,2.367293276673896,0.5008531672978002,-1.591389939613744,1.6451812450525296,-6.062641319329389
-12.228420780836649,2.3724756237847195,-1.1488399235825923,14.32109938211701,0.942765878894026,1.8584427930629024,-6.567114118585946,-3.4486048449149203,2.736998164771339,3.160579639290756,1.7802018041040315,1.0398339333805997,4.330599627168147,-2.919983998492592
-9.269317593364615,1.25744122471082,-0.787009476481983,16.870761079305492,2.400200830036546,1.7144966063347669,-10.658809317568178,-1.7506673236326602,3.2035376123838377,0.752999059168738,1.346780534671832,5.04168957353761,5.10303262587676,4.6368214946931285
-2.916314594808477,1.6745556870949216,-0.6662870830648067,17.65906301274791,3.395708209868043,2.17794481801297,-11.226384268943622,1.228644023679728,2.954674594170732,1.7463303488817896,3.3789772181565123,6.37481564562879,6.107233550837402,7.048226265398288
3.485393103879277,2.32746763120923,-1.1239396652380784,15.896769029720778,3.3082653095456416,2.9084298054504494,-6.7464599594683206,9.139072804058255,1.6639023349167454,3.998728244979386,7.488695129146253,6.46551933521197,5.440490870540445,9.716900952869356
5.9680893508394,2.1994554573652065,-2.1440055000123484,12.615842237580631,3.636683495564203,2.107145080535208,0.2779412798292509,8.936294218517089,1.3892798879102726,4.369388537419324,6.683656557266112,5.54914738363949,4.505764556914608,7.868459386813928
3.21996075518523,2.3523248507218044,-3.1377896207651603,9.858686096168304,4.085826530139256,2.368492716863944,5.450976688894024,4.001355259580151,1.3020809796322692,5.402007910824584,3.794056092816543,2.0807545430072247,2.769979314146476,-0.2712189722560429
-2.237168355381402,1.611763635787266,-3.482949611369121,8.886966443665,2.928594508711269,2.245637497691216,5.607211899863971,0.319943454391066,0.751777952046117,2.9691791002589647,-0.0640352668882226,0.1940768557288373,0.4592686930474343,-2.245755312031528
-6.054130857263198,0.3567616095024604,-3.3176579562818063,9.062014270201123,1.390185652969402,0.3146650295787465,0.6892768074105478,-6.922838715858261,0.9893355057577924,-2.49385432581306,-6.953363303465386,-0.944808252651824,-1.8111443795856956,-2.461002842481159
-5.59290637086426,-0.7534177229827641,-3.646630553106696,8.469725068095899,-0.6104119455708708,-0.3344999959243641,-6.450833168378589,-7.318029018326773,-0.2933005288303581,-4.233741202628438,-7.2940073927691795,-2.6996926125156144,-3.4440609624402554,-3.2632767043082183
-2.046702965248743,-2.41520963353722,-5.448550394233622,5.744241547304089,-4.91546449153691,-1.9383486851163665,-11.770345044468597,-3.2536008957516707,-3.0383943474926287,-5.819678060862019,-4.123666393112874,-4.065025627834771,-4.95846266032672,-1.1558908602740043
0.5722097619409086,-3.3580244833729784,-8.557842873273579,1.4350393313632142,-6.126080434702221,-3.354398453128431,-12.188547962418628,-1.1819215184314888,-3.1976957335654386,-4.741161853727784,-1.4321835113127035,-4.329875311885361,-4.367899908150129,-1.7154560694851233
-1.315517372468351,-4.065472592513557,-11.456287233829936,-2.312562446935311,-5.214366604588211,-2.473380746438309,-7.17660532427572,3.692562449954068,-2.584479827667948,0.48598463932883,5.095629177650286,-4.008874867559565,-1.8919664605346784,-4.140166780712162
-7.96192582797219,-3.017864621710918,-12.295271119097151,-3.4683112160774616,-4.838910703381193,-2.1787032174450545,0.9395516265066934,3.3293994517581504,-1.6926598090597138,0.7469189617111474,4.42096252472042,-2.558800647217333,-0.7092131630168566,-2.9573818601368678
-15.879349308724228,0.0242463069227441,-10.285474431116969,-1.725546429536814,-1.7212186482337375,-1.5056512289550816,8.210116763388129,-0.9506743012504668,1.1272234388196902,-0.3251957592596367,-1.021745825855518,0.7374118349959126,1.237860854017979,-0.4203934938434318
-20.056868266022413,1.446331528229928,-6.247770072921028,1.3177472470368388,-0.9846524431707514,-1.0016894351464456,11.266953808143665,-1.5889631864307434,1.4654333337844148,-0.5986946355496412,-2.788776548561968,2.0537708673704143,1.427510187214434,0.805008953576887
-17.171213601268963,2.576181600230496,-1.9294785781897064,3.4422638806653816,-2.513908280172534,-1.8172885327063903,9.204036462297706,-3.853086983915064,0.0953327082056005,-3.976337564184357,-7.758202038214775,2.3410406609669594,-0.9670622383351994,2.461499494166782
-7.730932515865069,1.910503548232892,1.2066253633496284,3.400173856436512,-2.7919731243046084,-2.7734745389561968,3.8942604675088015,-2.120994394981736,0.31706961867288,-2.114161507129728,-5.584938240327508,2.50814023370067,-0.545572415158201,2.192148332330011
4.066596405516355,-1.0528165585215803,2.7017319482334328,1.5663389779374288,-4.509623561879987,-3.896795223589725,-1.435393760345038,4.49308283003024,0.1853947341892367,3.8279460595408654,3.874462101473133,1.307106906417394,0.6853064746619146,-0.1122816480581122
12.64459362788104,-1.089748409988173,2.9601570240830952,-0.6672811196334605,-4.077749722619969,-3.865213828554249,-4.260978905449498,4.505783256031183,0.2319060264679058,4.415878856482479,5.769903730654558,0.4625378081207985,1.070856471652689,-0.045993692860522
14.242579188587804,-0.0831847174005993,2.6873011740528803,-2.042430281900943,-1.222121395926179,-3.1508858757471137,-3.9499297478409465,3.0807688136559293,1.279700101115172,4.848505070604085,7.921413733827081,-0.4017529391334896,2.763813961804712,0.8591599754983301
9.15763938269212,0.9989840432945348,2.514947338206902,-2.171536996263665,1.5724218562061154,-1.8468630128322352,-1.432790887925993,1.5021706020727508,0.6298547094173856,3.0387449914559594,6.287664081785042,-1.0496594003684174,2.082510442895244,0.8526861109925467
1.565131206406999,3.9118956050211535,2.954061353164544,-1.4787263078451025,6.11881917983671,0.6860627444706546,1.9831384433578936,-4.393021968041005,-1.143276922505574,-3.6930600693814135,-2.6502754014235226,-1.4321672705231352,-0.7477674178138414,1.30459192643087
-3.1642279327518867,3.145409856656687,4.367671953015735,-0.6799257964102843,7.535999945762674,1.0870278628683194,5.438399441102421,-3.525327407211733,-1.2549997725995958,-3.654705319791465,-3.9924441078644586,-0.9492867735744656,-1.1569906086899198,1.1882352791963364
-1.9998865945494175,0.4101000016496222,6.727301905369732,-0.3458443854820112,6.353051058003607,0.5546280609413107,8.398016148524832,1.0932142056624186,-0.9647483050350428,-0.1128190179716813,-2.9122769781634026,0.6770865942596016,-1.125080432514426,0.2837537468262174
3.817024492998483,-1.1121627463910173,9.342794628865088,-0.7490335628957858,4.511302705452427,0.0743300740670442,10.120778859598772,2.07387387172414,-0.5632542319104831,0.4134735733544025,-2.661385421341219,1.119608669984797,-0.9510660147761424,0.4423710696547996
9.884564428330007,-4.410455678223823,11.000306131104535,-1.8237147044701687,0.1738072450323185,-2.0620174820436272,9.7052113729839,5.067770630894987,0.8429410574391367,2.798772100115713,1.3008321814514394,1.3322684133634786,0.5799083981792286,1.2214293730887114
11.961787277280736,-4.091907893541359,10.666551623907097,-3.089446735022783,-0.5107307423462148,-2.453929644460845,6.972858567006353,3.1705386827607485,0.9212694880708312,1.6049126826219966,1.5192704814722686,0.9861168596443626,0.4330634705164045,-0.7531984728838339
8.961890278620064,-1.0063955513744098,8.347482265869898,-3.69434710540649,0.902897066281002,-1.658921995052615,3.2920780770324374,-3.5620166624564304,0.0524017354577924,-3.8238828654555967,-0.6031174114935015,-0.5977728265513523,-0.7599068292341071,-4.356343547057079
3.416389189938976,0.3231642509728598,5.36161198562727,-2.8335548402808106,2.525286815683658,-1.4721504313256524,1.1527071464414576,-6.103915514996971,0.8319934768083452,-3.2528346058950754,-0.6257576014190621,-1.1886403910376109,-0.2468264653567126,-5.56220671123516
-0.6886994902513965,3.144812276754923,3.60394629787826,-0.4353015083067157,6.233907365657279,-0.506907189107222,2.3949308605269453,-9.383401424193051,2.034721304889771,-0.7158679439607604,-1.415873609524332,-1.604253009862609,0.520192933791965,-6.894486228743856
-0.7892202741915852,3.799177075987038,4.187759481353539,2.465191609624531,6.783262855133881,-0.0050910595194418,6.514753028516166,-7.673787267660757,2.632047505033144,1.241589688345026,-0.6011600971204334,-1.5017733468809351,1.859781570509236,-3.1820550480455125
2.8425653693368247,2.2342018893485625,6.5036838551535645,4.200051986259393,5.823775678611677,-0.1034709949995671,10.777610823484768,0.7386498623498817,3.72733769370188,6.080212960720461,1.9373159018077597,-0.4076820947559519,4.4248379557544455,6.350213811108048
7.831909776435621,1.5197395310906592,8.561497810590975,3.624173492181189,4.755100519811229,0.0764277975872093,12.357691971333647,4.741559967367275,1.919164584850572,5.128492894587137,2.5222510447792965,0.4397290842670547,3.5054641244424505,7.875068350835383
11.546109884096126,-0.3735326919126418,8.465373231826415,1.0386774780396326,2.3370773422029685,0.3884196023407001,10.683876995487012,9.382303722064275,-2.3877797370154785,0.2280209177704454,3.131937208550611,1.721150478396072,0.6350914275006823,7.015984777968074
12.513337231640223,-2.15666330243221,5.846150743023982,-1.9845816944726196,1.1886548729101645,0.1336215516150011,7.727338927838539,8.586705853615213,-4.218813242474254,-2.1649048033526954,1.259286585841361,1.7956186474602918,-2.4146846696415163,3.6265976750789113
10.702493978596854,-3.7844325441381534,2.0361557196199462,-3.809085995202397,0.1192043459933741,-0.6913021229195184,5.825543982375557,0.4007958563854645,-6.184652203685291,-6.492999701138429,-3.5740064832344203,0.823799237546537,-7.931717253424907,-7.338266056409001
7.033428362442518,-4.14666816417163,-1.1206796566856072,-3.9378787659051246,-1.1326115331564448,-1.6228413827721735,5.133200268414976,-1.650113640016062,-5.217507821661557,-6.360266717487127,-4.295091592092384,0.0822987773464868,-7.895062512086209,-6.490955386425496
2.8136372186770746,-3.2752532875715263,-2.695319121901811,-3.172303822436577,-2.6544403050666965,-3.1493746455121125,3.356384925854699,-3.765142892755288,-0.5009445875543478,-1.9794812946429297,-4.04437803543266,-1.4953923522850563,-4.168903631582962,0.6238794690815679
-0.6392913971086571,-1.5026849056819642,-3.067454903394664,-2.6757734192874625,-3.879528965403252,-3.812545361819505,-1.7265654141751865,-2.8833269030586224,0.86626691146587,-0.2718475235544917,-1.9254699557855093,-1.810319443761564,-1.332332507156865,3.7167582846503615
-2.3800180812094425,1.7827184902542588,-3.1178192401531835,-2.90368245976556,-3.9827258995511112,-3.495090748699399,-9.337929200061108,3.048471271422654,2.053124083817022,3.095907798955346,4.100246987353536,-1.2981704935603215,5.083525176062725,11.584980021014486
-2.3156361966128927,3.0011594027904165,-3.234414524945378,-3.376549230829858,-4.277166413520547,-2.944974957991573,-15.442658901357476,2.130749138802672,2.297275427560785,3.8423121536012905,4.368057491871668,-1.0597894911375747,5.58029884619585,8.614764609099117
-1.441458462698769,3.535142039800345,-3.1787206022560888,-3.3458096223357225,-3.661158650928825,-1.9009899279183664,-15.857073148544876,-0.3312661797596121,-0.2061132174088024,1.400848226488688,2.166057130479423,0.0038154615375823,1.514965250319608,-3.62214002582048
-1.3752663202155322,3.113484694335093,-2.7826528465006453,-2.551670470653699,-3.411826361923178,-1.5843152861034209,-10.13104895714094,-1.6609495740030975,0.4236662947943167,1.0660171469021154,1.066363430055261,0.6897830412200011,1.0156475793376225,-7.596818670340966
-3.248387738396028,0.6994755827522308,-2.505698483588193,-1.345682964341668,-4.31094384203187,-1.650644137723669,-2.593906400533686,-5.482069330712857,2.2031236279462703,-0.1799920328311879,-2.800206163186096,1.2327254783946475,-1.414572635935019,-12.999415817243529
-6.716726154955635,-0.1570229970798125,-3.1128668934498624,-0.2340329997999761,-4.529692389586841,-1.9754049063349144,0.6870953814929984,-3.3551389161591265,2.4021004064470546,-0.6882087598271114,-2.9112450245065498,1.81423026400077,-0.1285298974827419,-11.91584877503932
-9.979874004205438,-0.9757207747599848,-4.804695351003858,0.5487530387499857,-4.940106702634394,-2.5017995553155528,-3.356139216341968,2.9236135010360527,3.275376855784973,0.200979459983536,-0.2150705561522603,2.1048600754787685,5.563745592303566,-1.8452916811986508
-10.973708132571891,-1.2284750458472806,-6.791732720637773,1.049055188118354,-4.545370058419693,-2.013432170089281,-12.331506477022854,4.227278997905675,2.2390170771742137,0.1918117435687112,-0.5648756741915065,1.3052399666936758,5.297103342302995,0.9196072219328189
-8.908110684920084,0.0859932711579667,-7.841720236818268,1.3768678700120338,-2.6692837607074917,-1.322553069951022,-20.2428742874017,6.309175728097745,-0.6776674800991788,0.4031638246884012,-0.3562789585590984,-0.4402345845376328,3.4478232571094805,3.892687611852109
-4.967981944043409,0.4108064559139597,-7.295007659750546,1.6316427710360029,-0.4358468166642926,-0.1436015655979366,-22.01438666266992,4.030913087378913,-1.6159801548196775,0.2701645795807637,-0.0139361741456527,-1.7164746207948691,0.5374345431344636,5.368310423809584
-1.6317853146148966,0.7216593716356922,-5.582069497943627,1.9841361782064613,2.521364589424268,1.617269664236489,-16.90398111347069,-4.5474952414455725,-2.425145401703057,-0.3025924803255927,-1.0662752979041183,-3.483833187386596,-6.4649896585748055,1.7662920179869757
-1.12080638540119,0.6657192492107872,-3.807784892319616,2.614781501121704,3.550273413852932,2.196580822593231,-8.259876146952502,-6.358062640209735,-2.812133673576223,-0.8305476263387968,0.1548318475896992,-3.088800670070161,-7.644959641937795,2.293996574313053
-4.0543616871025225,-0.3400005927076894,-2.8532953431943757,3.4238244122931296,3.009541273979941,2.5254718429324376,-0.3800876269836606,-7.277684717890397,-1.9159545157237825,-1.750984353646898,2.6528290590318617,-0.7567388255215565,-5.765199400231214,3.354614566068345
-9.095059384397768,-0.9794095642500232,-2.7970204200904405,3.882094457122576,1.451793753385104,2.556757592546377,4.483309066285726,-5.511920672121032,-1.2742628431020675,-0.8919259643896811,2.810884597479441,0.9429384870421018,-3.255308052514298,3.4614581720635336
-13.65984394164909,-1.8016418398003853,-3.051890957006651,3.393163024521159,-1.614892059609584,1.9887772054782191,6.610807874547085,2.518279706524919,-0.2108227301156618,1.1929612365409294,2.4782181587129,3.784762302291983,3.546162867153844,4.939987844110728
-15.252861089288276,-1.616256832067977,-2.9719211591242494,1.944771844176976,-2.240131502623945,2.326288852880596,7.126833510986941,4.354192479089607,1.4573925141750617,2.593937459907541,2.278655790258722,4.552787554093907,6.190687540759243,4.70627510029179
-12.806991343414577,-0.3449631480008696,-2.3790403034686345,0.3231434012711842,-2.264387667455801,2.8347037561006774,6.418653650772191,4.530623106910222,3.5567979233016342,4.899289677565319,1.0724018562971105,3.6797360789357,7.393441772428829,3.2683125284332504
-7.388260052300817,0.6554241351478649,-1.6348676620450746,-0.5305850861895012,-1.948344439346069,3.452479591104193,4.345890355432745,2.503758666074514,3.7107619610356553,3.55105734747297,0.0652832931080188,1.5881569635873038,5.991869308314747,0.8917938303709736
-1.7235212850635508,2.2337718898510954,-1.2674162193569196,-0.5087750040844723,-0.1037061918001094,4.255763261388832,1.643671833449467,-5.075858633204756,2.6339610582709394,-0.9497908032866784,-0.8682937545811312,-3.0828200115452087,-0.5063888017945991,-2.939045347152709
1.4481275776519391,1.82126541361156,-1.474162494801606,-0.6189258742862416,-0.9366713618696572,4.030102495785813,0.4713148309485371,-4.966379203783753,0.4726332551472745,-3.0352888177220807,-2.786677045202937,-5.0328907980718816,-3.724642172498848,-6.492987916211192
1.2654614029821245,-0.2447049607145866,-1.906930521695004,-2.0832687340916705,-2.2682274088312075,3.2966764943829405,2.956454310918618,-1.83920389353254,-3.948048000753,-6.094660518110419,-5.559945605374317,-6.394286261746485,-7.52512379650303,-10.783127087067047
-0.5943127533359327,-2.171685009853083,-1.9449445021885892,-5.009600852563989,-3.3221355577246943,1.8843593584873244,8.859054832679753,3.569894987386748,-5.296801853672473,-5.607011167642177,-5.039009512982394,-4.078290926847159,-7.804821191087205,-10.06677050107408
-1.2546834475515585,-5.495461986026262,-1.266303370458635,-7.977684758445198,-6.41186641759348,0.0760617852329702,14.74319285220684,16.021677117051887,-5.254779091655331,-0.9742894194178724,-2.3557942796808997,3.183110065663383,-3.166760943377535,-5.281316409745336
0.9362841732477588,-6.137883874580413,-0.2067699015948849,-9.11463403381049,-5.996593159828646,-0.2393202569630834,15.929572571578843,15.660227342501177,-3.973527512437018,-0.2307227922056993,-0.7856252962401398,5.070148736961432,-1.5011103138772712,-0.9758241646655142
4.959911263998001,-4.923275063220597,0.5030159404038725,-7.7625873086999855,-3.334404343848145,0.1048587003804281,10.001079778231924,8.968283307852507,0.4855822561454472,0.4708024190478838,2.193450366605376,6.46860538770693,1.1790875564190355,7.927346706508018
8.017678723410379,-3.090200776031257,0.469656335417385,-5.153752324989878,-0.8023549809055937,1.5775739487811498,-0.9302823348610828,1.255890343626389,2.6684432233458,1.1112446107044087,2.3892851520837244,4.307600571120101,2.792269832931223,9.3299239811172
8.008131488813527,1.235977151707897,0.1382789588298338,-3.3724613543971187,4.645154303039911,3.584809606213746,-11.16910671694111,-16.58601428191415,4.460925192276433,-0.6309705405811331,-0.2241277482160221,-4.412991388724529,2.0436482340942725,4.378671624685326
5.327946718818112,4.711481276300128,0.4486671271194078,-3.5349861571341634,6.412588992615452,3.902589841694812,-15.059213522566536,-18.710170227265728,5.155498366355593,1.3619943918456696,1.0399064034489869,-5.07262387697585,3.3940652619468925,3.603216043755149
2.364539427211943,8.293679875083496,1.8214860673215163,-4.922832084500204,5.156462959358864,4.195054853647765,-10.66390864755482,-11.503387715436975,3.4755347739554585,5.612067469613095,3.2295516757818734,-3.1684277123624733,5.036173921431804,-0.4868810311684883
1.2457059493188891,11.48333109616183,3.4386428013246872,-5.912429760617902,4.005854170233856,3.327315030721212,-0.8846097121714163,-7.945399635396962,1.8178899255300467,5.125185182385301,4.042437728074843,-1.587734089706838,4.063891541371936,-1.248194115701403
2.0140026795496877,13.72151713601479,3.68856770300545,-5.774066200918548,0.4190797513214891,2.081956747808474,8.631545770380466,4.279601900680433,-1.1864190757683977,3.344604285873457,6.031874697616076,5.059022319903675,2.006658411598757,2.666394842348679
2.8717331495474827,11.237029949171534,1.5888493513441224,-5.514628730592229,-1.063758329794106,2.1645660320544797,13.142865424518687,6.1275410815196,-3.003565861672974,0.257207829418088,3.723169927711956,4.635958569021645,-0.5912362693642532,0.0505149161015064
2.100248913621895,3.9695127937157753,-2.076660548020665,-6.848989241742618,-1.3280928562799543,1.1676792857563971,11.468213355639008,-1.0316534343826522,-4.339890388225308,-6.794034914540478,-2.598003823951519,-0.8739060731196493,-5.1647143019272,-6.068866472703706
-0.2578289644686649,-3.5671600334233418,-5.111734584080661,-10.258396667582282,-2.276073480030753,0.8742614050611349,6.078084461599535,1.6139919865736083,-3.328474578556156,-6.729004610388323,-4.384295706564606,-1.0894006294225456,-5.404256216376902,-5.418452394925679
-2.47595413253478,-14.626897207631943,-5.646409720710153,-14.076688758313724,-2.572132908967667,0.9046512274876988,0.9555466480842728,4.320895361239767,0.731542627220281,-2.416906375676602,-5.526425989149571,-1.7147610660996946,-2.6805271501132517,-2.4730130527364547
-2.741040517346048,-17.30451787945334,-3.762719396733712,-15.619178571235256,-3.258752351742006,-0.4171649187134606,-1.0827299693429926,5.137609211042989,2.4046820141718626,-0.0922795616919798,-4.850352777954703,-1.5082802183942363,-0.7590708461161222,0.7474825379415433
-0.6690485187584478,-13.422456778453332,-1.4540532883092872,-13.403603012536898,-3.5929183705061702,-0.7169880813441207,0.1144649773836197,9.817709642206806,4.477765728755287,5.690462082167146,0.0153192554019194,2.427526105734166,3.6529688258317057,9.623032796042995
2.601144683629455,-9.37055344094782,-0.8354680401636636,-8.42900128267526,-3.1863147655080946,-1.2350342830183956,2.424386981342856,5.036043331446722,3.46237109773129,5.953412547974335,1.2641254519626892,0.53098843148192,4.51763387451889,6.635954447826999
5.606444893194375,1.2113149059193056,-2.189461395046912,-3.3449865221876007,-2.657573538031764,-2.7696254975092485,3.2228631988353715,-7.752155767135624,-1.5303511025451506,1.524435200677281,1.582559370848718,-5.0313936980727485,2.713166329054767,-5.456629904332809
7.751780845654871,5.139479054511828,-3.65455736303598,-0.3040218256857572,-2.018619220580356,-2.706220149468784,1.2706939309144607,-8.71784580942222,-2.7753669174237445,0.7288746109962152,2.183757182199225,-4.849224155558283,1.6033567230899737,-7.341011171605469
9.418504345600098,5.904551446318595,-2.870232531260378,0.5572270977986795,-1.1848453546517173,-2.440782459354987,-2.5414359503038746,-6.558075988772976,-4.122544187505154,-1.8560174635350928,0.4067056413836921,-3.932703406142788,-1.9787448631836015,-9.126648504665852
11.157913428960066,6.901722233356962,0.9160147779351542,0.7694068676910719,-0.4843808061691956,-2.545817326132739,-6.073087648929191,-2.621086842359817,-2.9874378325630677,-2.1055217766805576,-0.0506195969915736,-1.0328633185094485,-2.8020577781897584,-4.488052321330684
13.031283852728707,2.522886755953424,6.16545384979802,1.8617724242029428,0.5379866129160359,-1.209110498403395,-7.735951592105263,9.978352121761905,2.370564861768906,1.107230714275833,0.0569181573556511,6.695600369424638,-1.7229490768523084,10.593947985675552
14.784142071896696,1.944206831757632,10.321198037278869,4.03609775889033,1.855558138090196,-0.6383915805920604,-7.705882130392289,9.272268849433368,3.071847575715018,0.043742442504023,-0.4508319111490448,7.17666368069094,-1.3416036927325026,10.89351174889112
16.423102808719637,2.163216324171197,11.820451204653596,6.313996985958831,2.778645539603604,-0.8254989414667715,-7.421524756405251,0.7593304908439966,2.813430466907605,-1.799729587984838,-0.379297341908455,3.8615870238639656,0.9504794256352032,4.800714570461343
18.27068641058247,0.6749475917215509,11.12600541741062,7.777220620008817,3.9304259939953647,0.0390882086427629,-7.7808188413089745,-2.3178170952118293,0.7560252910361018,-3.7318545594123393,-0.6935074869107984,2.2237461755105103,0.0508156676430768,0.8142843833278419
20.321555549719957,0.7710164647534852,10.10552803405728,8.537890909917028,5.57003839136354,0.5192579361929843,-7.837222847359099,-10.087247015115851,-5.539676014002178,-8.109924710096871,-1.278458924290211,-2.757448728067877,-3.2036104350189585,-10.59803069661326
21.78776978710189,-0.6349615885755542,10.518803037094472,9.484735361419482,6.199546369447522,0.3716710493566752,-5.533669024598362,-8.887209802824069,-6.755014062014924,-7.5958534684877375,-1.682037554012468,-3.472619656345215,-3.756896495560185,-9.873935713674694
21.678207227527015,-2.8894663221791137,12.86871857894694,11.130061931182375,6.459476143949541,0.632665239769338,-0.0461377963881384,1.4190663919418085,-5.605316032366129,-3.379459713462542,-1.174697790867655,0.1329157609808789,-4.399167814419657,-0.4720172182482347
19.978591283622755,-2.9464342969520168,16.250733605964783,12.763631407888402,6.825690495763159,0.0888239203812523,6.536315839919115,3.6077761290468575,-3.3464856382396397,0.1606993359947817,-0.764893030720879,-0.1367653508307967,-1.9750588942123055,2.5863458111693816
17.992601700741705,-2.32934438717159,18.97874696326736,12.818561779797696,6.022489292424862,-1.1288946123205,10.165274442408736,6.277214313766565,2.7703886798899524,6.129199585708312,-0.9708574912459856,-0.6330653848098109,4.107493856652125,9.434695711295978
17.093151998060186,-1.4639891996662429,19.45813612109892,10.20501449178872,5.686836383598859,-1.0652274125940904,7.962593638962659,5.721033214390733,5.640437208036301,8.739586742761867,0.6929327815360269,-0.5970747576503244,5.580697958891783,8.286094555148157
16.99300170523027,0.587482625402941,16.960726275299965,5.443008163641094,5.887507165527223,-0.9743472044914864,0.8255390008101868,-1.6690576451011565,7.1798080559455215,8.390453333735934,2.916172406968859,-2.5773974922851624,5.646772855448907,-1.0750837701727305
15.550689141380625,2.4803240638426702,12.085306436753084,0.5508307910026851,5.113105362088329,-0.8058282959266686,-6.9330466902374575,-2.337705142115618,8.270354984001727,8.147628201780373,4.379351520187059,-1.3694962283378995,5.069447073818585,-3.626071124160196
10.766778892486592,4.57595318838793,6.621156060190373,-2.2966979268159973,4.438875297544338,0.2530518928414716,-10.717279801687678,-1.3534579655747658,6.939616069156287,5.456914486407061,6.777487659479628,2.3626672581330608,1.0984447287253252,-7.798071668533526
3.218416650144232,5.124489225775564,2.6554763349718806,-2.265344677803803,4.065898093654456,0.056498942492898,-8.88651117953566,-1.4187458121758598,5.122200103969492,3.1821525090709595,5.459393229425775,2.214798785269421,0.9231685970730328,-5.613559620654085
-3.647290703237172,3.5497825326133263,1.3056861747391642,-0.3041879603147404,3.219072126838592,-0.471540112051251,-3.478592488739045,1.1066138040419844,1.4494196596255589,0.2415150211929935,0.1181394753161032,0.0697381634043252,2.5567857193464265,4.391802477793906
-6.053007622596244,0.5065450585330268,1.9738085887227743,1.7662533140192045,2.768020008803877,-0.7363512583717161,1.828965920970603,0.2193003916698958,-2.812479722074174,-3.0159544894932395,-2.8143658452018685,-1.214513648080615,0.5206691477189571,6.811320873236383
-3.127729756950175,-4.617399013702264,2.814252748011345,2.6837229537405296,2.476600197706488,-2.050907950337643,4.456321788722828,-2.536444048314916,-7.748962590661074,-5.728734479456586,-6.1631998156259,-3.668481378761096,-1.7012429092308938,9.443844258858135
2.1545199649696998,-6.513791670926954,2.154529790006229,2.500481236885845,2.310895993539226,-2.025860133657707,4.143438386711605,-2.0556863217812182,-9.616131479053662,-7.875360760362971,-7.037903727729648,-2.7107978256043195,-4.534240728957775,5.588319473666818
5.257413486352255,-6.453075335603095,-0.2547659955451822,2.177339105405631,2.7300858023585417,-1.1734400840848542,2.2394620875190654,-0.968466307814694,-8.774691506349773,-8.869727133547256,-3.960619723118602,1.9515899819766476,-9.592123528709578,-7.358502932971191
3.53864504492417,-4.297477609289178,-3.186933432183642,2.573929141769724,3.4534300660280506,-0.7430702862140861,0.3479791572549437,1.5508228384876268,-5.846817392117016,-7.792735072904937,-2.4595994715226115,3.1987804122330727,-8.23863936873671,-11.204834910091876
-2.1312462774741747,1.6693581122313086,-5.088433959004474,3.795710823082316,4.868127255339683,1.0305422847061467,-0.3697351791319418,6.659901162264996,1.0448909722541808,-4.689732882579796,-0.1624837697340138,3.989866369826462,-2.569245247867205,-14.06773375511911
-8.727035145048474,3.706269526455028,-5.433395506835194,5.330224093730672,4.618158017923452,1.3003892587324213,0.7905268871223248,6.78946244839189,4.361538708882817,-1.1562308683393625,1.6060046913281951,3.200455070364633,0.635476874435817,-11.10184807583452
-13.808008733543629,5.199078061707312,-5.176622370276664,6.592296627665904,2.9600498614871773,0.0719119380838585,3.9088632614732415,4.627638103982222,6.886933014601829,4.156622265694931,2.7012679270887445,-0.1873829831934043,6.334924104952644,1.7527127626025856
-17.085069764150717,4.304123848074025,-5.996848150690545,7.24245874268185,0.8899527300298482,-0.6360774636585304,7.859385139944948,1.2482350430406934,6.686736871893911,6.484223513995604,2.82386357507265,-1.631269252618801,6.7525258584556775,6.675442592427832
-19.76224004329543,-1.352303662630483,-8.96377572680447,7.098965083561915,-2.660189637629104,-2.6145801977596057,10.215473298473109,-6.539878379125182,1.6800262702572122,6.747868220391415,1.0766978859517449,-3.463850525874216,1.995786899180365,11.249599171575388
-22.81020238428912,-2.401237170495865,-13.628944276001974,6.003476809548754,-4.701971614007045,-3.4289757598758284,8.599371357911515,-8.111167913815507,-0.537161627259356,5.857935384414854,0.5309130865853937,-3.715472752582426,0.9169916991700218,11.608020849748884
-26.050727342281597,-2.961268090815167,-18.185544049162097,3.980781237563134,-5.694243425656353,-2.699527182251152,2.90530243870002,-6.675977246010144,-3.6420430399879073,1.5112852220723134,-0.6776463158573653,-2.335092316630111,-1.6822374198652634,3.998154560783616
-28.716660586104133,-1.600810031626927,-20.61231987938402,1.5316841656999554,-6.920527080411846,-2.351233971583357,-3.7295757469561135,-4.541034740823376,-4.384770068676573,0.077126260049617,0.3148134407845437,-0.3201936968380534,-1.407817549343055,1.351936208769697
-30.53291650816374,4.305177956437539,-20.069518726983404,-0.4239951693289363,-7.662941342667434,-1.347890589153781,-6.8451736436402,2.6554552238264937,-1.6663018882685716,-0.4824810880831733,4.026650019510995,3.993696649927055,2.66165877548511,-2.284140850705094
-32.03012931623328,4.769802786791942,-17.583765983720056,-1.1278559848272431,-8.564888355796153,-1.2045612413055329,-4.459510800407457,4.613341992758371,-0.8109217781085707,-0.629698867366135,3.794791843725773,5.045750228432777,2.92026656731585,-3.9684120548335655
-33.87577910978649,2.885859979913381,-15.43258290076255,-0.6296949503383766,-9.073964288309725,-1.9527313817511656,0.6145675230652032,4.381480355905496,1.3821824463885355,1.7280013766757034,2.2590921974731413,4.103301608231216,2.8382411579235995,-1.7063669222897635
-36.113508189560335,0.790937109176691,-15.521498451965469,0.1718991190069005,-9.254105088967451,-2.8362523146220897,2.6126249187261186,4.239475282911155,1.5883044146722145,0.9202380384009664,-0.3012764119788398,1.849028272271598,1.00092824564702,-2.1334177598667816
-38.1448514653531,-4.725250077706937,-17.89817803868183,0.2584676484308645,-9.143509420499264,-4.273503948265081,-2.184700424175574,0.3178070145601048,-0.607176555704759,-1.2363935813360358,-6.066439645245527,-3.778400248018168,-4.016681996855128,-1.808950335352157
-39.32513357780989,-5.280290647993991,-20.624391517676003,-0.6104742036337463,-8.269874831361136,-4.133850547807607,-11.641183008496842,-0.8092600841800073,-0.0815048124585975,-2.603514001284612,-6.085763212483257,-4.89927144102154,-4.882643992331507,-1.359876005408941
-39.40465176013453,-2.630376804957109,-21.245027757800003,-1.6674139464807136,-7.614883711649197,-3.486096008425706,-18.931787681990382,-1.003679095051474,0.4962600621316666,-5.387253336821136,-2.591728765301203,-3.6750084364267206,-4.275135018783671,-1.764779882662212
-38.40200195173412,-1.48177540403664,-18.73478537667261,-1.84296681517554,-6.592629335935791,-2.391952331982076,-18.097721737144987,-2.176154516224741,1.7223674529346902,-5.153792005469456,-0.870828086549926,-2.401792750384774,-2.44140903370843,-0.7361811718514543
-36.26327086166098,1.8963310264441533,-14.283250196475224,-0.8138253148671357,-4.064496124368509,0.372641341792113,-9.19734361785015,-2.148370522172981,5.019168674198367,-2.595695876500378,3.419135610628348,2.040916628642069,2.994697221576192,0.8445067708002872
-32.8354589960711,1.4249542256045993,-10.208407042483651,0.5633418006657709,-3.437461084032678,0.5801998776432074,1.6137275799624478,-2.1215977230623237,3.6241982742763,-1.2637694767615144,2.833432315398253,2.2083845487232425,3.349711498851289,1.119534892103872
-28.13546075137332,-1.85977433512555,-7.933524693137412,0.9087303872207402,-3.3701376760046604,0.1736543439262546,7.203492905361178,-2.563754531705256,-0.6678505537530938,1.4193263356408805,-1.859456795467545,0.0973673989338949,1.4150444446404318,1.1823525546791167
-22.446318431831624,-2.007792826715218,-6.816010826717347,-0.3869029642780015,-2.515523608241612,0.2547272068117117,5.216792783291496,-0.3860133896192591,-3.038238931235539,2.218962152229833,-2.1418951903983627,0.0990976697185404,0.3569764375175958,0.3028982656350519
-16.04427084253559,-3.0207016198344183,-4.844194050020979,-2.302498963783658,-4.280732900171446,-2.432612105194188,-0.5457256435766376,4.12496159861927,-7.079837242351494,1.0333656122844124,-2.875795068990247,-1.488861634513318,-3.703574652206351,-2.128834679525523
-8.962706463423515,-0.3847836169354131,-0.5283965791740635,-2.6193764924002725,-3.06195888219226,-2.0142400624907024,-4.006697766934827,4.764118138669784,-5.633199953473642,2.0525472339189736,-0.8518914023848945,-0.2683868534470796,-2.3320105530285566,-1.9741456397871928
-1.243618911855197,6.229382884771179,5.708331342679422,0.4517492669199292,0.3801035590734226,0.0440073526780843,-2.1563211154307957,4.574493522952968,0.9621161769811664,2.9564876096765538,5.332514417855622,3.5990835396235714,2.9469752236130984,-0.861033812314484
6.533557391386812,6.875981904943456,11.78456484017922,6.5748594553909125,2.1094623077060697,0.3167288321428914,2.8761645002428944,1.3122343697035694,3.277645330135287,4.011182926663785,5.920540843111739,2.7960307531336466,3.4019479897016467,0.8060429045456958
13.176931021432864,6.134698448881379,15.506335172528534,12.938665169690378,7.490899548339025,4.065223397367292,6.437794620077792,-7.124673630052419,6.5335842684651855,6.437093167689628,4.867988886664266,0.7084496454217477,4.197232205593866,4.812136112087252
17.600400524159653,3.177949007646005,16.046521296715078,15.822298217354124,8.817229008590312,4.906085016506707,5.845199279837798,-8.07177388272233,5.077398501202776,4.586713828799686,2.7659127886543717,-1.260409106061574,2.146140185761242,4.717382242495392
19.7240860403517,-4.500163682625409,14.284177193096331,13.148838996206722,5.58648369086859,2.467198098062351,2.636910486459524,-5.604445026172965,-2.392938599633752,-0.1245941235529125,-3.265793289496248,-5.439308329910411,-3.964542055926922,3.48352254516173
20.572643953050964,-5.868771998134911,12.00578146573736,6.109507101413646,4.222800649705392,2.666260847572678,0.8626455618439399,-2.209861785993916,-3.874937220371011,-2.9592865539970137,-4.481246991055893,-4.276176781077695,-3.8505308869768378,0.8177862494712161
21.34869844503435,-4.9963489153310965,10.746640773451364,-1.5520741571738963,-1.6998440637605083,-0.4826844065656751,3.265754068662731,6.801248432979911,-4.870541067078329,-7.274608960020883,-3.722892897143746,0.3389671954900455,-1.785156971081567,-6.422968371049462
22.375723903306508,-3.77276810761685,11.014960934233509,-6.19427745841702,-3.745594145194433,-1.5957907358819696,8.803689328940292,8.228138020558083,-3.3714716573372594,-6.72988317768388,-2.9537551180474293,2.4097419133188485,-0.6899159139775906,-6.548360041503022
23.007513836421257,1.421079467140484,12.159675644287526,-6.802591416585471,-0.2772992035749199,1.8201288415840997,13.496054593974565,5.231635728001694,3.6025572100089245,-1.3875359538555183,0.9589790274709435,5.975339133476153,3.022080901541603,-3.696566655445847
22.593802696862667,2.898476047843775,12.802746592115136,-5.342487191827567,0.9955959532333216,2.740177988361879,13.68724433230864,3.603813289385766,4.498928121531831,-0.010882035405745,1.6794458231200284,5.318197683464075,2.725084581674014,0.0751845322872361
21.443796032628114,2.991236186981352,11.657693342810706,-4.733860306249252,5.447176304173311,5.701360599473095,8.95884166991782,-2.1390038767076667,3.448835359406358,2.089998161749042,0.8760994958136021,0.4132654984053436,-0.3912834644128964,9.848211787615012
20.707883342484617,3.1740093826625277,8.412450632285916,-6.299866458572122,7.769044071924287,8.324301279929525,2.42871155969911,-3.4042851338196143,2.7663126314376663,2.166558513738279,1.1222734542632329,-1.123499133743887,-0.8864734098467025,10.418257811184027
21.253887655365386,0.2015209859466542,4.1250573982402505,-8.926593462543114,5.716008703552641,7.0934057314795895,-1.6472804177390257,-1.9155666000425104,-1.6255399545838345,-1.672929773822256,-0.5459611022123159,-4.4661010120700535,-3.8826764940622662,4.443156665100046
22.713402628951144,-0.7915998541425368,0.6641766231231356,-10.51180122637915,5.13530024269605,7.27040569653494,-1.0240707178495108,-1.9858431956218607,-2.004870867992759,-0.5361061752562155,-0.3642896516152439,-4.0046501866403625,-3.4157359779480405,1.502958346004279
23.72109704248201,-0.808183281682906,-0.6172901803878799,-10.159651400884524,3.789857871040821,7.68729180955089,2.9886252768641017,0.2511110997202681,0.0450186401853403,2.4044047064524894,1.50769003507869,1.5215299008411434,1.5491560267384652,-5.069239095808989
23.13498603552875,-1.7097736660194738,0.0062053317305752,-8.99771768754789,2.1482354877904086,5.914925778882215,6.6057242432787575,0.2622397774737185,-0.976790602926465,2.3890831841232982,0.7181301801158341,1.7330032468398149,2.3097798337214157,-7.3026853815424095
21.035131987832067,-1.2801239501340809,0.7843362382471645,-8.935580471271072,1.9347332004105984,4.637571288028973,6.34150745782858,-1.091694683703292,-1.4759635124748176,3.1739354520448275,-0.3806982999304265,2.054356873306235,4.0908203643686205,-4.276778021523476
18.59256506916464,-2.054185141088905,-0.0222515909645594,-10.6791909800861,1.431405184428742,2.9678063143119084,1.440572320341479,-1.3029497096760858,-2.9612505386737284,0.1432262587230542,-1.7953163030025876,-0.1983050110100555,2.274855553085164,-6.78680785627393
17.100388579631986,-4.01974053613967,-2.4959463354485942,-12.939200789757738,-0.4134970179104075,-1.3351383303462012,-5.667898657939222,-2.5733063705911863,-6.598208735481703,-7.254685942148182,-5.0311361844178135,-7.790666697477813,-4.992648630612833,-10.507793317729282
17.21418953937128,-3.962882382300256,-4.737794041267378,-13.53112349676154,-0.4117186275956928,-2.9596192305966333,-11.049918011130018,-1.526243632300974,-5.456313515002229,-8.099377003046445,-4.774167730430047,-7.665022906820736,-6.190801789035792,-8.772735366206957
18.97310438934048,-3.0323237546119626,-4.28594858323336,-11.2601323125937,1.1645570837386494,-2.6771018625079903,-11.825806414628785,1.6534837416577743,-1.251504840047391,-6.712013646886429,-2.118214859372972,-3.756743282979669,-4.345033461456612,-5.471125743812791
22.14274295135992,-1.3243243343805675,-0.1691970593520158,-6.847283747145334,2.2402088475421738,-3.4158187563630813,-7.922052043056496,2.360469688446211,1.3802048197816412,-3.3932833499096557,-0.3657066298269625,-0.3198973520695601,-2.0037232341422557,1.346369383077514
26.14649152609301,1.985528533692123,6.1193142624327095,-2.1749265581142216,5.320434036603158,-2.159361988135465,-2.0053767154584268,2.9516997267694385,5.701080836640951,5.499096524795435,2.942913619851851,7.47881115564248,3.649164718552321,14.007463051774398
29.67094152439864,4.321181850951782,11.56083932191446,1.2858764814367305,6.3378401918337,-1.628890280267301,2.2149954105561926,1.2360600450739052,6.4349421539168326,8.344496252246126,4.244277760548402,8.471924996289228,5.070636353769372,15.612740112430394
30.84408043522787,6.294894432094514,13.716441239369624,3.376047874539592,4.529914126821373,-2.5553056759264927,2.204837654469699,-3.946412179989383,3.46754836419112,8.734337926549491,3.552759528402272,4.364464503471208,2.9564449414866223,10.698827499457002
28.465718152113723,7.368339243477417,12.344502009769014,4.798069620787068,3.0665369636572946,-2.1463092575339373,-1.947267140392002,-3.74871545700648,3.3103051959604923,8.341455171291415,4.300526983451068,3.375235582397381,3.360386519643764,6.576287024390547
23.371206181043,7.2428177636304065,9.34431567175926,5.98314919436052,0.3199334354921229,-1.608795623197636,-7.604646715626859,-1.4126888533735706,2.5848277977560583,3.3195833917220243,4.591807434437179,0.0500379099852832,3.2209149666495933,-4.355239836234585
18.30090752643969,4.946375624108028,7.188865223806614,6.506051609301766,-1.9221713671746208,-1.9459083946742348,-11.069224409338473,1.4898006706454958,1.9999119860384995,0.8030249044476226,4.13105535871566,-0.2913436443774346,3.813527787909232,-7.064809341703684
15.790522207276696,-0.0492914539270042,7.104010386105747,5.59194094176487,-3.2974031850925085,-2.278980770701267,-9.660806048883368,8.398504012287598,2.8996866786314537,-1.4670193848554602,3.715360218177379,2.665368705400093,5.564509767362607,-4.017007930464603
15.709981907821524,-4.013574760463596,8.315012230321972,3.101584465431884,-5.015398013663559,-3.0447616052779467,-3.3115173721621054,6.964080419130542,0.2722733679251709,-3.921183692212903,0.544154599124253,0.7878405128801459,2.339498277297228,-4.524363091049732
14.913005313933953,-8.759039356321443,8.806553245561933,-0.0719694899520799,-7.097493039939257,-4.3424118514798575,5.159913732216364,0.4080057015303937,-4.380021033711628,-4.879815237987924,-4.938777607931207,-2.086267958589053,-3.474713714767221,-1.804080891439187
9.808223254823336,-9.47086273402101,6.961846260469243,-2.602355510993551,-8.263022815774395,-4.07929941066744,11.333976672613758,-3.745118209166274,-6.317293192599225,-5.419078622570895,-7.876308806830995,-4.30915605109028,-7.675033660555955,-0.7816898367216963
-0.1419368290172444,-6.122092338630404,2.886334291621364,-3.705752468904132,-7.954398368428236,-2.6470169321834964,11.542770747013686,-11.984748358813103,-8.265243719594965,-4.881124898969177,-10.694560421675076,-8.466953902245942,-13.287053965709672,-1.7072698981408934
-11.201224520607663,-3.0776951263476366,-1.526275909137357,-3.546852481706326,-7.14242938915242,-0.3783288679435791,5.148116833306292,-9.110233701680462,-5.865050581329299,-3.14208556364338,-7.940980354053167,-6.642814112603508,-10.13999811184848,0.752339728356531
-17.85733511876763,2.9325855115509865,-3.8705554719833657,-2.7940173474269203,-5.630216461809995,2.4662413190943604,-4.630995431305343,2.726073178613712,1.3543443752873845,0.0321312450258317,0.6110077333223187,-0.4189616496083941,0.1846290938755389,4.090204263474118
-17.173064541457812,5.217060383967906,-2.992952521876465,-1.921906610287249,-4.162374528518392,3.68850643901201,-12.187623085615533,8.201458502897077,4.207281253390358,1.882684728803962,5.278938265902447,2.546633882938572,5.138721045852535,4.80321053147262
-11.312933144641942,4.766458548448592,0.0248580395514554,-1.01207474626898,-3.091523104432357,4.269626853182095,-12.812553450768172,17.51080100269819,7.03323574648155,3.1328380149736854,11.187602123346371,6.916222407038192,11.904168442176733,3.685904246768157
-5.981804787559025,3.735732727694514,2.4750192199979995,-0.1186489191618642,-2.235527159266121,3.5189237084704152,-5.865192791541486,13.570695725308513,5.795513492274028,3.038872699352842,9.553589454248623,6.07870377507248,9.906640192523607,1.272516915413524
-5.97305809508998,-0.7289006124837542,1.9128038488370656,0.4185542557346662,-0.3834037746564059,2.364522907249731,4.485481748974503,-3.5993394830041368,-1.264966575236261,0.9341932711091936,-0.0607693358835869,-0.2993126920498423,-1.6075116432416892,-3.0387064519377462
-11.489514429742892,-2.298724730277898,-2.011973601538648,0.2275288536720525,1.051364361487493,2.8008233239755715,11.859299842192364,-9.718209229874422,-2.6749658527591134,0.2779666867336877,-3.635112911087192,-1.7111986756598654,-3.941823821421013,-4.774358591082448
-18.232292756482224,-2.9091572032736805,-7.199581647352461,-0.5110530478605737,1.350473614229185,2.432735051578367,12.018519354701729,-18.164567980372464,-3.428652751863048,-0.4004023575857908,-8.734764577038593,-3.4661008357264143,-6.094490728372627,-4.806385916508956
-21.06329761782903,-1.9844014879213216,-10.583237513010616,-0.8887818293645111,2.530325541854049,3.114430225706778,5.7761514160458685,-15.601466358898929,-2.6920671630414588,-0.4730732585044033,-7.672594092737847,-2.694121528403596,-4.766217906033388,-3.684848773923133
-18.113065812363548,2.2181006826165595,-10.366489909341984,0.1035861444374326,2.993306022659499,4.26426229459246,-1.8736231794287592,1.5862470390369907,2.6831722077899345,0.8211856541072041,1.455053898576106,2.7353752870588317,4.427578439971133,-0.0710652867393221
-11.993692617970806,3.448414232499155,-7.286646636050935,2.6045830650920347,2.3801446434268723,2.4852980260681625,-5.7704132235294825,4.852198561494802,1.8954197909608936,0.159354143502529,2.721282730037036,2.4309137657236835,4.346026239506032,1.2943744066415703
-7.344034837527818,4.517373148183782,-3.917852305930336,5.474011810459842,2.0911168081451783,0.8907731506892604,-4.476493607404423,6.835416015285395,-1.7234074423475878,-0.9114050221990914,3.771360953956445,0.6549083830707325,1.684202402267505,3.847896619917833
-6.985513263053209,2.997012297846478,-2.593742135326175,6.929248012915755,0.4656195760054962,-1.844952710628522,-0.8432570204683785,6.695727198221363,-2.3397311808267047,-1.5098039757191788,3.0061070929081914,-0.5520371203836428,0.9533742371121732,3.3731996602015943
-9.920808930640222,-2.4847649895793964,-3.617296939484056,5.805245568777341,-2.1309230022833123,-6.949693787140825,1.0573694565336935,-3.070246933896655,-4.57126532063104,-3.106219294476525,-3.755359134047466,-4.945125823672735,-4.173721645912227,-1.8573592301510036
-12.62194398671538,-4.237317162448548,-5.1509014853038,2.4776766773149204,-2.2195109928763355,-7.733366441036437,-0.2270776261728304,-1.604905400948084,-2.1382764504021647,-1.9079974422795012,-3.0653377762723366,-3.658867380936863,-3.6554172089157375,-1.6379607601330997
-12.228724297249444,-5.756263863364685,-4.799973053994737,-1.262318724947617,-1.2696997288893632,-7.112620262056849,-2.375028804180221,4.923532760338432,5.138785410275299,1.2222939030530688,0.4917785895389105,1.2505131281422108,0.5125485193231509,-1.1774109517462046
-8.844011056697804,-4.728849094316401,-1.5774733616715473,-3.312490446851959,0.7820771390797355,-6.158814204920843,-1.7423044541060548,3.9704856374015183,5.882284217253507,2.6927960146853067,1.5254686508453617,2.8319776780723958,0.1850550655841067,-0.3182084505927257
-5.134952175026477,0.6080339181748758,3.287707703304216,-2.584251170681484,4.115235635220194,-1.799556213974269,2.964967883190832,4.066852953740734,5.110315907587871,4.964269667324887,5.301330231606629,5.91271020491768,0.3986225685857953,4.813074718219122
-3.848823129451959,2.644702041972488,7.257815913350008,0.3422248109627719,4.60257476041082,-1.0627071704044515,9.206186057143384,0.4290813649993366,2.5087149957134462,4.185522026907712,4.404057689042781,4.6030511464342885,0.3271335210284253,3.209853715084275
-5.511129516237528,4.961703697370854,8.327754451793982,3.655381716248751,4.197467490465426,-1.855545443916259,12.606408398495558,-8.630353323032134,-4.733555072361516,0.6708850663937951,-0.007114890362913,-0.9469891021074148,-1.6147899196689686,-2.647733012874078
-8.198136104182216,4.907554418191585,6.37250321509329,5.524606333476452,2.501231881523942,-1.5009528832878694,10.563861365377049,-8.192865871054233,-5.940481082210221,-1.5363575201609063,-1.7695476887959731,-2.85188599371952,-0.7820232701933326,-3.652152657874356
-9.366044268118118,1.015948614023285,3.050147604307745,5.25508489991036,-0.4572685922404759,-3.4112344346482844,4.299251981782572,-3.788866031548946,-5.012592631088081,-5.3714167761571225,-5.126452265452251,-5.792148121741086,1.3992075872331722,-5.270124444282405
-8.013582686154114,-1.0769826244809435,0.4681222057798249,3.626459480515919,0.3455025253074019,-2.5767059512447497,-2.2139928693648403,-0.4836785478590233,-3.2174246474831625,-5.344801379748299,-5.136921823050296,-5.110384023905033,1.3071002800487133,-3.13607713832263
-5.365440097980103,-4.445519693493544,-0.2791946689559683,2.25995749459878,1.6280170334424389,0.0948645622896751,-5.239493942967385,7.17380567405238,2.6591263314200377,-2.1443689873984835,-2.037401597526991,-0.2221077931123599,0.7940340760690818,4.673071097007948
-3.7055552872870168,-4.575719249934057,0.3756764776781174,2.517615645046697,4.40440558263554,1.815733879334953,-3.659618563354039,8.660274694746732,5.30958296205951,0.8080355731301094,0.7749402421704851,2.42439641633602,1.3472813445854526,6.7749735702257246
-4.565909687853506,-1.469292329141591,1.1323381074239922,4.661825995428019,9.792714706761505,5.742438709424089,0.7701526318179439,6.202661081733132,7.320845947345768,6.757388252780691,6.34978216394488,6.6797895938344025,1.5955414187832857,7.403032684958159
-7.792627574629739,1.0564787265385769,0.946626715769992,7.707280115669634,9.287205594323948,6.001355989412822,4.861415938760248,3.794556020835664,7.505419341925485,7.776084135566344,7.086112866080705,6.907477023645129,2.20136893028486,7.031266147931558
-11.972034244441964,5.741324066586171,-0.3301316492351596,9.945259039597037,6.944985256426319,2.914741052953038,5.760532277390672,-4.159475316157101,3.5135134218626582,4.736900879131256,3.617272936808369,1.875208871445688,2.90526756606313,1.7612272683374333
-15.480106326889254,5.5989994935913145,-2.172529913971324,9.85693579196536,3.5435023741265117,-0.2635448064313465,2.2055928289816014,-6.741611889731089,0.0199226340404616,1.9067520010465733,0.6178345303804952,-0.8444440096873916,0.9966412048437968,-1.0488704030417295
-17.19454785744272,2.155912945425256,-4.038100048027406,7.042850504073681,-4.283778914311363,-6.84923628129067,-4.7775990436504765,-6.062290368094586,-4.867803116160351,-4.139506372106081,-5.384422198095749,-4.641174101606691,-2.331362345670324,-3.247215804903561
-16.648873523293574,-0.7201737206970517,-5.739306037604569,2.70468951061876,-6.043449549648378,-8.434182763461136,-11.857395172847694,-4.857153141211985,-7.953173692656817,-6.912907506530483,-6.816670623683328,-5.985333818135283,-4.057990077977169,-6.83470541236354
-14.0541656325635,-6.707614895681631,-7.243038846825254,-0.7877848283586066,-4.993619072910532,-5.974329291902603,-14.64919015242052,1.885238398073348,-9.026548894568409,-7.319027879466068,-4.342400415359759,-3.522998115499701,-5.623655454599926,-9.461856031070704
-10.411941980804563,-6.849517980191831,-8.282782045364488,-1.300504189240646,-4.30374501558587,-3.1767281062233126,-10.382618266378104,3.176428693963263,-7.644671479704796,-6.990428553504841,-3.173136550839206,-2.5259170589562383,-4.691280723674529,-10.315709486093706
-7.336357269076339,-2.8921909082275024,-8.373876599053403,1.4427014465050854,-0.1189201889966923,3.36021802172088,-0.5347945882110379,1.4636114394923938,-2.760649665700734,-3.756397743007078,0.1978938628053596,-0.6355369845517943,-1.0966565718456835,-10.153779680770567
-6.216484290194155,-1.0204789770105531,-7.3467702040561615,5.2955447631494215,0.2646536494684924,4.434730442326104,9.0504942969095,1.9866869003657133,0.2251185973476466,-1.66409547474449,1.57957043294493,0.7148598929577628,0.0622065538717298,-6.355149144306966
-7.159141018545501,3.846322768919608,-5.844583041863235,6.93382444143318,-1.3365439149737368,2.192634464040598,11.67278598424816,0.5875878544473034,3.884362094731531,0.978615707329174,1.4430737015335842,1.8732258922797225,1.4277911871283224,1.8468480807693768
-8.752889432819263,4.344274844176056,-5.109632931280537,4.22922165384446,-2.2450528170571533,-0.2099410435069342,4.795013288757287,0.9268020438143172,4.583327456577945,2.53027240880225,1.90839912660068,2.2370283510040148,1.661302651619534,5.975411641644109
-9.128585084603596,0.7805104248202974,-6.031429435257876,-2.047265515154677,-4.464003381194798,-6.157561203621258,-7.604000667996853,3.0916067036007338,1.6271773884758651,2.2674648988255663,1.1428896223288754,0.7891097102280946,-0.5739798222678598,9.35764584409321
-7.485147459439903,0.8466646239802335,-8.248121188800656,-8.636165970918249,-4.853244862956816,-7.52793821500861,-17.810178550724714,0.4041259022451433,2.074877470613208,3.935883181613208,0.8255377271355147,0.800730786332724,0.8774786186794543,9.898519686142558
-4.659708695722006,0.0690823866749028,-10.222201761090464,-12.078494550873236,-4.731936442425609,-6.897203165697177,-20.27429737611808,-5.275371441219248,2.3301010516096667,5.557450076504182,0.2617850028189093,0.285297456686633,3.641808841474241,4.945128882819819
-2.2266138542814096,0.0269903725756651,-10.391102980854924,-11.104253127271384,-4.447872481128426,-6.907491954318251,-15.56054075021943,-6.165673045336591,3.2679246869147818,6.537741092658072,0.784540805585504,0.6481178346543652,4.963846115004478,5.328579411247036
-1.08239287040234,2.2591689264475154,-8.446887490606343,-7.310241160945614,-3.4482007747018195,-4.276909142381416,-8.911558236621905,-6.183138694261198,6.700195024356444,8.211330917804602,2.6732346673791705,2.948068653302701,7.643620002699127,7.010911754275235
-0.906856515036102,1.3013894979149063,-5.584991022699404,-3.7622830722690095,-3.802577953429192,-3.803306824148043,-5.0480539278579695,-1.990205008500044,5.400182077369021,6.078283710148987,3.228104697881851,2.688228248411479,5.961980534482333,7.103665033484854
-0.8485809799556634,-1.268910735359659,-3.473908434822743,-2.7471334553109035,-3.870805341577272,-4.168534765178137,-4.33647129081621,9.632816289424037,2.3797274170150584,1.505973447653164,4.889442313589277,1.834739894434508,1.1226047975512543,10.052324311253145
-0.4921068706480392,-1.625800368267779,-2.897085595256356,-4.362624546748094,-4.070008290709205,-2.9496216397244024,-3.834449223849077,9.68734596263316,-0.7835628692555295,-2.333386290748632,2.711215584333571,0.3982535352979167,-1.8320229700119168,4.285102805444256
-0.0516604855344224,-1.964170152485768,-3.299247155778412,-6.805763661957235,-5.271273062871908,-2.33148074824154,-1.5765733277537946,3.838954129910841,-7.367975143704242,-8.394033244383293,-3.681093303897632,-3.1684784563988044,-6.741331366048109,-8.379925610708904
0.2124550134536118,-1.5351065417596192,-3.5452987134141307,-7.937932956229567,-4.899645311560835,-1.2435111493550368,0.8491190274697176,0.0277062042463118,-8.722636327940839,-10.088127929113176,-5.794356378599638,-4.346282626408828,-7.886544007864713,-14.393172286101596
0.4590456232473361,0.7862563826206784,-3.024471522575437,-6.901981755858726,-4.102600583840263,1.1010878546975131,0.3568543733689795,-10.76432757228508,-7.317299400125399,-8.628592390492432,-8.170581728123997,-4.669465706556393,-5.743332963724165,-21.549419610695463
0.9962056316552116,0.8606934382783679,-2.0058660891368136,-4.645801273185803,-3.62210060241376,3.101142730246286,-3.256314755518968,-8.409480877058318,-5.072285523547386,-6.63180647567788,-6.463307306073986,-3.33989635380302,-4.83510798808002,-18.66172168127422
1.6873594667986138,-0.1987234289621867,-1.051259694622594,-3.012159852000341,-2.0685596443984315,4.705552986818347,-5.726094574306792,4.150444314589046,1.703144671479011,-0.7311651897161258,1.1979298189311485,0.8476947721769086,-1.6570208219245623,-4.217083554601701
1.928528418371996,0.3162791960737607,-0.2894535550802364,-3.100681549268163,-0.263194110125744,7.355212699225208,-1.909699962227367,6.976857888882732,4.462208835733127,2.2006708462473004,3.377301007739105,2.758791084487079,-0.1223590072461772,3.187980243366326
1.4269655680186513,0.6705138116074186,0.6106476967812631,-4.218260117573303,1.4139824605609823,9.663256906023108,8.639649727560926,10.74286088969249,4.972639531364181,3.3853312158484625,3.9915867644615872,4.021976518203815,-0.7605871054212892,12.788158786174565
0.9500201844059212,0.8743580748949422,1.824831556737455,-4.365928597231311,4.23161630652337,11.127704473038763,19.845077909175203,7.256745893863413,4.803540793078254,4.389578842146324,3.8809471217268494,3.10455076913856,1.1012441490091531,15.64013237843327
2.017053953227821,1.7253610657842908,2.9342237387951142,-1.9719446210017144,8.159014835110712,14.623249411079591,23.46291126951438,-6.085776748561575,1.5419857302080826,3.1611654204653794,0.3572106018733316,-0.7314816165873965,3.636235886495632,9.867824029011407
5.528016615400204,0.5243997147189119,3.26200234993453,2.5740328650756994,9.153345003076302,14.962499635626612,16.07430929022328,-8.665186819648365,-0.4801237680568581,2.678928670371196,-0.5335318577945619,-1.9881580000013608,4.682747443049744,5.633675579036979
10.563441100391143,-2.3762006035374896,2.673287514228208,6.995148363521061,8.809156078610869,12.139821005782958,2.410412897555028,-8.347425456797863,-2.537118632584556,2.188376627565072,-0.2233888836993604,-2.9371277409388457,6.315414561396645,-3.694768263309055
14.710173756469857,-2.8341996930557194,1.9502694858567904,8.85605263305987,7.880284678601818,10.298798383817388,-8.09687767009883,-7.138509135236154,-3.086039856255013,1.3850260452001515,-0.6981629512644225,-1.8322964169759712,4.777712720317455,-8.537911158555364
15.937227480962973,-2.678732958251264,2.2468452463510338,7.478383538886971,3.945884391440667,4.600190449557254,-8.608986258983668,0.6011219901684723,-1.881310149510492,0.6560070828659419,-0.5379841391862789,2.3076230601065824,-0.1907203359949353,-10.622299218279494
14.44387341994558,-1.8828769636768896,4.059661358255277,4.369154126502636,3.135476084403673,1.6770343508860392,0.1399790440334172,2.485225588586454,-0.9541235386678668,-0.2167067457520309,-0.2280920705543682,3.0577851585416997,-2.199211115710045,-9.458841351513364
12.66207308475471,1.2729849482030622,6.663117648551,1.840280945966402,4.207455484088936,3.13757871170458,11.029217953009695,2.8186841921530466,1.928080899909028,-0.549521547958979,0.729096547802962,3.5029478786124915,-3.573111203828051,-1.2819856940755736
13.181542135633851,1.6165679782905318,8.559946518297167,1.1273722065169096,4.132891024180395,2.8025938805386743,16.389643069502014,3.995199604107431,1.9609199661844328,-1.3011362592217166,0.6772790690721517,2.1330172790342985,-3.910996789205389,2.504034846825648
16.39956008299449,0.319161771834261,8.607710641079105,1.6742947907227697,5.9000296629260855,4.264384967318811,13.454808472999687,1.912884700617025,-0.3999076371494231,-2.5470321057463243,-0.1634438721448407,-2.866638947005047,-1.950178925767362,6.45878952705505
20.12780403934131,0.8228984876557626,6.911327741434256,2.058574096125219,6.276170663770194,4.774970925733435,5.380977853992359,1.4089536192837606,-0.0771129283149529,-2.2562237687064464,-0.6100532133272751,-3.8278230260337778,-1.0206411220560945,8.373023072849225
21.59435300809251,0.6198924359975713,4.780547132827023,1.5087884181669449,4.988942332229016,2.278752718704716,-2.176913158286115,0.579325315105911,-0.3204963120362463,-1.4547129871958064,-2.07617732944206,-3.87794005972657,-0.1590745199836363,5.671414808113068
19.92030569343869,1.3182076899128303,3.7988677986882977,0.5491670517383507,4.725991233768365,0.3930246939711536,-5.5744779694342,-0.4099671692700598,0.4825941463546987,-0.3652830581020966,-1.4695431736419189,-2.6160417688525444,1.3754814467062613,4.845477609621721
16.64929837647753,3.574673090838138,4.717806948665881,0.2754921015391374,4.245910926363783,-1.1190291149923373,-5.185651492412161,-0.2934202478797837,3.745915711188685,2.1218338044646567,1.092023323543818,2.2918359043807484,3.1849776050794643,2.979192474633123
13.88032166701381,2.668124178931348,6.978085718922156,1.0873361419292955,2.911700510796371,-2.8236373054299704,-3.848512095375965,-1.2741422921305534,2.320916462870237,2.0476851120601443,0.9448557492737898,3.6581501593555465,3.248992527240249,0.72131115910178
12.016436420207144,-0.1899317860109876,9.152857874235137,2.141370171956595,1.7202798572731732,-4.006945272090084,-3.621159515203409,-2.6120151416968973,-1.93668551168568,0.2218802110156661,0.4205690313295866,4.0277559583663045,1.910814785948371,-1.1489756463852128
9.506244095173647,-1.6685110746235663,9.918679950203678,2.0381810531919373,0.1639840805749416,-4.188334396981374,-3.843756661107431,-2.849325887151935,-2.982247226109875,-0.6267133108395778,-0.7079831755287718,2.988023181174026,-0.0304336513216197,-1.9272283808177504
4.822242588717081,-3.8684502951752457,8.821112484913296,0.0997627356152159,-2.6654298735703037,-5.183417043020784,-2.172611056285666,-2.97995308052994,-4.486583509157192,-2.5385123168642427,-4.119908032841855,-1.4101426685814735,-3.715251772780801,-1.377441992027623
-1.4329898058130657,-3.838314159193075,6.347967907747472,-2.920220081871575,-3.763201573197541,-6.024367580752189,2.4175276063995703,-0.1719058289676934,-2.8186234966042,-1.92042713382542,-2.3444365974190444,-2.868777407217652,-4.283398719802717,-2.684749552769498
-6.508559979313299,-1.2382648207570457,3.41531711018996,-5.32631473121059,-3.682077344504239,-5.341442109338702,7.567611013602336,5.852452507086014,3.2819481724494475,1.0867147552258507,2.6425089475864314,-3.820560287109184,-2.829989919746412,-4.229327705004876
-7.62267082114064,0.2973729608788126,0.7876973104738627,-5.760927584911153,-3.9267803657040994,-5.678032490204743,8.763221231650448,7.01406774968893,4.0640542955642704,2.282583710267845,5.256074952438754,-2.908565793551681,-0.7403082532324193,-6.159192778467081
-4.183214173672411,2.62380405398568,-1.1366924025729026,-4.211400411788624,-2.6399499569694878,-5.506897917196919,3.339705722030669,6.617620698647227,3.20106444885512,4.015190540047621,9.667288678708193,1.3323357822167614,4.044377573685025,-9.811054074163806
1.8347644973626989,3.75586493629644,-2.185657745933717,-1.947662226288964,-2.903485517278972,-4.745271431692515,-6.179956191937029,3.4292028374622934,2.073167085843699,3.241081350296493,7.680407386659236,2.249988673791979,4.601509395111666,-7.700429394311524
7.391732210786994,3.39542281900605,-2.249999554981896,-0.5031663531366721,-4.579129441171834,-5.42890820933874,-12.972551784663043,-5.30383290503593,-2.69058988956675,-0.5950281206848833,-0.6918946338213514,2.2967400625398,2.411897416801178,-2.612704391821689
10.208498779957257,2.1753064779919424,-1.344302416941492,-0.5666236136154676,-5.734819108430495,-5.6291328955505655,-11.151960661577233,-6.23251558941933,-3.2652510448189096,-2.094007867138203,-3.868680801526908,1.6516574741924552,0.4083220554774941,1.977868419684516
9.54124676601072,-0.7657054307642177,0.2084883299790667,-1.6423330964573104,-8.093537672837448,-5.378555209079989,-1.2009338117443384,-3.705524639736852,-1.563748867224839,-3.778250593026796,-7.740953596763441,-1.531326813720178,-4.361704666880684,10.500050009081226
5.890499985371726,-2.725883110233714,1.7717320163881407,-2.634666724425035,-7.899788698609608,-4.9531605712728055,9.52585613842488,-2.6508415974597543,-1.1030404302960994,-3.546726217751133,-7.90960770718484,-1.6060528059717285,-4.493356262540966,11.907800209354717
0.5033653022843558,-4.759023951239622,2.711564424988615,-2.776434563806159,-5.619014745217875,-3.5486135653803808,12.428639435306954,2.533733367031953,1.2625742043300727,-0.401870043670292,-2.014326467362265,-0.144044751638486,-1.314365830866698,8.748032459131164
-4.828285220940952,-4.842246995442757,2.829529069853404,-2.1399739905267863,-2.964614581045187,-1.2817891208425325,4.955840808344093,1.5534750338888557,1.6433177674183934,0.7037156510946593,-1.6751856444302158,-0.2360846284528717,0.1437876636934609,5.529999393143052
-7.990805755423603,-2.658034660743714,2.5340616528947937,-1.407287328552591,2.205663514289873,1.4789229926314964,-6.921155913552095,-4.091464218066076,0.4940799794715318,1.9980456124185964,-2.2368496613572635,0.449849162612622,3.6309475153606754,-3.1471360467055494
-7.268582083367578,-1.067106826488578,2.5594414130390017,-1.1855149893669523,3.749000530729471,2.574520104512008,-13.54086654433404,-3.884681944023973,0.1831610086748634,2.2050417618241798,-1.1934954748709248,-0.3504557353953723,3.586190058741792,-6.373659652462801
-2.3793072434785785,2.329426873615023,3.424558807896574,-1.458604050353339,2.9708140921113992,3.068968293149041,-9.576568085013047,-3.695254014440288,-0.8102509210553757,0.6933589171897949,-1.9082424232488864,-2.594120224496346,0.8024576591233106,-5.606369820901563
4.99527787755042,3.454409563886221,5.049819922671048,-1.6058838672743283,2.263910813004808,2.845293196448869,1.8280046227198727,-1.8504391517049803,-1.0734759759340105,-0.0583811164965823,0.3006002192469356,-2.0748793995190025,0.0408364240422213,-5.261829204448481
11.833455612114554,2.4186282748399948,6.821110167414743,-0.9664950366296016,-1.4616126727537189,1.0162676017439916,12.266800779882162,4.280915057562063,-0.8522603286031187,-1.5699201859890004,4.807110824297225,-0.7170853973474648,-2.126909677380102,-1.536438784074514
15.320012756531712,2.0746851987712223,8.014455775963922,0.5011619307511922,-2.1156705936175317,0.9927350329683692,15.318775914477296,5.157376526643195,-0.3724169952872863,-1.764580052708029,5.289234464523278,0.8116778781480245,-2.42699504439355,0.2055432424821851
14.299346798918206,-0.1187913244792428,8.209265313571557,2.0349748941850976,-1.161435229995072,1.1226619619131402,11.145897946132614,3.813376067170714,0.841189483205606,-0.8908340769317302,4.162660569516783,3.848046438021096,-0.9478613151492808,0.5577965175811791
9.654892071158583,-0.4445260283375791,7.377899384352938,2.595645559435316,-1.5248951556577954,0.4715219329387043,4.828258162655038,3.701616120639753,0.9404261552026124,-0.1755554106043049,3.4451796423309595,3.888350208299961,-0.7689702050752756,2.0230128111734875
3.466801209387012,0.7894005433480783,5.685814548165861,1.7319834276537167,0.1983245652642811,1.016782380244937,0.9730887539041628,1.4394587669119818,0.6562761103784902,1.711204939301714,0.8644322796277062,2.1841413373225764,0.1603096731370273,3.0392226001956426
-2.2829255208879307,0.5999179509536292,3.3163484874643507,0.0265322452802567,0.0824921305058682,0.3816638044655617,0.1762649374567964,-0.7293987315762115,0.1815019097110368,1.892677536022096,-0.1237743702204481,0.6579651870226289,1.112581992146172,3.343633461111343
-6.478751807213082,0.5900830405903726,0.554585183844404,-1.359835135836362,-1.479039543714491,-0.8924761890728992,0.1928864400104233,-2.551486492705382,-1.212041174986309,1.168994134511513,0.3131028642282075,-2.7515559470756483,1.8384552069012523,2.899402050906673
-8.791958873264443,-0.2036388797329622,-2.010138099946688,-1.7106671554239412,-1.4630288995384289,-1.0709081097206488,-0.465510682500874,-4.722014919658369,-1.08140986405594,0.5311841084234801,-1.1930856472840694,-3.473425844365345,2.185002829790681,0.4334660650741211
-9.28392430110447,-2.0193436540328107,-3.554042237021216,-1.3996928899084322,-3.041078600336085,-2.399847856327453,-0.8642939991790921,-7.307717407133333,-0.0696265192148688,-1.435219505069148,-3.245802302305113,-2.50356525124887,2.00649398725713,-3.929086371985664
-8.368685944647838,-2.0018100503773573,-3.5364786709798794,-1.4958274488861276,-3.709287664478168,-3.062226956651451,0.5275323136254089,-4.672363116367038,0.1913206166691722,-1.717041279771104,-3.385155371380029,-1.537260074383766,0.6249397522630669,-4.869988890800218
-7.093507458154956,-0.9608417357898348,-2.31127503606551,-2.6613226187353565,-2.3684816101682307,-2.2956339836128428,3.133911293122478,1.989321192811708,0.8963071826965591,-1.1116591117316663,-2.953922262218573,1.4650349591359362,-2.2290252131863952,-4.298358591727734
-6.992577987355878,0.1387533042596146,-1.1826682786561844,-4.41707287082409,-2.3735057771467045,-2.4954498581456925,4.202690766608351,6.412453730260252,1.2950825187453336,-0.2543976969177836,-1.5599810473283418,2.6708389050308896,-2.8257200567848093,-0.4001559079822374
-9.069232143591218,2.282435286884885,-1.6264827745766506,-5.526201292119733,-1.4499217697691649,-1.7657533770419016,1.684225519279105,12.893865953256038,1.0830839284576406,2.029519166317856,1.7128976892158692,2.9831875852411867,-2.573994600285131,8.449732908204467
-12.62176915051142,2.820551414759391,-4.174275579242657,-5.140086081892025,-0.5353149561284665,-1.1287337714392192,-3.1696418337700583,12.039298495616665,2.1850730912964687,2.896080550777977,3.168770486125066,2.9282555328902813,-1.2499922080976438,9.602114656567505
-15.306152447564108,2.0828677970879914,-7.903214209576964,-3.587233446744793,-1.6442649107170246,-1.9963798834366309,-6.593849912161017,4.289350016317817,3.933832041154716,2.736244096214397,3.3129304063348144,0.7587308341770427,2.0333286539521565,7.328653887290754
-14.935374798122556,1.5585353173866183,-11.05441896920167,-2.054070600487324,-2.096612556905378,-2.085088694069814,-5.927217761000816,-1.2113669856732914,3.2241106732617366,2.1526755899578687,3.4829913668622288,-0.3263122624648805,3.0588385104022398,3.3729860647210264
-11.679263824335283,0.202319948733418,-12.314680859024284,-1.5026118142153853,-2.217384492636292,-2.1788144955212387,-2.3183848079517877,-10.5935534541524,1.5671891389663275,0.4924041841399555,2.9104722162337664,-1.0610770054808474,3.6368073577607385,-7.08537868452599
-8.48574760336042,-1.376627294132789,-11.673709150510104,-1.8685963282889608,-2.353548533150508,-2.3171131108032395,0.4023387337933393,-13.0063807225708,-1.768567025815118,-1.4151164214876537,0.176902355291541,-2.043790893266813,2.668841908557494,-9.070754374866372
-8.892042826095299,-3.117858208603383,-10.148958079475085,-2.22466012728575,-1.0485972644791963,-1.2129099382592403,-0.3869967050809695,-9.470707344739427,-7.94386685456283,-3.724564937980848,-4.230522916547234,-2.1392979583102,-0.5655200898649444,-6.513239514993788
-13.862377595233063,-4.475983378114148,-8.7256086324819,-1.6367758492184563,1.297243462620001,0.1540526222871562,-3.4441988916994752,-5.819379493129979,-8.835113963632072,-4.964742939389274,-6.285873251038769,-2.5108003158046075,-3.0635672919028165,-6.737230642688314
-20.448628096289,-5.713812826559287,-7.554822085454024,0.1229261414792719,3.139393918181834,1.2777856765828537,-4.9689895773175,3.6855332203453752,-7.113069630032201,-5.7528588371818055,-8.299722116778469,-3.010308519549308,-6.660856986397821,-3.2413284335908488
-23.637877627193127,-4.238620465711127,-6.1032987701325885,2.5619862095891044,4.668362457783378,2.6869297499411724,-2.483697316820122,6.950953192996942,-4.005252422409894,-4.12182542152113,-5.768955031754079,-2.3849499376474723,-7.143166405433846,-3.2400453863375107
-19.985535600206106,0.3585411843427431,-3.9425752320647063,4.99893879791278,6.515341373259474,4.17420042590566,2.707428602734668,6.749880915374065,3.785611898109389,0.4736913661493798,2.4373074141392403,-0.5694181281216382,-4.874726007312635,-6.119458782475114
-10.111716106271096,2.82967409062686,-1.2702182026550162,7.079158780122704,6.769680719061963,5.059911891263712,6.878116970392813,5.936055035217104,6.062094009371635,3.0588377474394948,5.096651277569242,0.8202743461776897,-1.4312147577454246,-1.969907420341645
1.8100050686122813,5.391169476154932,1.3313028091964174,8.871577939184046,7.491856192862276,6.57503825934858,7.442798208125598,-0.2369083507404072,5.758793976297991,5.896092788807877,6.802652932344772,2.253992882554107,5.406077752206397,4.594141844520562
10.923060220919952,5.864980879275062,3.474187773934367,10.569466707788733,7.948892136368456,6.86372773975137,4.977933622173141,-1.8215606453883328,5.691002706823178,6.108511440065434,6.567278096209103,3.4698332472523385,8.20986494643504,9.232638128754983
14.569337399057748,2.88432377481733,5.102414371612652,12.101539509906573,5.815714204177661,5.025640835822746,1.8679160494773408,-1.6723668583904443,1.944868468939572,2.7667132443750058,0.9771839251657344,3.844099609141973,9.070669762280769,16.127338220572078
13.216960639784352,1.8630938633556635,6.019983335217674,12.965379657666508,4.044877812577103,2.975326722842353,-0.5538612160632201,-2.5243780434518803,0.51909692933504,0.6955737485357579,-0.634457247638054,3.141996949351113,6.765787076900736,12.714070500633223
9.258465353374037,0.6850106377546452,5.503810204214867,12.432596795184912,1.3212871791712746,-0.2743536513400376,-3.0707172193872347,-0.9570264005671127,0.0456223195910373,-2.564239815959699,-1.2540290083722416,1.5676250228202366,-0.8584130122404261,0.7513606975626586
5.023189525977119,-1.3969196936766703,2.74270279216166,10.052513843555552,-0.836300800871813,-2.197616548841334,-6.83216772063005,-1.8933254504093968,-2.131736232218986,-4.726860389138781,-3.6003126494098634,-1.444395739236804,-4.858543785909942,-5.181329650568858
1.530086041385072,-3.4453978558872023,-2.0917322713874533,6.155716635852723,-0.6671770693960917,-2.1946854418559085,-11.050481526582605,-4.441145891488296,-3.9597704460982848,-5.365691091824469,-4.957544593696061,-6.55108150072219,-8.725897829240873,-13.806088098915012
-1.4330840406223049,-3.865692705666608,-7.258067870284776,1.957368175863296,-0.2220485807856625,-1.604058864877204,-13.015574333225048,-3.4364112415471744,-3.679715049877885,-4.54064624494471,-4.455486311864395,-7.026670001992271,-8.210335448828472,-12.615544073095457
-4.397105221268981,-3.1196616205579417,-10.252253467564625,-0.9624558784736444,0.4826345257543636,-0.7747999562848058,-10.6200510033841,-1.4512199296860837,-2.24958882929625,-1.5362122261759066,-2.859245711130668,-4.9909358094077065,-2.258750864529914,-0.6777650135320159
-7.380783869195373,-0.9786850551057852,-9.618540558058893,-1.577177662446399,0.6614648091467701,-0.3271002187997355,-4.690425856116903,2.500093253522412,-0.0204067109319486,2.131417381972684,1.0146318497085232,-0.707194160367246,1.7959735437320803,2.472503572232679
-9.726646590797118,4.059020846685695,-6.23326467791235,-0.1165685382862236,0.4550319236874109,0.7160106061310032,1.469387324171234,10.03256245645777,4.347712123676712,7.761838175786361,8.243970726936956,8.842177973708333,8.267822717078687,6.86159973561155
-10.565188172933658,3.714284670660637,-2.78479729015206,2.0125133405953077,-0.269096891327381,1.1418911735016375,4.957362696415979,9.614993818259745,4.194495197600141,8.78426128396506,8.798657642981633,10.529346571855475,9.357418839554056,7.429351369770491
-9.474030855827383,0.1250600868215672,-1.7168200248522112,3.1101133844621,-0.8711616506553066,2.1873179787728287,5.647493318575789,5.023023574152321,1.0639996025253733,6.77842828659596,5.664687171164149,8.402501908580911,5.733163939600013,0.3179482174527099
-6.896626413208226,-1.4987552026821007,-3.33084863496335,2.2674972303999783,-0.725907315498126,3.349373106646324,5.69586720759869,-1.2095938442977363,0.297307811788302,3.426894180573643,2.39964304325497,4.290431365515806,2.358766174509417,0.0480186009775273
-4.095196759121236,-5.563246218105928,-5.680930769908126,-0.1241659119689613,-1.162874315113962,2.3948245481874024,6.822450066626457,-13.513464049465515,-1.837312229362506,-5.07915101743092,-5.865867065421138,-6.743818034803613,-6.476013865520906,0.254891830219778
-2.6233343602988604,-4.067445707456181,-6.343842855326363,-2.7741928500289936,-1.1833408405114272,1.6878696363725725,8.262771258974702,-13.48123768604996,-1.4866484607099577,-7.104859103801677,-7.056899139040939,-8.975718293729521,-7.966847441369095,-2.0163815407240997
-3.508127832707835,2.473280705137581,-4.510455523227025,-4.445894551956342,-0.7720206893152626,1.3491041013301708,7.508910702575946,-6.653484697793581,1.9153944865007853,-5.486826497722532,-3.6598928730387335,-7.275569055108778,-4.16721507591624,-2.3935898609819546
-6.574826078900138,3.4959171297060685,-1.6097377595404607,-4.739770520835197,-1.153829754557578,-0.0959961122707556,3.062634037305118,-0.132922570039943,0.73684141495529,-4.495835846852888,-2.7024465336072145,-4.987580154604789,-2.4787683921156094,-3.0687989853640616
-10.44620898793167,4.341365982643651,-0.0258590895158716,-4.193031269388375,-1.2329413902771962,-0.9682105661221492,-3.612027239290593,14.561578485734197,-2.040695709622054,1.1614632270043916,1.6317034498696064,3.841584910752734,4.08237148057604,-3.982865410495848
-13.396671314562148,3.398729446161126,-1.1316551953111489,-3.7393632678022777,-1.139855428390396,-1.16629505122481,-8.960013415606552,15.276169396827244,-2.514695293896071,1.3359283555641042,1.8383793465809133,4.821900884141178,3.083763247895442,-1.6797467085655444
-14.498454448209776,-1.96965503072153,-4.331501181524521,-4.0076146529010295,-1.5257527116533025,-3.2298022204252925,-10.303043084948932,6.872291612874108,-3.904831373141041,-2.10116293904549,-1.5716834020154633,1.853593157105765,-4.094956953084117,3.315425027563804
-14.050663690964283,-2.232702573056624,-7.74336196204618,-4.958136857836728,-1.5436886122910911,-3.587011630701708,-8.166085076606807,2.7567034467861107,-2.11435376661103,-2.0746729006363798,-1.5365284730487585,0.5041895212386935,-5.631594015950914,2.005273438731786
-12.816786197775,-0.7129980885476335,-9.657587573620306,-6.029739161705863,-1.382172090811287,-1.8522503414131024,-5.825514184881529,-9.472223579473994,3.1425902794296934,-2.809057291015701,-1.9987124055385668,-5.918297550450396,-7.49742348054674,-2.078704326927903
-10.812886500419124,-1.108250845247515,-9.415049367987542,-6.59541972935608,-1.5344502974003218,-1.4242678055879927,-6.504176995667285,-10.801327773332703,3.3293668792084814,-1.3978206306176684,-1.4152674242362706,-5.428055400488954,-4.932019774955191,-3.740829402608585
-7.037574423676636,0.1760041667363333,-7.192578209138844,-6.364441045188244,-1.563668402138635,0.8672188188058778,-10.722946763363533,-2.330856605466121,1.9189242226705616,2.641303252307637,1.2891181202588462,0.325838215886156,3.031610789041149,-8.131374629113665
-0.6862018884668339,0.113393193582955,-3.358415203096193,-5.475773626530425,-1.4988274317252614,1.847497090525728,-16.032352272161088,-2.087559138262165,1.2427738245072395,3.976435617664212,2.151273699266904,2.107421714672836,6.799203308814199,-3.825834155408928
7.270790176045369,-1.2588168963560138,1.689523360912793,-4.282055873114168,-1.6380978286346202,-0.2416193314466939,-19.0983836582788,1.1041940154947485,-1.877800594496895,4.502846216730006,2.630719755425361,6.40413956684502,10.151434342314117,7.965007113894431
13.94392443750728,-0.4482140614989278,7.114298728606349,-3.046568231059481,-1.7212149773190706,-1.640579214635247,-18.12401917621623,1.6144812107484616,-1.6136544119193663,4.722625845360923,3.103435685051966,6.12652828346873,10.715044165988958,11.298190525540882
16.359054249909953,1.1241231975674346,11.428300469135928,-1.8185716110565109,-1.6320735537417388,-3.96269780035213,-13.65645458354146,-3.7142194044822334,1.180448888469626,3.585299201063056,2.76862062050708,0.6549514064653988,7.454422658660552,14.525502729359037
13.779557636417518,0.6653287750730286,13.10236840482498,-0.5806251400281339,-1.7057321540426944,-4.865565047652314,-7.611788453034064,-2.748906683108672,0.1401389491386867,1.8432265732561752,1.2780492579619012,-0.7857106271921755,3.603178238198515,11.258480614341693
8.378590818499625,-0.1494975583661518,11.637477947484484,0.4963420501011706,-1.91036998779492,-3.5278539280007544,-1.8698595147570831,0.6396754195550804,-1.418812947423112,-1.0831572150583697,-1.5255743542450575,-1.9459212134683617,-3.5996140929305787,-1.2779219348217372
3.634878011247144,-0.611170402295291,8.072775719610402,0.9845842735029589,-1.918411558576784,-1.5398922194151816,2.3724317150643928,0.7491278469691726,-1.9679647315765243,-3.190524482049462,-3.304418996605018,-2.90215715100078,-7.414716194914699,-6.795783181915637
1.9364848490630704,-2.1361932716325773,4.346710049535576,0.4623828811411488,-1.9872333444105608,1.448030869997867,4.570110094426809,1.001603976965398,-3.917761043508289,-5.168608857345172,-5.2109607404336895,-2.275980959206085,-9.52288967613884,-12.822538092884226
3.41864252474928,-1.1491200735406264,2.018206869697826,-1.0764498890625085,-2.0861343197367264,2.4926849437102683,4.8787099678114245,2.2680967231784392,-1.6153330019096348,-4.999327428687149,-3.880052848765969,-1.7489506606443328,-8.775635746022148,-13.511140785369046
6.628407851330135,1.7672480158337809,1.4275680935734432,-3.055076089797676,-1.645487033281459,2.9303276144178456,4.421922271843041,2.501330085118289,4.209452441977058,-2.194547567321581,0.8051403384961604,-1.2259636753533862,-2.63585372406318,-6.588600178158898
9.909875174426142,2.2366588459523293,1.8771248804984464,-4.620552996159152,-1.146047680361031,2.833858190544977,5.062355730053458,3.8099038110140175,5.530528929062656,-0.4378723903967785,3.4917566228347536,0.8928088443898423,0.462054170365816,-1.100396048438594
12.185124629706964,2.5335103842246247,2.4551197135653973,-5.234406538841511,-1.084116313606552,1.3550111447936055,8.226792437937789,6.816559455117633,6.318019646252449,2.149298335896511,7.135934501710596,4.860373318742813,3.890894276018413,8.932657302824774
12.940224368297262,2.3247967724075944,2.6960630750053207,-5.061740362651161,-1.0048054163050602,1.7566218125388806,13.549797378273697,5.3648263753051815,4.768858041537568,3.1929095993278134,7.283092842338257,5.226154395729467,5.014341894821244,11.750409926203638
12.119841462624656,0.3702090925583677,2.657353736203392,-4.8154991022181886,-1.3834330764104243,1.8938096486728624,18.706654931080116,0.8141406646590849,-1.26661698246672,2.2504336460668357,3.9589652019361616,3.2130472366068843,1.5661774054422115,8.32496553067189
10.301311432723704,-0.3760893436781258,2.6100037693495124,-5.1818014889138535,-2.7800249867382494,1.3174876401882305,20.866684068277927,-1.107639739074597,-3.101049529958442,1.4844540027361002,1.0705067274892386,1.1283484781135686,0.4733162176554479,5.264767530313109
8.68462782313047,-0.7439257136015159,2.757808791958345,-6.297672672028101,-3.632449965993458,2.157237225851752,18.638832980086537,-3.551761757607562,-3.851649869668603,-0.4742865813699262,-4.511899863431342,-3.273259465253397,-0.991626989433515,-3.4071576595180617
8.41308877101794,-2.193148424622474,3.1756499337289643,-7.653005591352828,-2.870045101545071,1.5898626206635518,12.931105343406104,-5.635755521304592,-4.784971134161713,-1.484152314909091,-7.098870890233106,-5.094576753458695,-1.6815535977884053,-7.173335208790294
9.648234174828923,-3.8356138709672263,3.888841127699356,-8.38205274589609,-1.6001817873886446,0.4968662068268608,6.242736257271762,-5.845711210199438,-3.2490818263030152,-1.918272624670636,-7.918668307893871,-4.87273232946519,-0.1731407926778398,-7.547745276311122
11.417127039417991,-3.5833446243647846,4.946764503706636,-7.652177314219967,1.9995087310143624,0.7686189478859233,1.239062489723768,-6.782727813480166,-2.5099859596273486,-1.3229774371905594,-6.974854591685714,-4.898516258754875,0.3543395551243452,-9.38062103342294
12.585923963249876,-2.301353462145803,6.402148531886409,-4.971965970026631,6.600870640899017,-0.5193668302734396,-0.3603190483906537,-7.884615842425869,-1.699015904914019,0.9036900709046138,-2.069661864086189,-3.4818394420612075,1.1721760173577227,-8.937132004831872
13.026481503739328,-0.426842770922882,8.173663091411107,-0.4744468110181934,7.53324015218264,-1.3002686473259355,1.6704757156115626,-4.127069867052114,0.4366374514350217,1.758873646141086,0.2928269021008459,-1.1847161708826963,1.4502454825938058,-5.025952617470323
13.689964681874145,3.491509406064724,9.880948258712412,4.820646209662511,8.09117074491241,-0.6469763500093475,5.868900008069716,3.740323219105166,3.1465472217214967,2.71897218200559,2.3542155011473853,2.386465061655487,1.446983413346231,2.314932996498473
15.438367240200796,3.7512960870487895,10.869058007170596,9.086240712114696,6.684365621079989,-1.6626537053180983,9.410690034605691,7.157034511345772,3.753914963324963,2.229395088791079,3.5895244705471216,4.1138910796748815,0.8102081535026264,7.289274552813989
17.91068692882869,1.5522876875756968,10.58794373953958,10.48579587923547,2.9867434112569877,-1.7547870439323046,9.421558253859953,10.04339389329594,3.2335073165055754,-0.3142194925185574,2.50102445941152,4.924786060896218,-1.2078626516159523,12.899206092094245
19.757160871965944,0.7817000618119607,9.145958929495588,8.48710646448053,3.281605836596392,-1.3414566937910946,4.97170292736695,8.082488895800015,1.6838033978701017,-1.4800023583950035,3.0125116899221616,3.813748119543397,-1.7003350295969617,10.202221922730086
20.08747238171403,-1.71059082721914,7.515169756765724,4.691391301704193,3.5011275011296235,-2.445208155978661,-1.7604651159921012,-0.93234334099032,-2.1467702868734726,-2.964780112203396,3.787067033296164,-0.6583258448290019,-2.0366141154288044,-1.6518294009658394
19.54542830955718,-1.1790130801527925,6.997057733768042,2.134844347078028,4.009477101980876,-2.1337206537232367,-6.633306380010769,-3.490426899870988,-2.7837558356697363,-3.3733664238788754,2.8738754249724923,-1.0232995163265168,-1.7528841396161914,-3.8835693977166006
19.68242761713197,2.20758032315847,8.209385106794269,3.168978485829461,6.583521525359531,-1.8017637597205869,-6.591252387123189,-5.082465360885124,-1.9782087695255064,-2.230975476520545,1.3600057161368195,0.1399989364818529,0.1948429759663739,-5.087455326127941
21.092346898617546,2.73805291353199,10.41458900338332,7.490590513898136,5.691168552812577,-2.3251517756855944,-2.149899979824289,-4.70838348827264,-0.4371145847282583,-0.9394812088619752,-0.1450619005880599,1.2647629968666068,0.9622808562608544,-2.466048395040679
22.222639048321223,3.5577261006912466,11.84017609683004,12.1390400010852,4.231084819552772,-1.595780768358822,3.0372086026299296,0.2517133804351839,3.802846583676772,1.4969024312653727,-2.586437308170604,5.08246750360129,1.6739788036328669,9.25971516913464
20.2959095009448,2.236921156444942,10.820269395854112,13.735362170224086,2.992801826043154,-1.4227700770943064,5.30024677254778,1.298495632005935,4.106966253569881,2.74628523930871,-2.7181144413959912,3.801974153169917,1.909015110699148,7.376838111116376
13.742110054324728,-2.1486663709108718,6.897876994506614,11.174503169872269,-0.3445656280853273,-1.4651050423498448,3.90517883121932,2.5410215375213,2.67053255769856,3.5336916077818703,-0.8671139200973038,-0.6033320713640755,1.0517993782746315,-0.7764372316408412
3.985042079128952,-3.819144720384009,1.1043272716993169,6.424361590175158,-1.4902505900170788,-1.0707381659508108,1.0855299137022405,2.340811880876191,0.1601657503636848,2.5478218560423715,-0.6912323703257754,-3.3487281570855423,0.2578688601561133,-4.009492476325749
-5.091978304890015,-5.368405663084851,-4.670206555247997,2.7401091452607407,-1.7644243334859129,-1.585557025614404,-0.6896354839024514,-0.579164363129159,-5.916500166380676,-0.8237625083420163,-0.168054615286987,-8.192746103389714,-1.198591136090496,-12.123297841588167
-9.641065665938472,-4.728522793533258,-8.681691460296635,1.9532623001215972,-2.6949507930338266,-2.155845187005426,-1.257973339970599,-0.2739086283590481,-6.234451972942279,-1.7259467429851307,0.0149258400100502,-7.88572794085573,-1.5708890556703952,-9.035394263026342
-8.328082252732486,-0.8982856887556098,-10.090958449833764,3.26221836070288,-2.393508483230834,-2.7555134999793776,-2.429422223828192,0.2518957707505435,-3.66605867621324,-2.335054125627079,-0.934176459609007,-3.303691131143221,-1.1695603409244824,4.160770167755169
-3.0243990241736487,0.7386426165937336,-9.161066166446757,4.410693720294281,-2.4709670389844334,-2.4575650300616085,-5.229432805983132,0.9627234394588484,-0.7150866793173182,-1.6344428478437818,-0.3856509549324738,-0.5662215056324573,-0.73059059586704,6.698038425725272
2.4869890433035096,2.040449747621276,-6.912604843254055,3.890350027598217,-2.616466451294354,-1.052502432292403,-7.908958580387303,4.277677536661327,6.750595631166499,1.5610507386732475,0.9282663152421178,4.56521207489727,0.4338118710039302,8.744183079702827
4.661136988151564,2.466445816035157,-4.463611513613435,2.060316250472985,-1.7540887131783354,1.011427075476856,-7.222585760447229,2.6154248830579774,6.983625002701953,1.7483227633539662,1.222971493630942,5.869478728681342,0.9453281731950764,7.045309097404054
1.9369462522159324,1.2819590946204522,-2.4221633796312325,0.400803184818848,-0.8312608683544543,4.076520706824874,-1.924993204397385,-2.6020098741642235,2.736246608223085,1.0271140547777866,1.3881494677677555,3.7196169963774,1.235985720340081,-3.097485451474266
-4.551972115169908,1.2198892764471378,-0.7163685978805585,-0.0300203684361779,0.3430790124427699,5.591037940969872,5.257495983339817,-3.46935145266904,0.6769532554553452,0.7522611630613032,1.460311395003378,3.0981661990087592,1.2633242660237325,-4.381378551604275
-11.461467256179796,1.4196288292159445,1.007076699381889,0.6416222291327811,1.963161637308657,6.333204493604448,9.67920732921066,-4.709540480120028,-5.002182985423904,-0.9132150927186398,1.0455322887259595,0.5403480594774682,0.8549790664454885,-2.5631936060234906
-14.88517819808832,0.9681621627940766,2.747164903098011,1.600537605817192,3.459125805203856,6.8998452179379015,9.170250442942836,-4.240473387392239,-5.144664707978152,-1.1995686540451589,-0.5852325331526831,-1.2602786861680748,-0.4632036357811446,-4.383198918149449
-12.664269886196848,0.4010880536609134,3.8769477694316032,2.26134800928621,5.728060026266278,6.430579024325788,6.2972423648823215,0.3774163274298808,-0.5163926057698287,-0.5943542037788849,-3.2110316376637043,-2.175294397594912,-2.926222257880937,-3.830084600830246
-6.048265788199775,-0.4386410428390599,3.561018512263723,2.604090014353865,6.347680780396302,6.51330329734053,5.806851685851907,-0.1120728071402074,-0.1707819556993768,-0.9309861037097622,-4.328027851039384,-3.062509974102056,-3.5777012568292674,-4.003388048392086
0.7673330457503482,-1.093960870255171,1.5328678328264846,2.8057951526453664,5.17661096955933,6.293268071869583,9.468546612043754,-2.8515275404942684,1.2382182134251989,-0.6896440342825014,-5.201476798231052,-2.7756634977472867,-3.5368635736952405,-5.196816808988559
3.3771761734038925,-1.3756579366607509,-1.4979425223109324,2.817740431675986,3.653266699959878,5.204510478345496,13.557887631203522,-0.6391434933431804,1.6579683157936642,0.0295162213223237,-2.088830860071238,-0.8016686165368996,-1.588429636763955,-0.2721664202808331
0.283683184726236,-1.7907546344051124,-4.245345417391979,2.393769920733776,0.331221557019582,4.057582429900666,11.973075951005358,2.240586809572588,-0.7313779618885717,0.6022459337334526,5.230348391393477,2.94491005564369,3.1415838864786507,8.687107631514769
-6.211946450544893,-1.304225705676542,-5.744435351413159,1.4037804052498148,-1.4781290503572295,2.5563511069429534,2.383504383521575,3.8600207683725296,0.0676427306890553,1.1004064848996862,6.425373371443112,3.4068490448906448,4.346785076548672,9.62634352772805
-12.19715036848388,-0.4002277886710693,-5.959784010482519,-0.0270157432654345,-1.9916308503936448,0.8623992795584927,-10.547129875476596,7.131715948224648,2.075029439984485,1.478149389778929,5.870701262962832,2.324362250266193,4.375407234249002,7.675674095452869
-15.4446453110374,-0.0177632540484978,-5.579218555674674,-1.6560476203075885,-2.95824183135839,-0.6243984496730527,-18.356336666426017,4.759099062701705,0.4459531741447534,0.2637507038365189,2.2946555180426693,-0.2306709203767473,2.97620573119937,1.6167629451923369
-16.78654473292877,0.8562007003276112,-5.228366130650189,-3.229696120751825,-3.308514776384605,-2.857865581926023,-15.805849960940964,-2.8779056167139627,-2.305591353618067,-2.2500593591346085,-7.7974979855959745,-6.376808807381293,-1.9027712925559583,-12.84642590339373
-18.4541798433847,0.4397532878564088,-4.879145000854395,-4.373991132388769,-3.375538759143277,-3.4165694536019644,-5.373325913776343,-2.406738025890577,-3.545510768580688,-2.892155994376369,-8.140492792143634,-6.11492568723414,-2.6641824672223544,-13.993366410876584
-21.301271033222054,-1.4709013359199776,-4.026357806242518,-4.549196282528428,-2.954685526876544,-2.4088756356261456,4.879184048474884,0.5820202449104075,-5.68682315440998,-3.415747982128805,-3.8144134300834103,-2.4767487095614853,-1.605303022278173,-8.789237226153736
-23.82727341446934,-1.5550016074617357,-2.445522657672078,-3.42539465867931,-1.5966360201882002,-1.0835108354620844,8.04908438883071,1.5184526020149105,-3.218396258102025,-2.0442815249586106,-1.2719786124047077,0.0921089358257133,-1.2319850465549986,-3.709566100166148
-23.87660110174725,-1.14101470086248,-0.7526013741062751,-1.4826389100312438,0.5398309390426973,2.447517749275893,3.666243773479621,6.112088634745143,3.770664003494961,2.124250361740485,6.5010608756173,6.371677956664805,1.3063535464963771,10.527307929709751
-21.05080428448492,-0.0569372216673487,-0.1397912432043693,-0.1028045499339134,1.1827741419660636,3.1293985856377526,-2.917876776039208,2.19043912250643,5.380030783510378,3.533184124904096,6.906314307072882,6.6365178124293775,1.329624352063959,12.836072942872542
-17.271955186618026,2.817322291318728,-1.452833692459146,-0.7159925260111981,0.7329436415548669,1.5689469744701376,-5.918550124448822,-8.830968500185826,6.030280630266602,4.568473450785437,1.665668467323823,2.4845261800019043,-0.5267648164886833,7.997491256538392
-15.078169276026896,4.6181901967438765,-4.444364304768136,-3.5705650326924108,-0.4297328566213441,0.2912261768094059,-4.125235255315328,-9.874231966700432,5.692631538727734,4.840813138404862,2.5182478609878114,1.9145398754890488,0.264014496765241,7.557446693060349
-15.626729098134264,6.165065585607816,-7.916228917867343,-7.327033732069857,-2.393210376219211,-3.287247435753548,-1.2714165784784015,-9.194411321243294,1.2814953462696514,2.731125175623765,2.828682681208286,-0.3335257872192765,1.4068665303228167,1.932828725691266
-18.412821156347118,6.611395451337445,-10.638556914912934,-10.05793821317765,-3.5086144359539952,-4.572046293629769,-2.0177960321879382,-5.21727733270797,1.2081458780675225,1.8628016043970843,2.6245071170004937,-0.3767602831551341,1.780223682730192,0.8681092863184574
-22.553063667049702,5.528866097359814,-12.216128653939812,-10.850526772708182,-4.776434062280961,-4.014429150477285,-7.521973423916453,6.560338275343794,2.925580004760827,1.0849950136767663,4.784842418120079,2.555037948251278,2.645400687081646,3.772697475943105
-27.760244719023504,2.3318399885767964,-13.168786524693497,-10.510343405440244,-5.983941792725731,-4.329585188871686,-14.40821287055084,8.420883708789999,1.0710513141108182,-0.8047939099768624,1.447504972754002,1.6696424545147968,1.3962825327086708,0.8286172812407858
-33.804015337643875,-3.4882967841801342,-14.272839440494074,-10.692473448592333,-7.434809848800089,-3.4558199208337745,-17.62968590215822,6.335989357991068,-0.7002859090423634,-2.965293568269916,-5.848775928170668,-0.0073706391662576,-1.7256396859169452,-2.6841653841955684
-39.37758829884195,-7.465381668532318,-15.853918575461485,-12.337830998012706,-8.878823884610405,-3.3060178982460746,-14.487818356442176,5.241523820390355,-3.755362653084535,-4.2217030040694965,-7.166423293476864,-1.7757115725374295,-2.6031968281336937,-6.2922063586566805
-42.21518610188715,-11.562763557241835,-17.614446756026403,-14.917818931040582,-9.335723364448514,-3.9859940315787816,-6.553099560968597,-1.059161706457253,-9.229957517644326,-5.222221043661882,-6.952035758924361,-5.396960933693618,-2.856396102835266,-12.240960867204944
-40.84030393832514,-11.82103577481036,-18.953211429020133,-17.048815359264694,-9.869128775389838,-3.938193609582668,1.651605884493744,-2.635459846433579,-9.60164980300678,-5.176903069063437,-6.410896521151798,-6.810329703303057,-3.525212153592184,-12.754285289317195
-36.167174075924976,-7.739234240620838,-19.328456378845157,-17.628302242237144,-10.01272708218359,-3.9731710383614702,5.751425209597247,-1.7915538540149925,-7.167078787417267,-3.5260590617993284,-2.1080732190557105,-7.220726485318944,-3.2604567012655195,-10.028097713948732
-30.957066097164237,-4.436620849092078,-18.38613264339442,-16.32900095164314,-9.176103788385053,-3.909187552259507,3.971225022680425,-3.1011586502807176,-4.716990898858392,-3.367092354747608,-2.309702730852069,-6.10103148627856,-4.044372673807925,-5.422622831303821
-27.308918212126745,1.2944960667132288,-15.96820971159216,-13.287819334119664,-8.26439157819639,-3.600426666183948,-2.4498282648071417,-2.557587033851532,0.5398985572146768,-4.333692747425888,-5.846083455217831,-2.787455847642028,-6.133279446177041,4.042692929730608
-24.61410008409548,5.535334792211097,-12.198570742955225,-8.806538235538476,-6.442768571151518,-3.32763440907177,-10.48692867065451,-2.312456539187268,3.887825309657234,-2.1261962123047837,-2.873202934382572,1.1174508887320256,-3.8660400712090257,8.361769309600719
-20.168455707043822,8.489839355966188,-7.5915743824493855,-3.619681587491854,-3.332327489665831,-2.841969303272076,-16.87464775329591,-2.653344725952816,6.552700703508041,1.723521572854657,2.349591537248443,7.141687309100042,1.1752989512967282,10.9088423359273
-12.011399581383188,9.965026155500084,-2.968304269873329,0.8049668879789706,-2.134392115443558,-2.495922447386945,-19.087621663898094,0.0099636204120302,8.441084508835909,6.008165787729174,7.026214806220471,9.517410159536013,5.6446687246763405,10.622953591501188
-1.2628618583984164,8.753934320744541,0.8530727728260032,2.855428568267268,-1.5151495562094972,-2.073561049399035,-15.873158356282971,4.352744093660987,8.513561128705673,13.095037897152343,15.343118639252175,9.760783757387712,12.778358219354924,4.205306228989471
8.347861702665476,5.298219557008414,3.361995395582529,2.1705795135661283,-0.982579645198828,-1.4192265159958863,-7.78385102496744,6.010419207629485,6.252355516198036,12.891737407317748,14.138551985492564,7.209394602689328,12.626065301788488,1.8412259673993696
13.371246155040858,-1.6254848755827265,4.455512223282589,0.4736709773022163,-2.205188278862118,-1.2199798983756367,2.467442972481109,7.573664050077227,0.9006937734654417,7.476529965698297,5.668161727934341,-0.3599734955110164,6.824440230846996,-0.2790390488172701
13.33671559078312,-5.039780550402814,4.398012422632426,0.5985506445273643,-1.1247192882588928,0.0995200432861449,10.664260464683224,4.711767577023077,-2.655902939756855,2.46124162388624,0.6356382175960127,-4.304461291773239,2.157816257855377,-3.539728631677649
11.007313956237471,-6.474664743745541,3.8079735385355455,4.165595149782732,1.1431647161457457,2.3612493618842727,13.166655031912732,-2.8012632741522667,-5.717382081784217,-6.517565476291535,-7.252794318660744,-7.292516154001517,-5.983618938737866,-3.9120834418734622
10.24834673197102,-5.939656879835672,3.6120488723884394,9.928372438237854,2.7659678116928217,4.534110466942827,9.404337015789553,-5.4980800961034015,-5.939069295107769,-9.234037019460672,-9.32986540996427,-7.242006129928436,-8.696217553127175,-5.101419615361732
13.448261244665709,-1.5003196424576282,4.716024581877811,14.46725288076086,6.087956798086866,8.063136287301738,2.7581965984380563,-8.296544706012511,-2.967196748863331,-8.153317010026003,-6.2796661340396,-2.7981864705371247,-7.836638101562087,-7.404809164654642
20.31707848362042,0.3861709223880654,7.379410456010838,14.823685087841056,7.628384031254164,9.161059570763497,-1.426770354501148,-6.327050543261321,-1.0324780634899051,-6.573483424961656,-4.865154504064945,0.467618255753271,-6.565765861881608,-3.2216626002418667
28.41681876511647,1.7579310202368987,10.770030392532645,10.858199029502874,7.299966322186346,7.810977191237124,0.3277097669133191,2.1171727001810274,2.019661499284822,-0.5091091389958364,-0.6638658671607534,5.471441991051106,-1.4477986567916346,5.113361108977816
34.6389168084984,3.012427184716071,13.291183096354588,5.354317501649234,7.606285641628191,6.11012797376235,6.846733026196306,4.261102570793744,2.652630548881787,1.6535319125770631,1.3806082326168128,6.119463513633952,1.675823123376527,7.187745066854784
36.77827963052029,2.848417952205585,13.68257654548237,1.8949737774379525,6.943102085943226,2.3967734005434687,13.008119733543095,5.858828933828745,1.3619320468773544,2.757302384851229,2.262989461787919,3.3074593447207032,5.044264978959238,8.96241213172402
34.72306321846107,2.25998749462605,12.09362167012554,2.368887932368237,5.920813612004323,0.3179460916006398,13.68986891356598,5.404386118109344,0.4743041547989774,3.0773168073499755,3.211935517085248,1.130132374814748,6.443942621600954,5.515231874757131
30.79792785995162,-0.1026894863424052,10.161071022471264,6.009900439974015,5.412168446106765,-0.3870917873223353,7.920438345609078,-0.6636293599495243,-2.885728735819982,-0.6038406162445016,1.4270042324991612,-4.56680890486929,4.4245451892490895,-6.628539935238881
28.72477584059662,-1.6730506568020571,9.879720355777888,10.35093728856689,4.210870145465997,-1.431921957075841,-0.2052236049124776,-1.337265346567536,-2.403544579762695,-0.4712269029253542,1.6874838396953478,-4.240419527134167,2.6405177413178853,-7.398537947852175
31.291055014415026,-2.9573067022450408,12.09311944481881,12.971680369543773,1.7283118891655689,-2.2113968540302578,-4.740951825730907,-0.2927504080776237,1.0286787515006048,1.1491536761727232,3.092883617626923,0.5341424033172285,-1.031169543902677,-3.4776188996582293
38.069091819447095,-2.949655216236827,15.794993104896747,12.695122433685588,1.2260251702079348,-2.80658966413256,-2.6771616683826025,-1.623933382125853,1.655620142573782,0.9924252068352598,1.0417710187228555,0.8978491965949958,-3.730192357144519,-2.4783893587937222
45.12539410281028,-0.5442782037984253,18.79314855040709,9.774527250561531,2.120449606332188,-2.740201333922688,3.658329727052714,-1.2764056872154934,3.646737047952165,2.507180041425761,-1.5171916332884086,2.772319976419112,-5.449907887202476,4.086961378014773
47.491232364781766,0.3478891892813656,19.21736704791879,5.48485623782058,2.848654571901221,-2.30245050754806,8.572824091724003,-3.150492324999916,1.691983328754287,0.4355040580827726,-5.017267905368966,-0.3283667917567039,-6.210449241223548,3.130865449950514
42.85431480380602,1.0219309752916337,16.750242085113435,1.6152297438028054,5.397436737210175,-0.903179858176714,7.624683518730041,-7.45184482307913,-4.937778655723986,-5.133643935161595,-11.60393951804179,-9.567234093161792,-5.390516219132465,-4.279019486547022
33.56617214716622,1.4034388657917918,12.74900059935909,-0.0824693681942916,6.453149689786824,-0.3560803153326717,0.9613049170034174,-6.433354065803048,-5.665591502316722,-5.800775751710276,-10.538312508199962,-9.859086200311824,-3.5375701061533333,-3.500005088210738
25.148576841816308,0.545100271705705,9.274585854490368,1.3850881470414205,5.85820344671302,-0.7614502968736796,-7.24524361473353,-3.659522546063882,-5.249749407629491,-5.483478462531296,-4.723673805474764,-7.8479022385433375,-0.0299720595095038,-1.9519030020752235
22.293463415052194,0.2283414209657641,7.76343837131473,5.582852273871028,5.898868742832423,-1.0056477699339832,-12.333771217573748,0.4100433188699871,-2.6798226343470337,-2.7829735183021294,0.1017557294393924,-2.969913048851094,2.483665437883455,-0.4346412990444644
25.451213265141355,-0.1759720462137731,8.205667909925666,10.606683216672732,5.446096185769609,-1.97156803821378,-12.284486944134176,9.057961666387978,5.223723830047173,4.78798513569806,9.589446567849032,9.836946276686303,5.127940492821406,5.273027697683211
30.62992400658244,-0.417029765267534,9.27200008899376,13.983995567671094,4.672160917625003,-1.567609637023767,-7.967315880245287,10.297905265054334,6.858000646053712,6.874950882831985,12.466087244347705,12.576906120502091,6.310763929549692,5.804181244901344
32.43309763732645,-0.4241575156068773,9.226757920359695,14.05043872361436,3.91673456359498,-0.5018606282118446,-1.1671525855801193,7.8284586470353,6.055933766713364,7.057680003415081,10.436538662923285,11.023823191203135,5.618856073078698,3.390728526456506
27.891144637507367,0.2480927863887199,7.045245062418157,10.833604797392816,2.696480922039145,0.4891959652311641,6.92673818605925,4.243529727367378,4.746581014127427,6.006297502870589,9.334636508245328,9.050211276580209,4.496323118086327,2.723989405357304
18.26502517648668,1.844356004556424,3.0818650414115822,5.828880909795352,0.6846801613665716,3.149079902220702,15.20002731080131,-5.640386152562343,-0.9940058204252324,0.4703534807934814,4.063892928772848,-0.0987856812546741,1.670129061764508,0.4089343296982397
7.770757999812453,1.7632013218877474,-1.1073062166221843,0.9569735823196835,0.2522224069216395,3.027690900915389,21.324486842675263,-7.344519410753417,-2.6360115889252627,-1.6117974338121988,-0.2161848391875993,-2.968448608261236,-0.5144310667948255,-2.2588310822391886
0.4689382142244511,0.8122664452402144,-3.7117670632352073,-2.4404678960162087,1.2079918647717556,1.369634311582286,22.15341953121608,-3.524708415752204,-2.12190177436524,-2.495230338407067,-3.839903229898865,-2.8127062717684006,-2.624471827754309,-5.516090931068097
-2.34615400623359,0.0587297893052393,-3.831929416925093,-3.965117921152228,2.609417637285976,0.2089044900757518,16.286042087100952,-2.197269921028328,-2.234348359258842,-3.3284004356778216,-6.47432197718696,-4.560384397064568,-3.0885393014415405,-4.438885086111549
-2.5708370249953347,-1.708417464937246,-2.101286706496964,-3.9608821535389462,5.220348952870865,-4.216446297447927,6.312922160541149,2.572784454337258,-0.2744565868775425,-2.061840010799956,-7.666567880237202,-3.5123363859438688,-1.6477639259166688,0.0837061423660565
-3.4778249087545774,-1.5764970238038394,-0.2911755273924612,-3.164845856222541,5.541601473475854,-4.94770859259217,-2.1848303769067954,3.2564553365765656,0.0546191393244936,-1.7730988510215826,-6.142174059914312,-3.245956470497954,-1.4954429211466471,2.35089600761723
-7.061204643515737,0.185552577395538,-0.1029595637430347,-2.412134486045609,4.420928328682259,-2.576917437731742,-4.791138445943567,-0.4093492263849965,-0.647684211609897,-1.567206452801807,-1.1000617815617857,-3.4562995928865785,-0.8701788972844272,6.927129155699541
-12.39798768749926,-0.4219938367415464,-1.972281794263452,-2.2951803519591394,2.5875566794021663,-1.6944118730719706,-1.9643634649560011,-0.150046829006576,-1.0784052904730468,-0.9971976668661672,-0.5681903966985185,-2.0877014783356667,-1.448837932341413,2.421105625599785
-16.198169523573057,-1.5409679529433282,-4.741088832389863,-2.7692185194144088,-0.8309584746508629,2.5840128034119627,1.4254458295569634,0.3781967101823921,-2.329741675532031,-0.5933690448438579,-1.256166203009381,0.0573707013805166,-3.718470510924703,-10.721428453254394
-15.272929569922423,-2.033307793120613,-6.42910582021797,-3.0283996637641337,-0.8289886628574998,4.437571992006772,0.6655861654902253,-0.7315793808457506,-2.5174693397528936,-0.2756113007652953,-1.6568891142019402,0.5248233609608463,-2.9128037379467,-12.74026260534768
-9.245814994849454,-3.461123981450854,-5.546427113205027,-1.9883239551115608,0.4078690251947409,2.921650094485508,-4.276994600331754,-2.346434728767884,-2.619739428775104,-0.6866625309350339,-5.715926460251478,0.0052607224450592,-1.3424934113334617,-13.162273799874113
-1.4182991502400313,-1.3312818580197603,-2.063347214689067,0.7973875235106362,2.3559678527761614,3.422411921108236,-8.61686372081131,-2.574186669134662,-0.972173922647686,-0.1647895128861377,-2.459403344703531,0.7249195184638355,0.4656936179221642,-7.07128415732581
