AF3,F7,F3,FC5,T7,P7,O1,O2,P8,T8,FC6,F4,F8,AF4
-1.7028492951120526,0.8328338364417363,0.2280570750651961,1.829040182656624,-2.1023027826050003,-4.148587923939624,-6.905196785595253,1.8979860783718612,4.74883078293766,6.572293461563564,6.831141285556655,1.7595214493321514,5.209747393455398,3.523921636016734
0.5580871396162159,2.72507895665915,2.9441572461698104,1.7624737457109303,-2.020987193531902,-3.856616099395137,-5.976569191480436,2.0963530720291104,3.546512432752799,6.82535092922674,7.89371018016751,4.172776275258613,6.165026087461641,3.710446979023441
2.9933682657379634,4.032316168701389,4.727318670198346,-1.3324050310394802,-2.340961664419116,-4.128499042653803,-5.171593223308001,1.0253887118702742,-1.025162239924452,5.902875833642934,7.006902005628049,6.719849877715653,4.629491062396468,3.4417915269485846
4.581033167195798,3.650015957265385,4.881168679458069,-1.842582229746618,-1.2580798764941352,-4.003905804188491,-4.306952366694251,-0.9374384543852408,-3.6310309312244393,2.808473862831896,3.892803293880739,6.187440491464596,0.3125846477221508,2.738695211550386
4.807772084548411,1.6557421080642598,2.5365029775806707,-0.5708327965630856,-1.656737967457277,-4.363713207165015,-3.255495035644934,-3.097070218380207,-4.182097094830217,-2.0656541918527225,-0.4264705125042667,1.485757178726665,-5.028896841367335,1.511127570599296
3.745281497126705,-0.7855989102646497,-1.5207564942384069,-1.873706569844705,-2.1508218717576297,-5.13481647531624,-2.401124719964709,-4.913774608657469,-7.1528481529390575,-7.034205035976019,-4.712710575284483,-5.183254792729692,-9.16599438387932,-0.226307579747985
1.9355655623157235,-2.435140773947466,-5.654864916636585,0.2831680920009977,-0.738342413856461,-5.211256033228677,-2.3399947205298943,-6.27495757704461,-7.999663156420089,-10.29522943719305,-8.221218557529479,-9.900876525913926,-11.120145638717418,-1.8905051672643327
0.2293988822177795,-2.9098980710854256,-6.7592426870193485,1.1534578967821378,-1.3199375023039264,-5.37213583840303,-3.202794292454445,-7.371635687385226,-8.200287598644834,-11.196136974629836,-10.61112775001504,-10.04523396077315,-11.601657491167575,-2.4035476788603134
-0.4890714000149039,-2.64721371901869,-4.16242518599475,-0.5809546740194609,-2.1191156968267144,-4.68730578908385,-4.323691234239945,-8.277100180146029,-9.225380434289736,-10.541161203772877,-11.656541080894035,-6.210163844071722,-12.009891115836275,-1.1581990892819611
0.2300767843742299,-2.0884808063682883,-1.01912293772828,1.0889896393993037,-1.7591855044408544,-3.21225984339331,-4.565782494501722,-8.623753651332368,-7.552591317405191,-9.762226484523364,-11.363738775597046,-1.51218959401929,-13.08090103210242,0.9589390806989826
1.976682404078492,-1.1325658029125307,2.2932132882903105,0.4998548588727859,-3.746419535011816,-2.1306580811624456,-3.047282424890696,-7.799465144665898,-5.757450950034838,-9.73872036754974,-10.29504172949108,0.9476334229792194,-14.391231977957524,1.8226525069011568
3.5578429176201887,0.4568035398646479,3.531644090195888,-0.8304092138115688,-4.14666638776152,-0.890300963675489,0.1868580859259552,-5.635533115453711,-5.297673956850092,-10.274287307069716,-9.41357921032136,0.251186816814684,-14.990161530496312,-0.1669405086803621
3.74547790540851,2.191528366131614,1.6573313046332794,0.2767912965371534,-3.741266646935955,-0.6933094831132164,3.944360023768944,-2.9244406433371744,-4.702405038423557,-10.545923654454976,-9.334695573756717,-2.146395709818705,-14.38488136998373,-4.309752718731744
2.1874486077317705,2.733934303352868,0.4418002666005736,-1.197355549347601,-5.352490139355108,-1.2182438679681342,6.3580240607637215,-1.0396783572018649,-4.568897040963187,-9.977343404674208,-9.711451319262046,-3.947892315734034,-12.90981096306412,-7.721653227826909
-0.3289097797745981,0.9702276812076782,-0.2192865127884986,-2.3273535969887678,-4.723583446284361,-1.0425557653008015,5.979455980727728,-0.7539659639085556,-4.744369291098964,-8.722415590521223,-9.526819099979877,-3.720802646619745,-11.251752076587447,-7.589613194373118
-2.5404706229929737,-2.6501567712122416,-0.4088584467836703,-1.164265094212789,-4.239717573569419,-0.9052511913510748,2.889510441510115,-1.3501051707206777,-4.38541096499489,-7.4262413989633345,-8.122860725981518,-1.5212206635098935,-9.762324845442606,-3.642297110467688
-3.684772060975142,-5.966488127940945,0.5505376262130157,-1.401810936738013,-3.6344334670126175,0.2103092969041664,-1.0947422678576435,-1.1054736066010236,-4.332753909961035,-6.62303031202007,-5.928250778789678,1.5961270279711357,-8.303332553341875,1.4877607003728066
-3.887508890576804,-6.585210974583543,0.7556980357872697,-1.0602464279935386,-0.3571007623257201,2.2279127123558413,-3.548726339300771,1.060899976723345,-4.826253840907716,-6.380304643836325,-4.109921673846049,4.384174356775979,-6.697132033675263,4.406015968091253
-3.7125547519262057,-3.824402455597806,0.3651462145633367,0.8670433594794897,1.819995201884588,3.644905620270592,-3.193562519662539,4.314442591218729,-5.270648512176428,-6.451452700601823,-3.528297119874253,5.891597853980194,-5.169071028960971,3.6375207451257374
-3.501356941610368,0.5932241386610677,0.2377417879937645,1.131224661296463,3.044117522292406,4.762051828406737,-0.8167816504498582,6.391744858509053,-5.28589419159231,-6.655308588013622,-4.081585392394587,5.622130552325885,-4.224404454409108,0.4629668760414596
-3.2019518533674347,3.8101678166549178,-0.0179336228062722,1.6783432305824937,3.184590087600468,5.001740409430103,1.5001996145214171,5.553867154031902,-4.732536042962694,-7.017730908114791,-5.032140908357034,3.6392615335360894,-4.096113397175655,-2.5865547517306933
-2.705600466899781,4.048404856318479,0.0441550405843671,3.73332364140718,1.3614998609317182,4.408405228539562,2.185791150743551,2.1893588632150607,-3.905082497856222,-7.537228772188687,-5.775746614609805,0.6543628036341591,-4.412125158139217,-3.901888493682998
-2.1291252302525923,1.8931758657477025,0.1488940244471044,4.379331488657029,-0.1974984721178423,3.99850074374324,1.373693291414417,-1.4762550980370026,-2.718808922819511,-7.908194792541643,-6.151124104519047,-2.1448219962509736,-4.480536060748099,-3.645736108679321
-1.6882138619619198,-0.445430288744566,-0.3313220576100973,4.649848352914439,-0.8577781983528296,3.902479358134697,0.4576290105448155,-3.2750677029382835,-1.6868758128633214,-7.631733322851216,-6.141840271587181,-3.6608320509667873,-3.888957446884188,-2.8959484226930474
-1.4277392887001916,-1.2098046089739558,-0.869243341864742,5.040614996540413,-0.5535974987520644,4.353791712738989,0.5841247018364513,-2.777677142848084,-0.7705549501729692,-6.50398039706996,-5.644025744064117,-3.562138878731579,-2.782842354252324,-2.360013497772732
-1.2391961332851764,-0.6120910963478394,-1.324585126047382,4.2004449332709015,0.6881724607156327,5.256208305697036,1.6232359032531107,-1.285372353604794,0.8202685333230302,-4.962288423617615,-4.739722071619972,-2.528033525550377,-1.595081302234961,-1.9879207826991987
-1.1122472788615465,-0.3645803309791571,-1.841738477342644,3.159853774530243,1.6901285948605256,6.000097255397469,2.550767661249932,-0.3574736845084292,2.3477660979365864,-3.7861432667541983,-3.989699120008943,-1.736500027531541,-0.597260437378023,-1.5187354008460368
-1.1724562924908,-1.672138960458251,-1.6453817234155292,2.830758353936844,1.5251723382363953,6.206694228657892,2.690068358824102,-0.4083945094686481,3.170984796819736,-3.308301295971968,-4.004907525538745,-1.878957218377885,0.2558129225308239,-0.9925444089666318
-1.3581720263347652,-3.711508650763588,-0.6436566472113174,2.893840971573659,1.0915764886250714,6.361867119561123,2.447353976322296,-0.613707539134988,3.988829553882719,-2.9346608784902672,-4.508802996784038,-2.496540121117913,1.1465346330274215,-0.5867741466326493
-1.200178814924164,-4.264133531864825,0.1851638542361037,2.580694377182626,0.1703565427547092,6.265189056234704,2.803478833731408,0.0218995270252042,4.335088550322281,-1.6145044120840897,-4.087599331182144,-2.315165109001832,2.1946105544234937,-0.1718958558812922
-0.1912148358604399,-2.022855559185502,1.6443830541364537,2.4423182765122338,-1.4907728099391075,5.803179248523107,4.154795084826007,1.6013811666455315,3.975397847937976,1.0417193696527018,-1.360812053239406,-0.4493661922027554,3.420640596965252,0.6344519930325068
1.500820088088525,1.7533887689792782,2.646791372604981,2.238685884202299,-1.5180710434205706,6.093738501890859,5.745354173183605,3.238387256860127,4.4637796246480885,4.094731217846277,3.356815683659052,2.5338253312006183,4.737654213284749,1.8374993601822356
2.815761357212706,4.078133867197513,1.919460160320965,0.1335688976546906,-1.8463731578648304,5.904854465431298,6.294275665809519,3.879057267790405,4.4608096455991095,5.861258446213256,7.745952812138059,4.765154856560301,5.842310003893052,2.642717193312521
2.529646856538479,2.912629424055784,1.33763703718786,-2.3928175642068763,-3.2174006406715225,5.038451667305932,5.200167500973825,3.2140527883494032,3.4513049977034997,5.340029168148963,9.200376212010566,4.500778622404177,6.195881645584732,1.9303501751142635
0.3457373314465402,-0.9271854546014824,0.1813988555401978,-4.564150148459213,-2.793984624325183,5.057337691246794,3.13534083413171,1.895242680781409,3.3076340682433774,3.151606111250253,7.083262427453402,1.639760370484454,5.362171433283615,-0.6736048454517164
-2.727667742259918,-4.5181629495618925,-0.9609380793956036,-6.541575267776949,-2.929338957516931,4.51913039235977,1.4594583303857596,0.9444151943680557,2.9136695842097184,1.0615492547883392,3.309163678727209,-2.079846084215128,3.5444489942575603,-4.194259124169252
-5.118634556602582,-5.427726609804882,-0.6441727246927454,-6.141235601653008,-2.755233750709228,3.922516060514314,1.0520920316548228,0.9154725443634316,2.7357728584862584,0.5173170613607694,0.6681790077639707,-4.447371758008858,1.730190496597783,-6.861564514062473
-5.875327141926968,-3.627670546014228,-0.5693905113541985,-4.421431166122197,-0.2769433630963972,4.487447311589725,1.6670243584285416,1.5299416722081602,3.794725759265272,1.5867364061053204,0.5791155846686782,-4.473083829185994,1.0931497180616556,-7.405429425189847
-5.217082695891005,-1.046190038334441,-0.5514589055923734,-2.8948598773567618,1.2208335802778083,4.190529574090666,2.362959227202238,2.0593598393421884,4.255612761891346,3.227252931559267,2.375540003384306,-2.88450501446737,2.1105057350621443,-5.914382192721121
-4.078541365452917,0.4540584316485785,-0.2429451955775614,-1.5358627527754056,2.016042060807159,3.2163835967125274,2.4804401448338425,2.049671461079203,4.194755802002738,4.46502556527727,4.478439244370309,-1.1229496670452108,4.254828721571201,-3.5251429533257186
-3.215199142076354,0.5511046778792017,-0.3100970418526151,-0.9582294395852456,3.0886095212995195,2.596858089933568,2.1534326174869447,1.680122699735506,4.360407984432748,5.2382385772377695,5.965404443796282,0.0262024675742837,6.600571200637755,-1.3256377385161433
-2.7066090535032243,0.2231104159949968,-0.2229623186465276,-0.4804263489918062,3.201482304432929,1.1706144135346026,1.937421920442944,1.4369787913463945,4.083120779519018,6.151013732849551,7.017322666537376,0.845390006502388,8.68704124141545,0.4567252741057375
-2.1710681235045337,0.4838731983384683,0.0986901585089345,0.4207222200477098,3.3132004545554268,-0.6509508182222293,2.089017120674514,1.5094622341033055,3.7083531937671976,7.585837958154829,8.237018106974611,1.9685109483396956,10.729264272442515,2.2966125476715646
-1.3398614566654166,1.490592737822093,0.2329352629245346,1.0943754054240074,3.8363296380959793,-1.4116037643886965,2.312369616700181,1.6120450971006424,3.7417785230943656,9.207538925162329,9.915803948603337,3.507305344075869,13.023859257006528,4.543045281947295
-0.4122624792575466,2.656658931267684,0.3837962535707362,1.2765985232821366,3.918695931498804,-2.2061086870049063,2.1834595741900005,1.4310392721243428,3.6228206302031976,10.328103820817075,11.942039471125245,4.953980422695576,15.309626035195576,6.839674268609056
0.1048658689752652,3.3080239981664845,0.5178725158908327,1.2331495429261432,3.775723644732527,-3.372726598004166,1.679642348232087,1.1325715731077572,3.298495835062501,10.618581926985293,14.041691495799158,5.788694003664145,16.83819943539673,8.367402564177691
-0.1076799109280468,3.175414732142704,0.5948572619600994,0.7232963077326735,3.4541969502763443,-3.6578179679079104,1.1915641213985593,1.26405670305936,3.158764856135203,10.357310543191048,15.831136963969907,5.9924231924704685,17.047688316609808,8.611277161423079
-0.8304277115671752,2.428211691511863,0.3952733472998069,-0.0232660441018091,2.814131424058663,-4.082633996835617,1.056403894310395,2.115393147867591,3.050240571818033,10.02807851096206,16.782238565872987,5.932607766769298,16.062830179718883,7.836615487666808
-1.4791032316212984,1.4017818381616038,-0.342594501161465,-0.702415226093078,1.8534825057545292,-4.606899391224995,1.2164164612580397,3.3272017091480537,2.828870187850671,9.825615569654271,16.528922518364972,5.903080247302098,14.51712092606132,6.798940000327733
-1.69816689905488,0.2614569126638004,-1.1455349338945593,-1.9272434503979137,0.3237086752391509,-4.270822205110364,1.3890138232322942,4.292121060390107,2.658269096046769,9.633243879669248,15.382112020862616,5.900547824050703,12.986814255227312,6.022451786385438
-1.7796488000596558,-1.1316272849982711,-2.200368949748935,-3.535105677100377,-1.425098031365862,-4.030935760711577,1.4730875061614324,4.912273023970675,2.5786938271678816,9.388974929586269,14.322752434817565,5.81689243144014,11.66882840432436,5.410643014772269
-2.35898245232362,-2.9705471298355306,-2.4281710507985923,-3.535476109398059,-1.7053964775321404,-3.695066473941547,1.6354120484028023,5.73703532908988,2.36669377594034,9.27450361402624,14.13868261664341,5.685354723627764,10.499917300055635,4.566978781820601
-3.539546108273411,-4.9956670664351766,-1.351145690425859,-2.002609537736158,-0.6846708852761989,-2.884990324303538,1.967471338551892,7.181307017887027,2.0628840730803413,9.431506634749391,14.473552759325653,5.645098532276904,9.38332631605432,3.435981235091675
-4.325146004068616,-6.259225187813266,-0.1065471471933833,-0.0815163073782631,0.8196086747088592,-1.9967931008534416,2.18752107660352,8.691047189973727,1.8799382801332187,9.565099295907205,13.930493038830791,5.7254604709285415,8.213753495129989,2.542532073415402
-3.1328223292284765,-5.622653705103069,1.8259570149442244,3.4362212095154234,3.7897719855833705,-0.7288811927894401,1.8407555248404852,8.950889639492203,1.5911688172798517,9.008540932552844,11.346164810581447,5.787725519992831,6.803206599581897,2.547264489817696
0.8626051965856973,-2.7265748636140943,2.818398907153492,5.577810614966721,5.318333960970614,0.3243553574703536,0.8326141109182501,7.113706248947745,1.180244321323673,7.3085680562805955,7.004537912713883,5.709957432708124,4.965274906949675,3.5693193156673377
6.755651207247058,1.4818695507732826,2.044776987140092,5.6005102509822615,5.342763005450509,1.183254437803014,-0.3280894203555204,3.799181777706165,0.9620069853393164,4.745703271690202,2.507539967741618,5.5492599640912825,2.728323955157517,4.971178209772386
12.321134269668704,5.301377441330813,1.7265801629429036,6.621403708749043,6.571375992370268,2.315849935632144,-0.9223793852438352,0.7275912177166131,0.7417487713852386,2.203152627171951,-0.5901734659172506,5.4436252223615496,0.390990561212714,5.828359049977242
15.553385011515488,7.486794351142492,1.075336664435308,6.487689855221205,6.508795844672719,3.05285157476881,-0.6865244940626773,-0.7232999154669457,0.3743986360990096,0.4713850199629572,-1.994639084404577,5.373403352470113,-1.698335489939926,5.631191256492687
15.997059315165629,8.012168424553735,0.2070974276145645,5.783229636495975,5.950754325260083,3.604576613054761,-0.0529984905179761,-0.6001371302175587,0.0748621234885747,-0.3358796173472314,-2.6027675446059626,5.105917260091201,-3.40467007159841,4.58682378069404
14.752482568456834,7.758373031168632,-0.0015673341331444,5.663997109164314,5.793055173154736,3.7000743590510674,0.2849880433042386,-0.0681370564819507,-0.3091276843229661,-0.7181995041653995,-3.425907944925541,4.414538948133068,-4.843250184146307,3.3087743406014827
13.3079415101698,7.584502597113842,-1.0050689643643704,3.995213806915809,3.951113197739809,2.972170610067099,0.0290068142247372,-0.1694779801002246,-0.8702204494918679,-1.2298602018956435,-4.735452913322324,3.315347060202895,-6.220768166578712,2.2642353529425288
12.3730845499936,7.723375816402465,-2.315237485363709,1.786883059455401,1.7362565066927582,2.142683516533492,-0.523094659863637,-0.9772436230266952,-1.3550335704934526,-2.028947213983753,-6.169569895402431,2.0382756549451484,-7.702398147922796,1.48105785613516
11.689746484474398,7.902057721013463,-2.3016864740163334,0.3412190543437411,0.2457151453821501,1.6024980265755806,-0.8987754928508229,-1.8796695336532063,-1.7723214479021363,-2.9132154932631886,-7.389618158811602,0.7783991261238854,-9.376301140026715,0.6940967108238572
10.7269949636014,7.832656437316073,-1.2916523444200985,-0.8687854033292316,-1.2124871862674766,1.3240208196768264,-0.981512674767992,-2.42378656635702,-2.2605194062904364,-3.656960995298582,-8.427051711514984,-0.4481087133017754,-11.205997987085428,-0.3017815837171964
9.390325426982043,7.5203323990473265,-0.1991435158888689,-2.0574977202146894,-2.7692507623225247,1.1299440692256884,-1.0653771889445407,-2.718198074687844,-2.7731838371001705,-4.234594736042217,-9.471376914784004,-1.6974621956632578,-12.978854437386069,-1.443103065966787
8.064141496772681,7.217161410633238,1.2624821726774174,-3.059904177141992,-4.209502959171956,0.90888278623787,-1.415437480285271,-3.1070889963122124,-3.230844410580308,-4.770405897184364,-10.5753352599956,-2.9438815021811924,-14.443114871777096,-2.487625558982903
7.100404261228244,7.18622096206599,1.7690338436443973,-4.146212442626567,-5.066046715031639,0.3395705645553298,-1.8913507246111805,-3.698193233406194,-3.55621158559852,-5.3832550337302205,-11.699488587373631,-4.126002655302585,-15.645240163552304,-3.284158526673564
6.3883417332747845,7.449320046094988,1.0822266555962092,-5.421367387808473,-5.470403943195448,-0.4330287494220033,-2.1228077540236647,-4.327381898269799,-3.779110202157841,-6.106810803404407,-12.903138190054356,-5.312150076934447,-17.056477056001796,-3.967493275407589
5.453303229155463,7.635771533806022,0.4219171272232706,-6.551286701517105,-5.447696030109926,-1.0918381195588067,-2.070226554488488,-4.859088146600339,-3.8116151017009328,-6.867138939604535,-14.241524117684264,-6.665178396809617,-19.083818265223638,-4.883263118002923
3.9490633936068735,7.11091600078993,-0.9567387321645447,-7.393157461287366,-4.45271882037077,-1.9609759181561852,-2.29508350581333,-5.3272981292701225,-3.663889247132802,-7.448863432300361,-15.388982870685766,-8.138519698175328,-21.25811154812063,-6.252337063698635
2.031033755459449,5.4620913586491895,-1.80467615924891,-7.73349815524194,-3.968658498252307,-2.3359435899600687,-3.5094575280928835,-5.766230858930588,-3.677256400257435,-7.535298600275858,-15.545177754727936,-9.289393150314798,-22.03890420763016,-7.823785396107511
0.2632117034417705,3.063157144970684,-1.166026462241636,-7.580154399632268,-3.815749149952703,-1.9183884935338935,-5.755790933937817,-6.054479060079467,-3.4551352109241544,-6.911545450721839,-13.952552801766355,-9.5662300554769,-19.800187856840694,-8.85207429484537
-0.8441234817897088,1.096309219154251,-0.0973199535477756,-6.749226478356428,-2.694681609100017,-1.412894855313369,-8.072441976346555,-6.047607245402463,-2.8660129439276454,-5.7198187387240775,-10.641373356757256,-8.868351345758542,-14.32637423633298,-8.549622702628877
-1.2414787978196655,0.7312812893408269,2.085170350547907,-5.305020020743954,-1.9913086618234332,-0.3999646226700372,-9.117457300861933,-5.80445072228197,-2.464920030565785,-4.463322859266947,-6.631002736313052,-7.738128650702236,-7.377407251522215,-6.749334230210631
-1.3445775587120177,2.021244080706748,3.479277662681036,-4.023672100238686,-1.2440690475587044,-0.9684608653938852,-8.280627909307686,-5.548308875933946,-1.9258328805786216,-3.644519200431166,-3.2967380081484547,-6.893628798470447,-1.59718867794488,-4.214271357505209
-1.6658036823409286,3.56771663810317,2.0210505975470285,-1.9520544763198808,0.0249799675019121,-3.918108632429275,-6.265239375517515,-5.390311150821486,-1.2371921978311855,-3.3521742841772038,-1.4477069834171896,-6.60814121565075,1.3652657726517816,-2.2128808585438984
-2.429754104200108,3.452824701086008,-0.0014850263158467,0.8292676146297622,0.6807606331845626,-7.307147479662835,-4.562505842659522,-5.210623980435077,-0.9226143981930714,-3.24838727486864,-0.9335119123543612,-6.670785190231668,1.863467325764372,-1.598620097155634
-3.505152055053602,0.7728762927772335,-2.7617670467003155,3.4660945365401687,1.5563492228462348,-12.24300987374006,-4.262875497513429,-4.883960068034181,-0.3766269650796005,-2.9937950703454828,-1.0259165206182397,-6.925835282077729,1.5794681241842348,-2.159558919825782
-4.658822396545236,-3.559914046070129,-4.432730539984208,5.807398687687596,2.1587016711078064,-15.415352769279483,-5.257680256302218,-4.525664607598846,0.3648018675039284,-2.633420635150058,-1.0840328671447823,-7.589397983005208,1.967693267317289,-2.8517730201029146
-5.836231719790447,-7.461160902021936,-2.647183428134371,6.161264743828746,1.4377504235553669,-15.831201801720098,-6.479929740503383,-4.344450121258131,0.3472259239908016,-2.4818171321400118,-0.8748445785021832,-8.773083659644561,3.266248518899961,-2.760004569986542
-7.188537491915467,-9.213420909654792,-0.6221682056473283,5.281247685551202,0.5440199141550548,-17.08538947812602,-6.869524341982355,-4.228499445594892,0.2508993296842506,-2.640340677970244,-0.4348729469916224,-9.772210437714556,4.735939767473312,-1.9196017535832104
-8.859020500155422,-8.626007508896555,1.4424063123370134,4.44122461222101,-0.8950096027734966,-16.680803259159553,-6.164725240648728,-3.660969863055856,0.324092716318636,-2.757507265457879,0.1379299255599533,-9.26696719477569,5.553956240034145,-1.2315681488931984
-10.792174865017834,-6.972337446851344,2.6003487877453453,3.74149879494806,-2.149611346815463,-15.96201114587983,-4.907976128365751,-2.2564218828066944,-0.4938010138527026,-2.400628890410111,0.6404954661270761,-6.66217009275092,5.393442908891613,-1.5746098157751975
-12.770516677744316,-5.934201098058746,1.2896517296374097,4.05533378214027,-2.0687200108299675,-16.0001690421428,-3.8209110729314495,-0.4068213088631043,-1.449626145604379,-1.6723725829090443,0.6197782854307916,-3.2495431489227267,4.336036531743407,-3.014339668184767
-14.601551948506025,-6.494316610513396,-0.1524707478309183,4.714785895074588,-2.152039513427477,-13.682535863667816,-3.1865001500502657,0.7868541213458373,-2.167839273292126,-1.3311566997562738,-0.4758386067615725,-1.6295422588077255,2.522903329533523,-4.883901515329814
-16.191843863394727,-8.54621996327195,-1.8014899460846947,4.798714265807141,-2.175661377332996,-11.048477610410666,-2.7181522790438937,0.4483399380012658,-3.9508668292737696,-2.1374043509034912,-2.775126040320976,-3.4883688293969475,0.0777826525144878,-6.553515236536988
-17.38891843615589,-11.24992863223974,-2.4929482237140896,4.09816906173222,-1.7953868662670258,-8.671299633538148,-1.9027838304060576,-1.11419336471974,-4.597959144689863,-4.010299436938027,-5.523179178140588,-7.745866696607607,-2.636339054299294,-7.947184853623717
-17.785551541575394,-13.640191057484854,-0.7428420786890853,2.957088626615276,-1.661966200514109,-5.127674913236797,-0.4429667180875531,-2.4340079247278874,-3.163760341604124,-5.86165954621216,-7.268285099110507,-11.043653359497217,-4.801162116433341,-9.165313888426343
-16.817665808099942,-15.020959753921794,1.846825540643762,1.4917081510430892,-1.1775149484344296,-1.4162910634726495,1.549184338109674,-2.0037049175016777,-2.107907902005835,-6.35695719577244,-6.742989357436376,-10.353533113930975,-5.3384100785681845,-9.665631960327673
-14.24840736349309,-15.098994139495716,5.78922005953363,-0.5904964535955216,-0.2170513501914323,2.7039320233457285,3.692065403569355,0.4902761816481842,0.1276202758983907,-4.964873435431223,-3.8248024812069352,-5.377536503071427,-3.545448803485392,-8.172800085325889
-10.688229823680764,-14.070572724802002,7.730894162265599,-2.6483573982501043,-0.9463755415358168,5.927115722453156,5.643584783374677,3.929287432186747,2.383497105253496,-2.3687576133869253,0.2254948724138374,1.3877245037324857,0.2139005395693991,-3.83541979593757
-7.603805394192799,-12.72788210969661,4.589560063033852,-5.224000430568349,-3.669242756272497,7.249829286752869,7.313446211235284,6.692398098564348,2.2976211257222827,0.0884106141916287,3.508256132443336,6.765035552071746,4.33457726401376,2.3061444227123107
-6.579238818477396,-12.330512182412834,0.3347682062898048,-8.655646609061112,-7.031392834547365,7.827060503090612,8.802395873288713,7.869015834230337,2.88785288728083,1.404989961098981,4.693609150178903,9.084604624748115,6.676506407920998,7.211322549116634
-8.219202970579229,-13.968808866362677,-5.637785471734279,-12.047007779843794,-11.928514969924684,7.146199681494301,10.128926075372869,7.708795525231091,3.720999981534264,1.536115277052501,3.828609214366322,8.65432320854215,5.919901617147007,7.765420996480266
-11.509461559293769,-17.620456922883168,-9.329030943374333,-12.8282707774771,-13.147278673495824,7.9477551839167635,11.028938378608837,7.080570744643932,3.4719447950860336,1.223379389916965,2.233551837688408,6.699560498517707,2.701451370501804,3.431215447319207
-14.199759057622988,-21.59905095515137,-6.400771451631107,-10.03041146552975,-9.417104651051345,9.893125039606865,11.087777093679431,6.617621149538279,4.219492540763107,1.3069054031701943,1.6208111041272717,4.335162579296489,-0.4416224112988036,-2.716219284080854
-14.053464957035166,-23.0978725599578,-3.128078589085016,-5.671359312813161,-5.273297656410735,10.704929190932551,10.15400277525562,6.3627494427917295,5.02083662745993,2.114835846435214,3.0613258958077267,2.542513097645672,-0.5596451383233569,-5.822101619394778
-10.148149628893709,-19.783235357633192,0.6231363660589433,1.173725931608377,2.3800688003049664,12.852727214542242,8.634459435825004,6.0701822799549285,4.592488681256139,3.3376213747750327,6.422677461113223,2.5466327855054867,3.672597674488401,-2.7743045079488127
-3.36822160389371,-11.439442989798032,3.512038865177326,5.722236842637883,7.269810052607987,13.007504687812048,7.280470592466368,5.63042352620408,4.490337783978101,4.36881672315959,10.529339371621289,5.411960456174656,10.839956221736768,5.356956018863286
4.18024541536111,-0.3828316924581436,2.2401447073151584,6.055382089330824,7.627821195446261,11.341384940824984,6.5388732108092285,5.087113330566695,4.113179789976698,4.792330504682409,13.837494968475308,10.796027173034894,17.51337474899846,13.987063220107489
10.36644739764429,9.82602385269498,1.390771933103613,7.404865924124168,10.584456899567853,11.137414307504695,6.034688120779396,4.299561879546239,2.4952228081544585,4.654753154640513,15.160414960251922,16.221747270260906,20.387921180922035,18.3165695881751
14.046930286222633,16.518996730548288,1.594416106321263,7.226387612897012,10.986386884910672,8.41309618284406,4.758057592816487,2.808070495901543,1.1740947182434058,4.34669211787948,14.037141003409133,18.179200592536624,18.33105406585104,16.664301555631674
15.332087401365834,19.318954048240844,1.0527650111088596,6.555897085791427,10.334102241709257,6.374334412064682,1.9265988805042689,0.2444514450588042,-0.828830473118654,4.1801822451756,10.652330819889752,14.64300693509173,12.889471340543356,11.274163996050694
15.102329014357654,19.78014134343712,0.7198452443746648,6.811978436843086,10.263389413416188,6.552680587329761,-2.1849306390824523,-3.076074830519417,-4.791154157939942,3.965302669105764,5.552523349902634,6.92735409903079,6.945883893732004,6.134289029211121
14.234761021020354,19.69973649095112,0.4523247584060147,4.831001080621751,6.038339702878869,4.518618231278463,-6.230729497303383,-6.10926338666672,-8.923627719186898,2.9438387504859924,-0.5232364221639116,-0.9631487287853364,2.584503357294454,3.727972054031533
13.106027260806492,19.61395095013294,-0.9573020020420822,2.134927497242195,1.2455699846844386,3.7559533568652967,-8.698818889094053,-7.823610237707381,-13.935659471955598,0.2555868330202404,-6.623583439139351,-5.207509986496717,-0.2070575285476006,3.36642359485119
11.662040694484508,18.73360118709871,-1.4316743563199954,0.5779429091909944,-0.7724970882271565,3.823331538216215,-8.996073661300166,-8.07637986314818,-16.439023935811544,-4.2630783118229285,-11.596790309204064,-4.928458859926911,-3.0383914791562097,2.325810864611393
9.892043249305472,16.204893931010087,-0.3881830813900839,0.7423044695360679,-1.112542052648835,2.3254151508319434,-7.77389120499863,-7.678765052598138,-13.30844341264724,-9.502511223711018,-14.367077328463076,-2.5012790030820167,-7.285775625019043,-1.3473679156207226
8.227069100888642,12.37017043034691,-0.7003122655518483,1.5523433553896906,-0.2944149843102752,2.3120998959125587,-6.233867399313846,-7.463904953066139,-8.992366181598246,-13.306831794602765,-14.409244379377704,-1.2144761512535251,-12.488157585622318,-6.838648093218335
7.449954838996336,8.777368505598163,-0.7776608895586026,2.48135727486215,1.7821880422280367,2.6338539225107924,-5.090431483023323,-7.2669816045442195,-2.25699795223256,-13.61868045019592,-12.0753212219042,-2.400149430960492,-16.36655287691341,-11.084994158373656
8.12555945467587,6.947300863429673,-0.3960512753738786,3.4747431321234763,2.23006128787565,2.163884414692687,-4.161035314338839,-5.957560528627479,2.760436286890501,-9.90815486888835,-8.477924132888027,-4.518189353036676,-16.507683039134776,-11.311404565489305
10.019790398818351,7.128481579213747,-0.4257594247890925,2.6830158504678754,1.2162774504248703,2.677642032628825,-2.8865078002301834,-2.659522012336993,2.163897272598444,-3.813607805786523,-4.97742622367159,-4.820948835855747,-12.320242014439316,-7.333787504866027
12.032310748401274,8.205148307215492,1.313186395870618,1.571233499983878,1.3812799648513074,3.4142271170718024,-1.164246738443556,1.9806129343572791,2.6641304592371933,1.705328448395926,-2.5771774941854737,-1.9334787984726656,-5.620629428119847,-1.6547456130867433
12.806156743160477,8.801424153288574,2.947514366201709,1.479648620488005,0.921555845166616,3.965256971745089,0.428925939635993,5.816934218750889,2.3136692098708487,4.274741402714066,-1.5512983084037435,2.95074151372545,0.6170970446821853,2.6471183223986947
11.601845453416455,8.457833938934087,2.332731398793432,0.222096141509675,0.0602135888107948,3.804721961027566,1.2390455529630846,6.681914569854502,1.028169370176624,3.662456466928921,-1.4704404666825346,7.107468602217477,4.217164601259702,4.261960970106297
8.770349765313473,7.758290785183458,0.5686304040800463,-1.1166018337938468,-0.4259568303503031,2.1081138835283086,1.2435380281467916,4.070953601868957,1.9471517102349185,1.696498807928979,-1.6104838467975495,8.397974053803678,4.8461158970434814,4.153366136258359
5.447169920787445,7.389970392161063,-1.8791297775936229,-1.780979861763271,-2.032258201193594,-0.1886009103305478,1.0394953156709668,-0.4530519881127759,1.04389273416953,0.5696286998913056,-1.566818280199577,6.590591155731342,3.4734413841692007,3.953580990663119
2.71951705887754,7.196960339333405,-3.725656827667079,-4.044973369334968,-3.9605990874458312,-3.3466363621430126,1.1109690429267374,-4.457552940508245,-1.1718362041697683,0.9826321700982704,-1.6760682480910123,3.0356903964990907,1.0743905194702634,3.9812062272880153
0.9535182587935084,6.237988451274857,-2.7032492105734205,-5.027018148581618,-3.9064008199069313,-4.051236547472637,1.2255329602020568,-6.347557916629265,-1.4732187432201345,1.7546772711010428,-2.808161081255891,-0.6174556822102131,-2.0544607616095725,2.890576432139354
-0.1706170865563621,3.823724594144636,-0.0475401445041035,-4.090676634533006,-2.4558729930910213,-1.1994909120182158,0.725288304786093,-6.165383464685764,-1.537428725115619,1.1972603408209297,-5.46554485064242,-3.3708141464569943,-5.814475350048832,-0.6803346667004582
-1.011918895895258,0.4708831068355412,1.4270888849081476,-3.854145948076845,-0.6699864042477012,1.672008877241108,-0.5444389601283943,-5.030282251479168,-1.8008880475739384,-1.0838611055689658,-8.829167204006986,-4.891076280301914,-9.40231962827629,-6.097009813249749
-1.3964042748489676,-2.250897061388586,2.5458372499520547,-2.058028313964794,2.799973596197824,6.829678533102542,-1.7359762711877278,-3.986363401234055,-0.6328840605175394,-3.668061740208073,-10.738851924062509,-5.038557271681182,-11.183390604823549,-10.42730928389475
-0.7604901484817193,-2.966201674577147,2.165746041227397,-1.0744099182816205,4.233488169080608,9.368752755890576,-1.6493586411852483,-3.357793395947086,-0.4811736588746629,-4.550118908967411,-9.017899489719891,-3.7118912660437706,-9.736196415447546,-10.421720279593316
1.0604392656575317,-1.7134362596287498,0.0790904403604119,-2.1680713117905306,2.6166464456525684,6.248381157469221,-0.0106295790513124,-2.9744460476245367,-1.279579808030829,-2.940278847330818,-3.302443074604411,-1.2040578407144211,-5.207182834151119,-5.245594223858567
3.2112036336417464,0.0057945641927266,-0.2169692081280049,-2.336620074544802,1.8029402467867404,4.223251771840749,1.9373572027763408,-2.7134581076442554,-0.6659635941684265,0.0390329781469616,4.220344470021315,1.4759659317088554,0.3701855226397656,2.402213634555717
4.159768844671074,0.4471901511473966,-1.4379261075719303,-3.531231110170894,-0.7758780807012484,-0.1020834277406442,2.3064765295025578,-2.6137557644103158,-0.873777474193946,2.3781911684419854,10.09754242189993,2.964510527306059,4.344245341575411,7.96675441867097
2.911427461576186,-0.9760676999674772,-2.639099021364914,-4.122146254829836,-2.7743124814293383,-2.7949721974641357,0.2513593268606282,-2.47299100772562,0.0374187779057004,2.983683675905743,12.1071034426119,2.5177566765608,5.418464232685345,8.408997295150396
0.0423334105890611,-3.350420272065598,-1.0102573044142562,-3.5370511560657274,-1.721476513154573,1.352125642645477,-3.046262165826663,-1.5429794184736794,4.127523315760101,2.6713800522706173,10.917608564693916,0.7712634264978856,4.663191624739371,4.638453335999574
-2.522607837396164,-5.194326329103669,0.047946503663757,-4.12677400122203,-1.9940554951216896,4.343894242156148,-5.065556317607342,1.0843101764219385,7.922900028010422,3.4977371444949625,9.418456692503216,-0.547660612687849,4.562637808894642,0.9080462254896152
-2.9884354572054725,-5.700500711669639,3.040259374740346,-3.6768759996349294,-1.823909486621717,8.647360928956637,-3.806899550649226,5.572555099531914,13.102879158344017,6.972915770243198,10.232877442292253,0.0880819057175592,6.7754605591731,1.423873577465628
-1.213215618460864,-5.1359160073298415,5.537894359401507,-3.3182248555484466,-0.9678364972474032,11.65084220685848,0.6906625128546834,10.791532641053706,16.95610293796857,12.591095874164898,13.562494783119082,2.728329717629758,10.544310627125975,6.797400328257466
1.087426962573408,-4.204086994506424,3.326762691508941,-3.1985801377811875,-1.758825209310442,7.474401009377255,6.367225003115796,14.8316550437069,15.283248350438347,17.868019764105348,17.207117668316755,5.817337687761768,13.269396770711896,13.322765165010573
1.684833799588554,-3.232671513092182,1.0202809524996337,-1.4686067693744764,-1.83035312854554,3.4488057870985784,10.60213692739823,16.32214449070827,13.338926526726937,19.935869011544234,18.60349938257153,7.38774276435652,12.850151822281807,15.853138074917029
-0.4165323195684172,-2.095982649829053,-2.5909969821960392,-0.4439098320594405,-1.4122255259740228,-1.7106584610660058,11.924998672447169,15.440260212493124,10.2567384640882,17.557180321582244,16.93062313631276,6.56897022856772,9.677652759373922,11.97017070340038
-4.30348505320741,-0.8271008749010553,-5.056321897215496,0.0228996328281458,-1.9279576038581012,-6.258688381411752,10.737796006097051,13.669953965328212,6.4144338279602575,12.0484870302087,13.436871398239113,4.127278766835027,6.3545633271739135,3.914709717646166
-8.00955008818828,-0.0335998741266676,-3.0967662783547114,0.597043778164942,-2.1679772940809,-5.483684885808239,8.691694197548111,12.48173326107716,5.894271029100588,6.378830529085716,9.97917764809301,1.6636837096488837,5.319211271740843,-3.370149704641776
-10.019370292854228,-0.4706599514302123,-2.661903911199152,0.0898434091728424,-2.466683981082315,-5.4405185672303285,7.373863267892524,12.118921240365925,4.652027537576943,3.1012776002141207,7.420835863308674,0.3164001791425148,6.597909198641082,-6.2763342757288285
-10.104622515276295,-2.16873885489695,-2.996809132097014,-0.3543759941585677,-3.41906389902802,-5.102531822288642,7.308354804966239,11.5797982086346,1.9029507090128528,2.716154853269134,5.41531239703295,0.1383076723209795,7.845780564124586,-5.049795655870843
-8.964459796534126,-4.131987237001583,-2.736734305468317,0.9820073590478662,-2.9335359745030147,-5.2551907996307925,7.8532467065135325,9.752428379820516,0.6122861993235637,3.7142968999285895,3.459024689875246,0.516833175932808,6.636014884961773,-2.7318547131079374
-7.28303366047537,-5.063840335081029,-2.8494299098076987,3.3938607406333245,-1.3398177678164995,-9.169500176635603,7.85031050300142,6.590258146820878,-0.6011584031440754,4.139193924054204,1.7856449076815757,0.9713566122531638,2.783671941821789,-1.854324895380417
-5.20475304972307,-4.438518143380113,0.2296155442722488,6.270191791365588,0.2980402920528591,-12.417619018128226,6.43862997505687,3.229016416666063,-2.157682512404775,3.235587578258897,1.0572786763835502,1.4726305133154458,-1.4867499727040947,-2.1740421136831447
-2.6125234575725003,-2.8282566052841105,5.240569826394811,10.506100607657284,3.340471595628683,-16.039120656014124,3.5121652872459084,0.983550431079701,-2.165663762064677,1.7704448054528434,1.33818253314986,2.138391214061976,-3.575418149347657,-1.44736589459934
0.286565460286674,-1.1999253438911612,7.228763472935912,12.462407671628316,4.058578893001044,-19.355414851235277,-0.3296166801423101,0.1849180554356788,-2.3818320614440567,0.8992657576468783,1.705729956459562,2.868946594361688,-2.732791853792733,1.829071288173397
2.798424770986326,-0.0137343491521875,5.525931516744141,11.362806915832616,2.076090629208904,-19.41944677157532,-4.1703680315099945,-0.10824616327276,-3.783329519912435,0.7934054087082565,1.0799755319197075,3.403019627293133,-0.4877048397970043,6.567045391695324
4.185347594091255,0.890313160552175,2.0223978931434576,10.671327837208503,0.5437137684888368,-19.810302944184706,-7.2366353732605795,-1.329340554362208,-4.386140201216496,0.3813939676302684,-0.6363977906908822,3.6212120321751584,0.8433413361982431,9.868448182755229
4.227151340110254,1.6159036112402152,-1.6438879453837054,7.948440673411007,-3.412046852917568,-19.81355277592301,-9.208379026012954,-4.261574971631401,-4.891339606009852,-1.594407476774304,-2.452823311768338,3.5751162712057667,-0.0111939117134198,9.52717614552641
3.32695929244734,1.7002944456897442,-2.578260482567533,5.446859743151456,-5.060325088971633,-18.11614669654339,-10.248656557286948,-8.442422125252651,-5.961932475119256,-5.289544469201699,-3.422456198720363,3.1267376024373537,-2.658867856571126,5.815429069461047
2.1001559632788407,0.5105079456548722,-0.6964856702865896,5.425812282958923,-2.9638229631797586,-17.227206686257446,-10.755927407199056,-12.49113847887464,-6.8772590107985385,-9.50424099167894,-3.787971259956807,1.7053166539738172,-5.815360989751181,1.0118993271521717
0.8946671916247695,-1.8777143236948743,0.3451613357794582,3.677122129317519,-2.495524024589685,-15.455823366767133,-11.02301513661822,-15.025496201320088,-7.734432045328438,-12.68463311498445,-4.852586604554666,-1.3091226393907327,-8.466487002260912,-2.6882243225973994
-0.3203021866553435,-4.4522222133381,-0.7162649403992297,1.83986790103993,0.4064576630168338,-11.698250429326116,-11.072058936682886,-15.47529648062659,-8.956751467770715,-14.174436716752826,-7.654508786066085,-5.785992468649338,-10.417496362718415,-4.898613865045515
-1.6925795975010285,-6.145970259742098,-2.351328867519377,0.8156832906249207,2.4458207710605326,-8.924079150043474,-10.776268236940409,-14.266031698781964,-9.350196692335398,-14.50854405696973,-11.79748646037886,-10.468470065912785,-12.019998282135164,-6.969497698729288
-3.1925736625836745,-6.925992788973916,-3.0324932630486883,-1.589358023409197,1.1109188147320928,-5.960870823093645,-10.07724026921505,-12.332506134504008,-7.834894136727669,-14.525194960913268,-15.589746413997004,-13.610151149640066,-13.525459658524303,-10.376992665700788
-4.569181981505424,-7.764281610021396,-2.110710034967656,-3.8085549243797256,2.11628174801446,-1.4283825520787727,-9.008375916561338,-10.395139500522582,-5.795260810198887,-14.266313898130749,-17.282219768425065,-14.234486074086943,-14.617305167943773,-15.098549643562531
-5.536552370769277,-9.323897956843288,0.5915026707476774,-5.403009924744246,1.9131138635349032,2.1870547976879697,-7.51347681166062,-8.571662988971955,-3.194000756815783,-12.85117211116866,-16.198977230390756,-12.919467508502144,-14.44499740048898,-19.37804183466025
-5.986624213407428,-10.742438519363253,2.6355202697297853,-7.126161529373868,1.4506538314042583,5.390066384474012,-5.39114705328052,-6.5837077706838585,-0.5897262870858132,-9.5134756247388,-12.887814543356274,-11.343756500238202,-12.18700353660976,-21.033313619738408
-6.067899940849511,-10.03273311767256,2.576175665052106,-8.26738959315805,3.816613233179297,8.49067805879895,-2.613210827864666,-4.284414723934125,0.6559318133879652,-4.756273180483319,-8.500662953769108,-10.919709085727613,-7.829458801918616,-19.17425134570625
-6.0932290912021045,-6.000111731057292,1.3522073059605515,-8.555066256803755,4.74742392091149,10.146054430767029,0.2580624730161602,-1.948420918691422,1.7993839203668616,-0.3619455421430793,-4.173891758566665,-11.65403986232714,-2.55757224818168,-14.895709074423458
-6.303726153957788,0.1553380805001296,-0.1491435860253068,-8.620376249938214,6.032457314088847,11.532205296820552,2.1678480944834284,-0.0362607041657092,3.31123682889371,1.923081591409872,-0.7845089491797665,-12.165101590030456,1.7369110924075013,-10.39050224067503
-6.586538058766555,5.303730756235142,-0.911483414968556,-7.721214351855269,7.720263041368501,12.946577861876456,2.3810108273435304,1.279119638745465,4.640229196782534,1.8511388053698656,1.1533614596965762,-10.794208257962843,3.657831379375457,-7.251374509739946
-6.366539076425077,6.731838601771059,-0.9339481799131214,-4.347501940174033,6.654731807049137,12.995117425440718,1.3400966762086668,2.267481580804084,5.5171114612073655,0.8607649009474514,1.6938725733060416,-6.893932169643975,3.2934057235760505,-5.386301023541478
-4.901997919579971,4.320375083995781,-0.5987663931482723,0.1365477605180672,5.789587744219496,12.275208735772484,0.5778704094687708,3.284020153425587,6.2027137489659,0.7572164732440445,1.546463537455315,-1.3426804091172428,2.0663810343269238,-3.4034175742385884
-1.915646091220374,0.6222768913948862,-0.8731601053417444,5.644404322817255,4.883211337319354,10.977257978759882,1.4814734467902664,4.314374677145143,6.558873090161588,2.130873803333733,1.689876528976642,3.9915579102160166,1.481909064900634,-0.046442184348697
1.944423739387624,-1.1431973676737837,-1.011027776057859,9.353063556382658,3.258994957416825,9.244082489555275,3.9345490947578696,4.978229801677156,5.572842825452877,4.017518214030119,2.656382788999736,7.375064730148933,1.8800520162499232,4.596090217220336
5.372445174603518,0.6274062759198724,-0.5993879628125579,8.183599514562182,3.521280281872617,8.271701260198663,6.204029171038439,5.019290067963738,4.251588468646819,5.045430150785908,4.138535603381429,8.168578062434202,2.3606304395720805,9.10113862352368
7.361864094834342,5.141995345131869,0.0850591847847195,6.049168169153692,3.7595654857756986,7.217730419408943,6.362060202441869,4.701372711813276,2.6335928681156413,4.832108550619807,5.356867442007395,7.084552538860754,1.9347031003020625,11.857262588209531
8.031037330724292,10.155146703320494,1.7600080591000435,2.6445119962064783,3.179779509759835,5.484170352653106,4.013388717739893,4.57378409082558,-0.7086594829166527,4.19559717609468,5.810853631373085,5.646379290249751,0.7269686149205654,12.325032061851784
8.433865604284033,13.491562030478882,1.9700450145943604,-1.0442963258470437,2.45404198754794,3.830839482227212,0.6935538168000139,4.777119636446297,-2.4901569373294814,4.055042025282276,5.6062394685604495,5.179497751415809,-0.0118526053636749,11.390200458761704
9.384299828373432,14.003301051324932,0.46949605861581,-2.4175834608864237,-0.372537384662815,2.182420359363495,-1.4932720035537024,4.651568495725979,-2.60572469141768,4.285463103452194,5.02979604773461,5.931985188569239,0.8608645982857439,10.55940807589089
10.40819424754201,11.730749630170374,-0.1687262541121094,-5.110998990241329,-4.108786816028463,0.2885338300416785,-1.7491741579419011,3.187739463062257,-3.741095141555309,3.804148394333428,3.923295849166788,6.90342246492396,3.1064267008334454,10.648329372738402
9.987965958356927,7.664517477232877,-1.4231757934358762,-9.03784095002838,-7.768419711115923,-1.3331447494595243,-1.210011952412298,0.0057619245486648,-3.2306098963776875,1.8056969833517584,1.6613131805001515,6.568432294392686,5.074492772677591,11.001701871718538
7.051119824770989,3.3575857350216225,-1.5909131967902903,-10.458497755481693,-10.011899548445395,-1.0005258504654748,-1.7302484451692486,-4.050365361905577,-2.78342303196082,-1.18608612531699,-2.137387549653127,4.065182677663017,5.016751955329468,9.937847850263587
2.318082975692306,0.3124440132976041,0.3521472506456272,-10.205142479514532,-8.747716581539967,1.2775617590471071,-3.964335841948514,-7.315180054602784,-3.741504652044439,-3.593297361717646,-6.875032596743903,0.0059426973089493,2.576959035649047,6.2199023234928354
-1.9093557729341304,-0.7728760270017219,-0.0073972505776868,-9.213901096608875,-6.489682911815864,4.528213007969867,-6.547271282358519,-8.408760916526585,-2.9743528422217653,-4.136126731579683,-11.004247009828353,-3.746111682168156,-0.8582643233781511,0.4658837061322458
-3.5051044695117675,-0.3912783854299597,-0.2271639682966343,-5.701898349238994,-3.226742514106763,9.916073945693084,-7.168621451113019,-7.137299390906392,-2.322931636208404,-2.9169827662694168,-12.889552174966756,-5.2662101635462655,-3.21400322953642,-4.782625682780552
-2.289909813676225,0.2084130261845622,0.1626547534291915,-4.144607598406031,-1.201170099600204,12.049929656581362,-4.606112938451936,-4.512598129348298,-2.899802737827915,-1.223262118012716,-11.848821508087926,-3.93318079786685,-3.2628996542238866,-6.732342265570324
-0.2127645902934922,0.0231303422304876,-0.7714961646954277,-4.966162604317251,-3.1697957015890634,9.388582353118538,0.082750122029239,-2.01184890038477,-3.079881083750838,-0.3652475494587719,-8.655882892848357,-1.017417027619075,-1.4376655664766531,-4.6665810541889
0.2030519637681926,-1.0128863802848258,0.5812846641470844,-4.045949343627223,-4.829828815251387,7.114963342474356,4.263473286034245,-0.7486534207317064,-3.993717197455486,-0.7519452177197969,-5.239743702478211,0.9690048287557892,0.5606665002343831,-0.9854103998365068
-2.242850245699511,-2.259355604427697,1.7169005130721011,-4.640210136992106,-6.9294556605887525,1.9347588503992807,5.715636745226735,-1.0828019307506551,-5.678344225771569,-1.975761000681548,-3.74731165122364,-0.1577442267279742,0.9203924162096352,0.2381812843912172
-6.734291675554161,-3.189154964278288,1.3024666693438776,-4.308129090285423,-7.893242282822858,-1.5124109784255968,4.232374927578604,-2.654897517568568,-5.678405128399072,-3.519936744167591,-5.340569925650716,-4.676092097567977,-1.1622549960697182,-3.6232038508264175
-11.265300874276347,-3.86801604217402,1.3757648594730656,-1.5855571076080872,-4.003868591266509,-0.2338343642785879,1.566607284819426,-4.54985181510515,-5.294655792632272,-5.141915034268294,-9.277403834875074,-10.409760723112376,-4.978640775260661,-11.385745770507814
-14.020134158582431,-4.620866924460035,-0.6004188585438262,-0.7392236554810507,-0.1618479657681125,-1.1593732347411312,-0.0820660419819692,-5.513007192429882,-5.291661675146672,-6.576784272092297,-12.977921375174311,-13.783165983462323,-8.61221981763215,-18.53066761486058
-14.193765328520996,-5.39761426590027,-2.3803407617504644,1.3815131469193274,4.296034689092513,-0.7005638565310134,0.3132941870187533,-4.439831049210852,-3.819571514303056,-7.173180278296146,-13.456724402769126,-12.097458950530164,-9.963903786663716,-20.397336178343032
-11.98683754965503,-5.707633078270554,-2.0589203532735154,3.522178859996482,7.629755771773858,-0.4437592697197938,2.133892052848754,-1.1749873106946485,-3.894443036253521,-6.225497452730817,-9.484191130546714,-5.625203337474172,-8.091362957682504,-15.67443890453395
-8.254646177528256,-5.265546130334744,-1.245299027646154,2.5792109331553448,4.675459902488145,-3.783868917307616,3.931780952223885,2.933853331439481,-5.11791768860535,-3.874445068374335,-2.8491206176188832,2.1443416969994,-4.067595413119809,-7.399823917709682
-4.20173247699544,-4.520559872682298,0.9909215140450798,2.762627841811011,1.365581280035664,-5.327308622849491,4.6468721115898575,5.518813079249153,-4.939290304999514,-1.536123260055291,2.6525859129816336,6.702809454625962,-0.5379340380233852,-0.623975173582485
-0.9964130600620128,-4.235561581199493,2.684715618451153,2.4427501790722914,-2.5168877795141364,-7.423370514421016,4.229031369976411,4.797610069830995,-6.514000233727029,-1.0442805284808705,4.10762064824525,5.821807955702125,0.0746045964082515,1.426198780804386
0.8820705841202727,-4.388983747606639,2.0489792657906905,1.504240173542797,-5.63845669274752,-9.205355258489224,3.370786721143024,1.1912482176875674,-6.468611569270506,-2.99531184131158,1.979430508758865,1.3760842928346635,-2.450990613162912,-0.3509376825339894
2.1836002448573257,-3.6760005707897614,0.2410265440390349,4.23470147143395,-1.5149625095786512,-6.813115076661542,2.796290465035427,-2.588846671593245,-2.975175223799633,-5.844190212200063,-0.103942724262585,-2.0352754754586897,-5.657828187510383,-1.9404921470454788
4.544791429621185,-0.5066318203080735,-1.1748177309908727,7.013458820161875,3.228096545109408,-4.734347834446175,2.734406293271604,-3.4393283354266924,-0.6834738775734648,-6.862989700400068,1.6364345170110424,-0.8088980285910257,-6.140508804455833,0.3600574421555933
9.080713105400472,5.184356874530847,-0.9034912598050924,9.126746564992525,7.677967713942891,-1.8326112651829227,2.8740709251802707,-0.3783010809476645,3.5971880257878803,-4.3705281178446285,7.799002128267318,4.63220502240043,-2.2844621662911964,6.882740738450416
14.93101974789285,11.151390220385489,0.4969482935262939,11.567625447721252,11.85507994056351,1.239819925930855,2.69293583688578,4.493242512610665,7.397151500486634,0.7146620459694772,15.097766337623751,10.164509208110925,4.271157466564089,14.314342524836368
19.27862905364445,14.205205872639675,1.5415548459555095,10.456025700222575,9.207247795741814,0.126013405292668,1.863197151623802,7.555255359686398,6.419366016213084,5.514173126941925,18.974648027138173,11.487222538667575,9.824341145027372,18.32498278968397
19.2869718471739,12.770864648944276,0.6674046931375694,8.056868645615545,5.298102691448127,-0.8397253725779423,0.4815614201101432,6.519887391471057,6.355835214639936,7.572696907714845,17.266811899378062,7.824088202888857,11.559049563334746,16.916309901090266
14.54013605871539,8.291778126690014,-2.337718703670122,6.37876607823363,2.31438824598618,-1.407553051443306,-0.9876422422708212,2.1749689926000464,5.780840218182908,6.867394926224053,11.769937078641544,2.55143972887274,9.751726634292332,11.840321070987152
7.772721159444409,4.040270225294298,-4.371375435176171,4.25358059085929,-1.4654757507844076,-2.93027017769874,-2.000592355761226,-2.379447181861158,3.987846450065564,5.607949658308023,6.493357090797023,0.2026456036312165,7.332300698709339,7.093324665286685
2.9827830460037656,2.3610505514445013,-3.019488297560872,3.881728905912806,-1.254488850305581,-1.851664726766321,-2.260797335364895,-4.21309702038425,5.284690476995763,6.035040329010997,4.336466329589237,2.5256322018446014,7.216811997635592,5.820939954493156
2.383063685340254,2.9273198985365383,0.1669781993895889,4.209492961365376,-0.0174801396125749,-0.3283375249003231,-1.866816908399063,-2.631892054287114,6.32417741599747,8.303676493935399,5.120941796357744,7.080696604550045,9.793087692238426,8.08690220461121
4.803363815014107,3.5684815862414467,4.314743696890166,3.349063384993679,-0.8322434053201806,-0.2728385291481078,-1.1962216200123628,0.7095768419009332,5.860822855239528,10.442524992878216,6.437757087911688,9.532007738160086,12.763729938631592,11.100730231549
6.894708398991359,2.635376468263976,5.88218637087429,2.4308504451722084,-0.8671860553794409,0.8230694860990849,-0.6357852640361763,3.41553610099154,6.215204904408459,10.373468893680949,6.157403425861016,7.473492933790945,13.39187445213522,11.521565100543066
5.963359942669246,0.4035323976133309,2.511675608831768,0.5839413700001175,-2.1661397837472665,1.681809950923529,-0.3647047455979137,4.163441856523066,5.677280740907121,7.987531395182504,4.167425949227491,2.355168456805856,11.025060918201506,7.963473642082322
1.904600535324029,-1.792270569296733,-1.416052449111925,-2.1194987706916137,-4.973103135798186,1.4729531005086696,-0.3237485836773288,3.3553990477842,4.004741230311126,5.233215986641458,1.9506762921319911,-2.072113165148151,7.57159149485568,1.8577614189538243
-3.248705041420372,-3.4650084730088127,-4.88602847676043,-4.306337305556158,-6.091480359428516,2.618314374415545,-0.348885202764607,2.3740172833447506,3.1715586093951638,4.129034402643058,0.7761956549259219,-3.192780489613108,5.560699834806105,-3.8126193158426034
-7.356828720614392,-5.608442616503227,-5.388815614437929,-5.907301619180893,-6.701211256007777,3.3940845270974425,-0.3397283442876517,2.2629386572103822,2.962393761578565,4.669993866960184,0.4333560907983509,-1.6671054155885487,5.70412117381945,-6.797880183927376
-9.725969235576356,-9.285824272604142,-1.6267503216610475,-6.266532613158416,-6.946717140638507,2.651766788934891,-0.3207102508005173,2.912182607540412,2.5694331808623097,4.7438277659553485,-0.3444091969861311,-0.4673218464394577,6.323540260760816,-7.088237194082847
-10.967542010732029,-13.838923648477165,0.844715600669087,-5.699462413876226,-5.539241770963813,2.704065252980731,-0.3289001268024218,3.314192404090045,2.812098915244528,2.238892153763416,-2.3708508252632434,-1.892473904356172,5.167668946213011,-6.520677594902222
-11.77344601963126,-16.94562209125215,2.422581137549437,-4.930968728910639,-4.145822996752933,2.1411152233585438,-0.206888346669992,2.6322731710561627,3.6349991469298177,-2.6380945755919845,-4.9790447721202415,-5.356605838744602,1.7935781751651838,-6.894770331366745
-12.0937580815793,-16.740366929413543,2.6074718071343685,-3.9284613056186353,-3.6703246002062944,1.0472521661437548,0.4863012483380236,1.198954434903024,3.741877283006677,-7.112440238918021,-6.420441003762329,-7.838138200447197,-1.8594060521324032,-8.23629029947925
-11.43614787967718,-13.815774856162424,0.5638520012675723,-2.975924109926305,-3.024861872270059,1.666941507381446,2.249810218481864,0.546786383564374,4.484498740263013,-8.03541274132531,-5.232391588540695,-6.412984382981364,-3.263078860875772,-8.741048944768977
-9.667757446967304,-10.837232027417333,0.955196870233606,-1.814235939320304,-2.4112139943869813,1.9997488750569272,5.16278616547376,2.273080220236185,6.1006461033074455,-4.584773152491817,-1.334363116413586,-0.6094997711228922,-1.6646341898753665,-6.475161713232906
-7.273747365972357,-9.944999302964154,1.8077958792732645,0.1233088522792134,-2.1590597220360848,1.844797383565402,8.531560575406388,6.535435165256748,7.120488690584361,0.987399235612452,3.962521876251445,7.244251708153511,1.2959283876745165,-1.305063553688095
-4.821994481816002,-10.531533505331192,1.3897921459179543,1.6761220152278256,-0.978507410959536,2.702786730173688,11.069673948275266,11.466286666956275,7.796944570738653,5.242293000304755,8.83585017373165,13.6663519863702,3.2244831383787727,4.7315888745723935
-2.36224720735614,-9.75136323273208,0.6757743247108655,2.2528386914435337,0.3866488230174874,2.7901754780528853,11.613928436970554,14.207426377913276,7.353341776674092,6.352234211548698,11.923344789686348,16.17609126651878,3.12862283140548,8.9778066441067
0.4585034008875723,-5.398263300161977,-1.5014172703395068,2.9507818189134425,1.2636030529838114,2.528049634716217,9.861524667132242,12.936608993852284,5.861432800266404,5.302202658040516,12.76591767868392,14.45391232882915,1.9541484079948648,10.175673624129118
3.656308059708735,1.6580769372673227,-3.313762762445413,3.210278464633115,2.922927695356349,3.3863531824367747,6.526827654373461,8.302298014726054,4.287791492809821,4.534081212410474,11.657800033765962,10.041880811624027,1.1495862856690682,9.080757222792853
6.419196280817346,7.933078145778376,-2.8166269420580097,2.9592878193546537,3.2244958588512365,2.7757606569356565,2.806752124940489,3.030442378201215,2.480527391616499,5.439804302661264,9.219233063429648,5.143510337584827,0.9355564257113382,7.253336990283001
7.549890733794756,10.334293828193877,-0.8125021248943896,2.913601648676441,1.6630312772004252,1.1606519181083592,-0.3454225814589655,-0.0647832852803169,0.8340429624628097,7.072362191427004,6.0425329849200295,1.4151008521716797,0.142110832984736,5.450945382533392
6.540731199788864,8.890537996664108,1.2382769268929836,2.327844939533122,0.2759561752327445,0.0302982831956115,-2.5389669917486835,-0.0995763820627981,-1.024661065494508,7.171060055514593,2.595366834033097,-0.622901791048081,-2.278355380278917,3.3389910693841305
4.227161191083779,6.6489882761340855,2.846619931817518,1.0371701832456517,-2.67206661508671,-2.77816402293793,-3.757743559440767,1.4227580307618517,-3.689833288489293,4.389621449115696,-0.6568962320498954,-1.4048936558220149,-5.749193494658996,0.6606048355112311
2.2645698076507905,6.874681597387633,2.781519371670936,0.4530090185856643,-4.217135825678293,-4.73325353788565,-4.095499774314273,1.991976367824444,-5.967168647152136,-0.4167247235006179,-3.1395324910209688,-1.6620619420103218,-8.252311916493333,-1.7028244813284594
1.7833289974429007,10.154315502388208,1.3069485272339143,0.5771477811474326,-2.530064815352661,-5.258093675273376,-3.8083642403851456,0.0877484659861238,-8.114134639451295,-4.964674338479169,-4.325729694464727,-1.833688975386197,-8.126020003787598,-2.247277706356119
2.428087159044537,13.972007080916915,0.0316256165034696,0.5012805652968847,-1.47283409075659,-6.917172825863919,-3.545033302040057,-3.8172492503245614,-10.777070544894308,-7.513571489683612,-4.163704261368881,-1.9873106065240196,-5.748442017509049,-0.5488143432061676
2.701712827739609,14.978757793544798,-1.5990825526117574,0.9432994624418526,0.9443700230184237,-7.511612807910691,-4.242558043812096,-7.892708891067169,-12.820509441736736,-8.149559671210493,-3.387001217733822,-2.211181771596792,-3.4428499406189417,1.7788628270852485
1.3435899743381174,11.829052455086057,-2.3544958050368443,0.475814604569595,3.179315612098994,-7.180668326737617,-6.476312032807698,-10.473012478509194,-13.66280069089538,-8.307545242754458,-3.235226930585537,-2.954660514371767,-3.620254119510001,2.201124234666974
-1.4926635162451252,6.1881219959443285,-1.6820841317404822,-1.603719436868749,2.83376544043337,-6.266791594972153,-9.747703976448276,-11.12013749918894,-13.06867635258597,-9.173362535312313,-4.579032954210344,-4.807820520724711,-6.801683504973635,-0.4366672162845901
-4.305864816054816,1.3115009010967142,-1.29180169989038,-3.5782165574791285,3.642203169031416,-3.6396607862164014,-12.491319381830824,-10.495940533434442,-10.981087058432848,-10.55351715035452,-7.110623874570539,-7.809451693611097,-11.219296349094812,-4.730594259464635
-5.45097410023654,-0.3696641267710738,-0.4118194985884676,-6.354924769560585,4.382992213218815,-0.412550165257901,-13.04016767399983,-9.444890153307329,-7.72328326500352,-11.176644497417389,-9.406508679508748,-10.982257596160244,-14.223167534135609,-7.943673724993856
-4.381341780287418,1.2886155439714653,0.4934493838535397,-7.292494611999906,4.269982093177836,1.5734243459398285,-10.858990137535711,-8.271651068142504,-5.051536066926543,-9.9605153313462,-9.991268904758174,-12.719128723373128,-14.173880075423506,-8.455627598733377
-1.911520501011431,4.459270460888735,0.3649940539632768,-4.965331492873337,5.140301259658985,1.6898596863482995,-6.987850819611676,-6.797886979611917,-2.8644760724495617,-6.964890270301229,-8.576946053106612,-11.86524941721297,-11.28065005840404,-6.99642132256786
0.5460714759445189,6.803655550737977,0.5389302778844093,-2.5250897464696123,5.523526767965408,1.3614228341717614,-3.278024160838056,-4.932160931151376,0.0946458250470787,-3.228943641240692,-6.3672162189063055,-8.612464541019683,-6.985996966959361,-5.529220991274213
1.9660144516857048,6.87038285080528,0.8983144932410854,1.7762850620162955,5.218818708331602,0.5752398991171803,-1.076404013806192,-3.046709644152992,2.995141894503159,0.1622043488764042,-5.06628445297847,-4.412114611118039,-2.770536235142588,-5.107422329129188
2.1272746617374167,4.674441345246292,0.9087989185252784,3.7412211819584273,5.103420044231965,-0.736132931137022,-0.4811576651476201,-1.775522549336355,5.092439901188567,2.800386293096759,-5.38306785056195,-0.9715377618065482,0.5317966399875473,-4.99013626720742
1.3735168215066338,1.4177206785159626,1.053143368022616,0.901797330616342,4.497798749085324,-1.816287241002047,-0.6956095450481108,-1.4885160084902296,5.429307613157287,4.8765259770164775,-6.32242697593953,0.813105497740958,2.6410022537897326,-3.7950648810225225
0.2087230649860831,-1.2980738898779176,0.9602617191806316,-1.2706784354999403,3.327979414148387,-3.5433809486081134,-0.9638737343505106,-1.9819091742074075,4.629676480039897,6.594568774860859,-5.925826718548095,1.1671234290881198,3.51347584399255,-1.2347692124075138
-0.8397716636709598,-2.352330301174238,0.1375496881391686,-5.575340463726519,2.0500345217557627,-6.447617135631711,-1.130220753601261,-2.648926730648073,3.0285038018970587,7.799638120754514,-2.9058022469976823,0.921629223883368,3.319600649005288,1.5235617593841173
-1.1551370433526396,-1.6765854587518518,-0.8002967766376501,-8.174581904054563,1.3529887315229432,-7.518051235938318,-1.4099058402143383,-2.9335068573288563,1.1603492649939753,8.15879846543951,2.14107033373851,0.7762587186052006,2.585145372864436,3.157309559108266
-0.1413544705291567,-0.1942777678864304,-1.3286210077306873,-5.659902792538,1.1773385999282024,-6.132844295861831,-1.8410174148622325,-2.688897866643108,0.6439784092476231,7.55947721463807,6.922314050713614,0.9330395522519196,2.0152723102472407,3.5432968868120804
2.327139519573838,0.8606455710298695,-1.041304626648261,-4.523588395559703,1.0314897640240432,-4.801625574269363,-2.1390839965143167,-2.232657693021346,-0.4713691106855319,6.193964595777317,8.897016394594504,1.17304368295631,1.919316607753915,3.5854002517448738
5.462057468072891,0.7764800437131827,0.0763748305660776,-1.8303457315032472,1.4736512092983916,-1.726090569378469,-2.089690055543482,-2.133259331087424,-2.694720702793226,4.248077210433247,6.885621345584183,1.0808747049064245,1.7823335554463906,3.771227609211274
7.704501190059084,-0.2688877072085995,1.0879454407197025,0.8294329695245704,1.5959979105396078,0.810826472236233,-1.9129057495847637,-2.8554510939678845,-3.254780171379508,1.6467721627883003,1.7110785999224802,0.2405155986832872,0.5515141069111671,3.237439225148776
7.645095154014145,-1.511808037558998,1.0683294197728774,-0.0591121724745217,1.2645141384576777,0.5277947857210115,-2.051811592677012,-4.399050694771402,-3.754976343763538,-1.722135065817442,-4.4316493804950845,-1.5069180687011563,-2.474549726014236,0.5897949309473791
5.149827174537391,-2.198027020206096,-0.3628033237580185,0.6769001107817333,1.6430403438880543,1.391550467867874,-2.54787364870929,-6.119342923186581,-4.591781118563835,-5.47337089600246,-9.266444473600956,-3.7368846616446527,-6.90954190368369,-4.290881459371039
1.7040971570346368,-1.9466613615660284,-2.2736940228294173,1.269346406058701,1.796430024834059,2.138831409895784,-2.735249954935952,-6.948211252786036,-3.371814458141712,-8.52836584493226,-11.498405222758088,-5.391560485775885,-11.352809819526207,-9.476918322255974
-0.5304047688273856,-0.7704418896737075,-3.1724904048176605,0.930238755084006,1.5402928122194317,1.7473161871832632,-1.726070386886431,-6.032554270875461,-3.068085385699086,-9.678440365033412,-11.166785430330425,-5.374624360693805,-14.21653478687587,-12.333468949979942
-0.3358623934639722,0.9628324963913926,-2.354206143719714,2.304365307514959,1.577719038734335,2.560803933813788,0.6902113195539346,-3.414300577501004,-2.672882490456912,-8.549309896545624,-9.353063328453436,-3.536707191232252,-14.65490742131586,-11.837420904360055
1.6253290553221018,2.482742636071163,-0.2553992755454493,2.990311686499764,1.2136052221389138,3.0298835285212324,3.6249039722844736,-0.1727104713145402,-0.0635627532222427,-6.078189069705736,-7.527068884318002,-1.1180785216295757,-12.961491463526611,-9.58442097098586
3.451802480677215,2.780441095200413,1.825045456147429,3.092311187435661,0.5444197201655521,2.2852766485563683,5.634894139524031,2.2308583271363496,1.4269731970041262,-3.949940042492552,-6.764716640696735,0.0866257290850622,-10.25958407005936,-8.351308362048357
3.7079917389710175,1.2875479648100407,3.007594414525029,3.6403519221566687,0.372013058305177,2.7412442721382373,5.801784719795655,2.983695089440319,2.471148356107137,-3.374614898254736,-7.100530002617205,-0.6170486397034551,-7.741800251174794,-9.452283160954003
2.636391774601057,-1.2947926678260924,3.0935307950101443,3.176299474542605,-0.1103273950846854,4.00637372241269,4.400889633182652,2.497461027059585,3.046260276333,-4.223240781111015,-7.417331935750324,-1.8781794330188708,-5.9038400155455815,-11.37152167800196
1.741905497679328,-2.9726984186510217,2.572108440912643,2.3061359992092654,-0.9751795501297076,4.494546363045745,2.6103073736257087,2.017037493491996,1.874960031414174,-5.2386684464517534,-6.15477924985174,-1.2436231413879026,-4.2273274231995845,-11.027336741604106
2.168712472778931,-1.7742716408845585,2.7503332431578964,1.5506885793239933,-1.4281408649805007,5.973622702993785,1.5857159362158582,2.5754369332122278,1.0340728729920028,-5.082286957284721,-2.5307661349462505,2.5536333916983764,-1.5996542298430647,-6.5884140023031055
3.466544404291721,2.395261217071632,2.336962295733996,0.7467290927616101,-2.2732879047060304,6.930564223345519,1.7174875053155567,4.183670014234728,1.174475957697284,-3.2944285355939584,2.6375508339039184,7.998820254623927,2.6741997054091486,0.6819788125866095
3.9487225063211406,7.071044328912059,0.8186512335435436,0.4890887637065121,-3.2983126523884585,5.325734827958337,2.5976191663825388,5.918616042429277,1.8038456432880468,-0.4472991628086014,7.318683165412553,11.57209779851345,7.96885072487598,7.204651694577029
2.2826206237965323,8.728920600613202,-0.391789849123171,0.3811174252909247,-3.8446752348127,4.0086066646319605,3.5363837789967807,6.76498401745716,2.800623571626716,2.429619366467751,9.697618246397248,10.489600819918136,12.385257189348408,9.801438644274567
-1.220775087140801,5.530319367880782,-3.052865997131654,0.1618860684616564,-4.893129065206989,2.2772985494386946,4.0733894159251,6.431977788612926,3.955533308839394,4.504551120327466,9.491058236420066,5.095346785838943,13.948277087148451,8.017338591062883
-4.8093577344252445,-0.997850658269857,-4.461236647350072,0.1450388048845698,-5.217931896437254,0.1779259410591325,4.113248535689568,5.466397429060588,4.204194479335667,5.391241323032321,7.997937601311015,-1.25366930139299,12.113868441850578,4.174201227816182
-6.736578214567935,-6.953285051999981,-3.1715345751520454,0.2256696221677706,-3.961879108097551,0.5840292590865265,3.763043723175856,4.672140811068157,3.0907268601095605,5.06794978346939,6.860808261040646,-4.790493663086721,8.295333942851311,1.3098263675184194
-6.587021148981311,-9.01147706667312,-3.547284442781467,0.4082399292710363,-2.6286327181192632,1.160665502258609,3.173548478235709,4.4434333752876745,1.9442680365366944,3.82579027233061,6.70949136105881,-4.203861262851154,4.854609651062164,0.8799226928645947
-5.33383853480969,-6.846511620328972,-2.9927006972422228,0.9376800600827128,-0.4421835203582547,1.1186494456930802,2.5354485397795767,4.602019339968734,0.3041424285293264,2.3308869160449976,6.917927331200661,-1.3427322644481912,3.3638483402679755,2.0763176345862355
-4.209846481485485,-2.991987527462712,-1.589532345574218,1.4089728601065843,1.1113613948300718,1.7719810410809644,2.11982784489682,4.773522543497641,-1.3416736015188653,1.4941465404270948,6.5611343219594485,0.6934076900607682,3.631690323082349,3.047159491433312
-3.530319670884438,-0.43616472943439,-1.5887225952572346,1.5880750838324529,0.6400829196308074,1.337252357620666,2.192896373778022,4.821120140505867,-1.320374679605818,1.9218131781324803,5.468383485203132,0.2452717307642524,4.2862688770818345,2.700590564596429
-2.5669470435016564,-0.2278843934675309,1.2373037045700916,1.9638378705934971,0.2188474237260857,0.4014380492729564,2.812764715026387,4.863526186221398,-1.2928346380836029,3.2670203327591234,4.257574713763538,-1.8003119979799216,4.251576729096823,1.4904453777905085
-0.5479268188708275,-1.1652188805997232,4.261848737859588,2.349294070095968,-0.7066357001286774,0.5120349008102231,3.6969258071747664,4.900945927865814,-1.6271977714274424,4.173327134620821,3.4035505801675283,-3.252862554681772,3.665152446586692,0.6865161981457213
2.214054647482289,-1.5354478305925934,4.300023194312272,2.3884367343098614,-0.93619279071407,0.4077668743052572,4.331118325298217,4.535518164651005,-1.4137510412351115,3.139999385814268,2.4834034301539054,-2.82667507800332,3.4228865340905505,1.0114730502109728
4.224892273443388,-0.9649836134188297,3.7026107835291846,2.3823900456589286,0.1743474896194032,0.3469310506843965,4.290365092297943,3.210000473565902,-1.9581661082282176,-0.2329913459489505,0.5623274830896827,-1.2194732881683628,3.935757840998084,1.9692797127035917
3.975559705293662,-0.5421801229179515,2.406838106558213,2.27220134830788,0.9628450405940666,1.0747381858506797,3.549674795331873,0.8285162754455548,-2.883335959846604,-4.689527265263048,-2.614448716944155,-0.2245880794151444,4.437572826742565,2.4132973222104663
1.3765620253140014,-1.2815175015115186,1.829385136523742,1.780107647903053,2.3996277538338866,1.3799160107665387,2.5396295598452685,-1.8713782333615905,-2.965960336041506,-8.072185711595113,-5.975086189000376,-0.9362874123946092,3.568364533803845,1.706658425726669
-1.9288950296115672,-2.7277518390742443,2.4700441336902936,1.3102809170420682,2.125363547350951,1.2369900762692914,1.870975702831256,-3.705854107601186,-3.2078873165831583,-8.89688143301264,-7.920107033212485,-2.83228272170422,0.6479337654226311,0.3157159955959248
-3.833408127929306,-3.31590132813478,2.202929296035303,0.7802573630210649,0.1526993703160147,1.1988247534420586,1.8995597601149197,-3.993965924359255,-3.5816288517089787,-7.482300703132003,-7.9136048840485556,-4.493061304849597,-3.61453723095263,-0.7195327218333603
-3.581133947863133,-2.20337791453404,0.0158685052382487,-0.078861932021847,-1.2540861808734804,0.6791452340942161,2.4532319071483366,-3.237505284567476,-3.3626901919617747,-5.673349636358207,-7.195118295769228,-5.080524594412597,-7.617051361775606,-0.8725399200800803
-2.442359144759095,-0.6186012632871503,-4.550078366982089,-0.99167151949599,-4.707149694365569,-0.0828522564736275,2.961788276611021,-2.807964398054019,-3.3980330690705767,-5.339745170132013,-7.657901084890212,-5.050708460903687,-10.011992859449832,-0.6428395994400447
-2.495582852444855,-1.0801215081288689,-7.216328047301127,-1.4476739025079015,-6.188610264706289,-0.0974582624318472,2.924846779516466,-3.77495651220114,-2.640165207314591,-6.81881387910615,-9.800555704368731,-5.440079748742538,-10.3981758381433,-0.9160854042553837
-4.540245976103911,-4.937278783374062,-5.579667325022689,-1.2050222011850336,-4.549982649713679,-0.047584912519103,2.3393720780574183,-5.848967670147636,-0.2802111446655041,-8.505861613961052,-11.770425271345276,-6.498900861765422,-9.052087574830598,-1.7716593258640714
-7.099605516961333,-10.548783732200796,-2.872786715707256,-0.8871583218470629,-4.533586998763263,-0.1033247113311078,1.6857331399685913,-7.417319276790353,2.4332512040093484,-7.913751853134384,-10.644103241028589,-7.062284206875102,-6.221694532862373,-1.9935065102176035
-7.586670463413736,-14.103255756135528,1.4516308691359376,-0.1818704432230717,-2.2470784162459814,0.4554518587059627,1.4313503657605835,-6.752204533891693,6.106831963922895,-3.4633104298781685,-4.980718336063069,-5.349535166420925,-1.8573083582423544,0.0359829337309225
-4.72338229518688,-12.69806990554412,4.004990853542397,-0.1119150416426193,-0.9294863831124068,0.2761095657544875,1.4806878740697265,-3.4442429058566404,8.346591475383617,4.216887096617634,3.6126395015901194,-0.5709084260290718,3.969179371305645,4.723132652058995
-0.0505281214425181,-7.019925892550427,2.1174175194556075,-2.0013060827871323,-4.214556313116471,-0.2274745972691745,1.1200727185180366,1.121282757463474,7.959551102316788,12.370357959674845,11.36686080178218,6.033048004691409,10.535582909312565,10.43216992095569
2.9569171053199312,-1.0765715146958126,1.091967173656268,-3.886811229913443,-5.793238312557759,-0.1646723480692913,-0.4036873766717797,4.659433337496521,7.625142984277616,17.60149931257449,15.008063634502932,11.686775243975209,16.518646787582142,14.38079330781845
1.5936234544961607,1.000256957690581,0.3901878974228528,-6.153541684481983,-8.48131746123752,-0.9173182349169596,-3.132807122116547,5.55930986835008,5.897098626390117,17.915869134798726,14.003577345171578,13.85977256602993,20.6459270974912,14.681051950965845
-3.7599491580674655,-1.656710126395183,-0.4425246784132247,-7.658027259033752,-10.724637877727648,-0.9899393155050208,-6.147615007045436,3.934441435040551,4.590708084348978,14.020618764269052,10.648146863977082,12.022578179818714,22.334300905190545,11.829529147502642
-9.683236038727085,-6.070064482220287,0.5891292607116182,-5.686196082602764,-7.021457225533135,-0.0932751934960861,-8.073940292235731,1.4100358054536883,4.9817488603250775,8.931360974728392,8.094359489926251,8.01133837738697,21.779122521564368,8.3234304587726
-12.187313036694915,-8.115806435243023,0.8935033201549235,-3.2116260374351007,-3.2891818074887293,0.1623524959493344,-7.950623020399485,-0.1000001780169164,4.013880876963621,5.993135657763494,8.026982233018067,4.676638924204056,19.575542801580397,6.655565080798726
-9.694599171843038,-6.012089571506786,0.4657796982090508,-0.3418024195835265,0.9244365815889618,1.3063031771847142,-5.7848887703645495,0.3310591501658502,3.2551425345201266,6.606666588802277,9.755962962980451,3.8412946723936736,16.34947256687603,7.335561116795569
-4.19187295498356,-1.5193785629558212,0.4917538840431688,1.9761337887860524,5.027183147261309,1.809774055628934,-2.4591701198689764,2.184306402830789,2.6986512222281545,9.331584065273816,11.196594197098449,5.1412721404558335,12.657649155211985,8.561211844858835
0.3127623901968377,1.9561379758517967,0.0943069917190305,0.5554783819452775,4.142984372352863,0.5466271976479367,0.7805608159920396,4.027845275351778,1.245951597623391,11.11282449063297,10.712975170877892,6.575652333085644,8.980738914627164,7.769811235701891
0.7784651090800079,2.3223438933923672,-0.5356045884197154,-1.2263878392496288,2.64214940080205,-0.2833787335518979,2.8056526264523542,4.518547145663063,0.4625242910525843,9.71269828249235,8.29152845987004,6.189423711423918,5.596952520650308,3.7662713630095297
-2.7426172520208616,0.1106885511655813,-1.1807938610574151,-2.9698568574672604,1.4416937747353755,-1.939933668787977,2.8664519807028475,3.161408595024369,-0.4332256979572938,5.411028990898839,5.260986141504068,3.4927863227402187,2.489427001008578,-2.2571302441765173
-7.353470847859446,-2.6472322655188907,-1.5138111860993373,-4.271900436228246,0.4331030466454785,-3.232250492462206,0.7870786178012228,0.4548353583000502,-1.4409852350333348,0.635152188283933,3.047021186881602,-0.3593238460399428,-0.3871490620779756,-7.5027563406401665
-9.547825623631857,-4.388087957883504,-1.1372788458823773,-2.244043956004961,1.4517830092046944,-2.767326756312364,-2.7938783915272456,-2.474975376625535,-1.624187361640282,-2.047696516333403,2.1547308153787474,-3.480339935311072,-2.5772546124089493,-9.425774135479683
-7.62660796620668,-4.820176830261276,-0.4558310273767799,-0.0431337024047773,2.5228895328662237,-2.813356833282381,-6.384060677904557,-4.426631955836667,-2.009590903289747,-1.79778801544541,2.1595958747378363,-4.392518846816458,-2.992193627084295,-7.269352324148095
-2.59120940665251,-4.224454498704125,0.6059477562832821,2.0160839022743766,3.3742045114516763,-2.4078667195040557,-8.18708816729667,-4.625999420799544,-2.100712424837647,0.2447438724916333,2.428979867821225,-2.7126100297680447,-0.7067065180778558,-2.337488089309031
2.857899843937874,-2.608501340060773,1.1830801550331702,3.485278806891652,3.1693039216875385,-1.9970245900440189,-7.190985751581951,-3.0773775977539533,-1.5340360197937604,2.216890110116835,2.661061331198817,0.7317067237736037,3.7557002614537423,2.926572166761293
6.227861388622509,0.0801399913276172,0.7256867094973729,1.1943433315872416,2.4793210739672493,-2.664696646635868,-4.05319589275146,-0.6444848135589138,-1.4229103720325909,2.9298551557793893,2.7320555589384634,4.229018195200991,7.951757721874051,6.298857316169913
6.654960880077081,3.09059788434272,0.0587732029052808,-1.5068129816274392,2.379137179966249,-2.728790150878009,-0.8882638874666906,1.317075703129322,-0.6973632241752012,2.261900966374035,2.292339647927333,5.936011186302096,8.791313906234047,6.7954920802801855
5.059863217300713,4.7871247028423305,-1.0170066112762637,-4.289065374127191,1.0237605948523658,-2.8884684833993712,0.1606641641075645,1.7766602708712045,0.7206246970485478,0.6595817021979027,0.9054095741608634,4.943537687080001,4.910059479704378,4.960886582888019
3.2061458542522256,3.92979338084818,-1.4473613380886632,-6.224144110839675,0.9370294695081808,-3.008510226336732,-1.439284524159806,0.8573647891470006,1.2415612595591567,-1.3203403470510926,-1.1917079832716766,2.079639302222068,-1.8296004147544416,2.4089794047790054
2.4538453898661743,1.1378529308830163,-0.3476929588947828,-3.098452422012024,2.2429555297443957,-2.155912325350321,-4.141173321569124,-0.0442000729306393,2.6180484387301552,-2.940719220868946,-2.619383118696033,-0.359237031816126,-7.287729879880753,0.8645683330345015
3.036061952936767,-1.1973360705930096,1.1698082550184996,1.0195662397559264,2.197613237592852,-1.4605866891251305,-5.5058761282872295,0.7923124361298601,4.528283070692047,-3.188110277330732,-1.5983918674139286,-0.1270584048274079,-7.999780532411221,1.1712892486390771
4.244480551375908,-0.8311249830159149,3.2953898036587965,5.234814934556587,3.7703599034613706,-0.5569275423560883,-4.099899014844504,3.9358955878646897,5.419325348049504,-1.3459265738874215,2.3919636824636434,3.18063333221461,-3.82266133937903,2.8356307130045693
5.264737820737571,2.286620831273323,4.105406918782108,8.921489189471076,4.902543925921018,-0.1366880813473397,-0.5226532087182347,8.025832631438481,6.146575250022384,2.0089882558272096,7.564782902107726,7.566873354176346,1.9247313439121176,4.435633293693945
5.939951096820717,5.881754456089196,2.016487059708422,7.8388970640209905,3.099978746865925,-1.2083963120050611,3.222733437757745,10.555425530807296,4.4328154506761095,4.7573838194324445,10.691918566629216,9.96254768715928,4.950279184825176,4.64074879289702
6.815189860442587,7.3989645590941056,-0.0413590359000341,5.687190056868705,2.281974327674257,-2.5681508276527127,5.323554240055253,9.778906460078847,0.6955533374610806,4.518684216662286,9.489002758650166,8.50938585565377,3.0623772017901025,3.1070970685806287
8.447725429179268,6.327400914889813,-2.583527657153226,4.010014630292062,0.85864359103928,-4.4555975443772775,5.2809336838956265,6.169363114281372,-2.7940506639416154,0.6886000923460216,4.52642083071922,3.977544747048931,-2.546603065298674,0.6014382397880196
10.658504934798543,4.597189018148551,-4.161038813935012,1.8205116551288172,-1.0148476200305725,-5.414852516709419,3.7621220122801375,2.070278002044124,-5.2936369976890125,-4.644275824629523,-1.1326570812981638,-0.8320277292885034,-8.53107667897078,-1.6536366027375171
12.483699647937192,4.688624964114336,-2.630433531487107,1.000293792534309,-0.0538650072533981,-4.804350160867256,1.6599790017918776,-0.2628131335258166,-5.035599817521552,-8.054915848362418,-4.389722862806423,-3.202323489420351,-11.868102778973238,-2.827031553340169
12.923443000778732,7.282245876721218,-1.7485415186976447,0.4057282403459847,1.018872721223106,-4.14830870947305,-0.5541363238747454,-0.5195606508829815,-3.3559581488805224,-7.483247156890648,-4.536354926399666,-2.43936970237444,-11.664149308267689,-2.8998877914708725
11.799516477159466,10.660902880367322,-0.9898100381358794,-1.5176628383216453,1.640412678702723,-2.6423160815149584,-2.662273863428319,-0.3919795716866279,-1.6596868707768333,-3.933465511733498,-3.491443404559217,-0.1597051784495438,-9.295540571825644,-2.492480383703704
9.91665984970007,12.35540916038946,0.109156745250095,-2.559316490969362,2.985641257835051,-1.5757686153845625,-4.201545529274455,-1.7771958047753635,-0.6305695893953985,-0.5797519389521266,-3.687751089882677,1.1834033512354072,-7.210524803345045,-2.352623499589865
8.393347828112587,11.427576363356076,0.2513314035667549,-1.4337266727807958,3.783395689257597,-0.6675285737505348,-4.444104004446608,-4.824654672941802,-0.5487165389200884,-0.0272189402606279,-5.62170448000004,0.2770090098839697,-7.357723893013368,-2.8414381345976416
7.792214014699086,9.292711235098231,1.0807233108736094,-0.2236444131514842,4.174096894885217,1.3491281162948523,-3.021570828139443,-7.693441311138876,-0.3869839678812614,-2.180553674284893,-7.392345102040729,-2.149478919314816,-10.069487584004582,-3.6589180659703953
7.791649650558004,8.432077352612357,2.8042754362381177,1.9434334482336093,5.382755675210569,2.862385492836084,-0.5283281687571124,-8.263651517237168,-0.1069347777755334,-4.603202964472651,-6.684236968979268,-4.157250261424861,-13.879905569639902,-4.005249527393866
7.56181917300029,10.25074574385601,3.5165427765490405,3.824955148567805,6.024377949607768,4.184185157480167,1.6469322449872903,-6.182106354064284,-0.4717611079874706,-4.949727288298096,-3.3414864680160195,-4.418174612077592,-16.45228116048419,-3.2670422790946265
6.396275264181993,13.946670318040656,2.469324873490956,2.593230102553973,4.257745964816722,4.496561490713,2.255935450942081,-3.3168359066186275,-2.623585853118509,-3.205241207927628,-0.0978233225682938,-3.491825572726131,-16.300465591493023,-1.9175799855162785
4.080937565007645,17.200444059317032,0.5111965607295305,1.460276241038433,2.2565191436401397,3.414265092625098,1.099905654713968,-2.212850053934853,-5.873680744259163,-1.7497775161662394,-0.7037644840853989,-3.490183466799005,-14.28553973528515,-1.851850486698062
0.8773611457554296,17.919420573121442,-2.9788922755752667,0.4954712378712435,-0.1589967535272474,2.643958544422397,-0.8875899390689836,-3.998028801581704,-9.80076480316392,-3.301813029414639,-7.032846910139756,-6.388109779739153,-13.583267821641885,-5.481278180768579
-2.652242083186568,15.588928825305072,-5.100772037958948,-0.4152102794107432,-2.495746447140503,1.9655905394991984,-2.4221159316871805,-7.606557457712471,-12.860224826151676,-8.618640913653547,-17.5859601705557,-12.33758722901962,-17.642372873280834,-13.86765035213488
-5.780669541507801,11.36836632614007,-3.29358879459,1.602777569430262,-1.328466523158192,1.5892267755947378,-2.800995042129357,-10.8659153040675,-13.538849679941007,-15.856938065224782,-28.479894775129612,-19.315317010515383,-27.300968966689712,-25.270086470342875
-7.755589538208131,7.152006125050663,-0.574823950937627,3.982201589709788,0.5383019186582905,1.760998279375225,-2.232965539299997,-12.29303446468113,-13.964213874454904,-21.91776098869005,-35.89043812030258,-24.35310670290424,-39.314693627121855,-35.53479142796389
-8.07319190618819,4.420386575939689,3.236872593625097,6.007019716459983,1.8969795430469103,1.310895729849517,-1.4447748760271528,-11.98555937042305,-14.03256578779632,-24.498714626129903,-37.98338271147694,-25.40050727779364,-47.82437394265006,-40.40743930373186
-6.818166527796519,3.5667789453942707,5.11148269901043,7.23072985908452,3.199771503657284,0.6729824676897054,-1.0650936981877646,-11.050160429058618,-13.10742919178364,-23.2821949016124,-35.21683592395881,-22.491966209862078,-48.042627908200046,-38.1644320558881
-4.773857003948393,3.89435670348029,2.068953760144544,4.759046280461458,1.6204167772641032,0.5916475665875969,-1.3147680604516068,-10.392717497872578,-11.96273737013662,-19.658085872208044,-29.393000444111,-17.498052118581477,-39.49033943311848,-30.53007541805285
-3.062285264029563,4.117850177393665,-1.370149680110493,1.2606319308383034,-0.8730563493874193,0.3005009442216387,-2.0647218570187764,-10.058034713558664,-9.613210075596935,-15.52746873746834,-22.510714117701863,-12.754928365459223,-26.248794428363954,-21.184496559606284
-2.44121225908492,3.0803083114463163,-4.83751494184898,-2.598009508025178,-2.712370344998537,0.1039326172681104,-2.9510882923607644,-9.49734204557124,-5.8089811857086335,-12.145844236669234,-16.02722989800971,-9.551662341429743,-13.969402014987008,-13.132905169918516
-2.748798453599842,0.3750918810216399,-5.948723343708141,-5.537140404942234,-4.072131581559601,0.4286175528890272,-3.366224971443355,-8.187973380757171,-2.6539826552387864,-9.61711489775275,-10.497846869342984,-7.45573154910335,-5.95297935188664,-7.048216343794349
-2.97778288556613,-3.41160703236542,-2.908111772623724,-4.615615002769665,-3.2270866011955817,0.5666005394758579,-2.532512120444688,-5.918555735919284,0.2656051807436265,-7.110277672030262,-5.509542352674294,-4.860531488867065,-1.3179500474139545,-1.7212383429709923
-2.009969427595516,-6.987890435919084,-0.2111793292864154,-3.1917977100743835,-1.613486546800065,0.6971387811919072,0.0628953741264801,-2.690225134242448,3.926778220681056,-3.5531348403479663,-0.1014323217503605,-0.3315835863893008,3.4734243081770746,4.097424312024522
0.5003538199904884,-9.064449355185872,2.0858726877244385,-1.606067374586216,-0.1218981203484628,1.3740279305286331,4.044737344174148,1.3320708551054654,7.179223733951066,1.5629131244656485,6.290447043542154,6.2053164780160674,11.1770852259908,10.245664874001708
3.765149218307643,-9.126773853296118,3.13584002841388,-0.2959546994529413,0.7228377083684048,2.248418202209687,7.980797275872896,5.632081190552258,9.711852199568828,7.682002475152336,12.976371588519994,13.264280819296424,21.287360650079265,15.305866410995645
6.292372933144399,-7.837805514059905,2.619651346083872,-1.5856012267240809,-0.4378096024432734,3.164077026423425,10.128285616301742,9.278098270743014,10.51087469074806,13.311794812172105,18.14344906569098,18.678463131962047,30.410515064347933,18.012437123454838
6.758651032909375,-6.787559437125289,4.239448121640269,-2.9195921745325144,-2.010078267026865,4.614663742108786,9.705639143105106,11.364354710485866,9.848597193998822,16.773814193646388,20.13968505738231,20.854354093230256,34.958980347310934,18.4386243150408
4.684536310407049,-7.629698775842316,7.07219785127759,-3.848635748959617,-3.675768155299852,6.3547029364166185,7.601903998808021,11.712362677133816,8.524501755289068,17.143199599701596,18.882930946877863,19.50803618185885,33.838382248539574,17.807970186467315
0.5299849413176396,-11.023807734831092,7.402083952500352,-5.066838559952437,-4.834608966420648,6.696416198587529,5.743446884114933,11.086302922317987,7.18490884186539,14.783168190514528,16.0379168121703,15.53029169202643,29.04162036513189,17.17446845844043
-4.674911477059135,-16.032589918282767,4.704616597494595,-5.687892184749251,-4.362981012527861,6.059472912625769,5.523252460806365,10.53897678506008,7.000076720646049,11.161783085269086,13.681313399100006,10.33992734712082,23.945433379184767,16.35534347046762
-9.781540134296424,-20.469036280820696,-0.9347026897822568,-6.199857390508967,-3.6180691091657113,5.301254081193117,6.648684396245059,10.438859581829714,6.567935844225484,8.11479197260785,12.664716243668908,5.299069014816279,20.914975044948427,14.261770497936649
-13.812483682433609,-22.1021016641256,-8.75487500590374,-7.201387929223627,-2.775473079404527,3.097188663111075,7.457271233279595,10.16830225208445,5.248081098162924,6.99141295084541,12.209743688782678,1.4211630640004973,20.104495046035147,10.35378112405492
-16.114476303227235,-19.971576232004395,-11.536403213167011,-7.373029722987181,-2.5574783995238843,1.7714842434321223,6.406644301800185,8.8398289352481,4.5109010646208425,8.06227731714496,11.041259550296248,-0.7731828096947382,20.09476253664792,5.725152163595682
-16.474080789660814,-14.90951946874054,-7.786989593134431,-5.631827601202716,-3.180856515187362,1.6739825612658958,3.368709232911854,6.29944188558375,3.851269847078192,10.386425670931905,8.839790338513975,-1.3690262919728369,19.476900653826164,2.5784456741902275
-15.160698635408298,-8.942021877801839,-4.121132354008546,-3.4979651245262584,-3.8641065084608415,0.3297213953230516,-0.3818003702886514,3.37042831450054,2.901530841690389,12.212571562557578,6.560265187931012,-1.0006593154596573,17.955850769839266,2.4210639782567256
-12.77360252632418,-4.084907184853563,0.236490339498261,-0.6347848447132703,-5.030150702651726,-0.2343546565497694,-3.2992595058154706,1.115319667109322,2.829706331632107,11.859219979976256,5.4177744752091925,-0.4684925542418128,16.2449874970445,4.671574787956683
-9.90091600367152,-1.396694414319022,2.411473844851306,2.1595653989072265,-4.787581619091801,-0.1786766208413513,-4.64790859971961,-0.0611887522582605,2.333775399563581,8.73963630819178,5.701153466922701,-0.206692294533429,15.145921654226637,7.089290273608185
-6.818548064860259,-0.7651753229989602,0.1568054683773235,2.658366927490396,-3.792110122875992,-0.6597420162119737,-4.634703175082528,-0.5429118073667887,1.2216814589529372,3.911047931905252,6.621311863071863,-0.0488241678698138,14.763625684429384,7.717004726827856
-3.4946193462005724,-1.2677670202536149,1.1088780267838396,3.081210007752841,-3.191261256363547,0.0326075533087805,-3.798887013363249,-0.8561395630246906,0.7127533999648425,-0.3828496423834906,7.183882147771737,0.4502609676330884,14.477202861585294,6.539249619090061
0.075072720969338,-1.709368973869168,3.974959815651852,3.891368884697984,-0.994697080976482,1.1912255325971195,-2.531908771997905,-1.0860975670984487,-0.1782002140760468,-2.073845081817062,7.015204410656644,1.4018067286459193,13.540757924255082,5.312435294488747
3.493328456108607,-1.1511548061990702,4.848490474731044,3.7694398131820575,0.3063448180040948,1.273087331284487,-1.177138456324215,-1.0191456618483803,-0.4470535434129615,-0.6589357845150197,6.305606030867562,2.2734492636368486,11.719174727282129,5.792234065254494
5.945302142371123,0.5930715250510978,4.966561622376611,4.140495891951466,1.247539052808457,1.4388447471200765,-0.2801866510027793,-0.7256099569340968,0.2260744992533087,2.4562761887355897,5.192786523823223,2.255090043728579,9.465765844896596,8.101340604439933
6.679553527644767,2.7019474197726687,2.749571900655984,4.66557351886192,3.988111208945748,1.844480462900055,-0.3497961294073199,-0.7323452473305387,0.8615059835666938,5.021070776297137,3.5697636845702085,1.077977545125286,7.59738443077341,10.761069485686429
5.673937630833304,3.7177695559685233,-1.412765031265448,3.820727939687477,5.488323363298621,1.5321628763671349,-1.2048987451521531,-1.432071418969766,2.42253906861343,5.638119519406807,1.6710346987227354,-0.4136111017663921,6.770718941486603,12.221690176888576
3.897252186410373,2.5822746203670803,-3.423023257837428,3.110544372275002,6.214636213932884,1.803885549807832,-1.7268195878074837,-2.3613261250838704,3.602108467610037,4.743172631248843,0.6304442015863501,-0.5769490936681407,7.09705315887345,12.287551070613596
2.782973445272773,-0.3555075751801695,-2.6005436064729324,2.870618845523732,6.462045868591823,2.3090643471442336,-0.6103157709332407,-2.2811147685867468,4.604184346650473,4.057173812599878,1.9805044147650008,1.821609413134052,8.059278060763763,12.0439546941453
3.1691160763278354,-3.340145700427783,-1.0977616854719974,1.5402605657936257,4.682188931596471,2.0416212761582493,2.3664812058867533,-0.197359506070871,6.575832019318475,4.9804332049720905,6.193174073480449,6.3260003876164745,8.7363572065675,12.46189576261576
4.53395027441897,-4.47522601515168,0.6075856586226445,0.3279461235202497,2.675694997606554,2.3146202168673544,5.788662710027118,3.607711045577158,7.941226183819614,7.316340509878774,11.655642225352423,10.60628345134088,8.254024615811069,13.1706481386123
5.285284792138995,-3.297901710061936,1.4975766059266498,0.3107501328146611,1.756384580612764,2.3521724773387667,7.504914755985176,7.615541012287892,8.908321672833981,9.430142016575118,15.383744717782438,11.906362867219984,6.284708025215352,12.665217632761646
4.041334054020425,-1.2351424985871944,0.4888284370368804,0.0889415024922547,0.8673960968058619,1.5744089360961184,6.352506467886187,10.264740058294745,8.984683488651859,9.67935289604489,15.184029779737957,9.276475614350506,3.3020894848780387,9.750353894420371
0.9083538181928468,-0.411957156357996,-1.1293324789130754,0.1942621426773596,-0.0331742660210751,1.0429875097862678,3.1925795981552305,11.211722660043671,7.597529460124941,7.819753202550704,11.451395684083828,4.735948176299729,0.332086601970829,4.805978803283097
-2.386930695678039,-1.794567619100654,-1.7359269103938748,1.469126269273926,-0.5761760066077768,0.0611150923720313,0.2821606068408542,11.44393621274817,6.190370147576608,5.140836529623655,6.956211636170249,2.0401285003290117,-1.7258717291802093,-0.3303492658588567
-3.74733947648544,-4.321119068576902,-1.165067659795731,1.417299174872124,-1.386503089708143,-1.3003167914812088,-0.4982089348931886,12.11980240815491,5.026977169885416,3.2655337339776622,4.749201431110357,3.7109404014410927,-2.7075428691701795,-3.71573422228888
-2.35284455574244,-5.8086583051052045,0.36368421551382,0.977328786368754,-1.4846688942181103,-2.6149153633894318,0.976599803960628,13.25852334091779,3.8226985129317055,2.7572509575541275,5.964401423808283,8.762901806674776,-3.1694008692142788,-4.61826574894268
0.6858098363372171,-4.817891261344755,2.051913701256079,1.6363907435898175,-0.538247959102035,-4.242919804580229,3.211698458090339,13.571196697271162,2.836293468263737,2.782768523715852,9.2453648825322,13.268134157091914,-3.726113231317569,-3.7093636432399535
3.2191067792404624,-1.830012991953556,2.431718295055571,1.028131791835352,0.3177548637334104,-6.144320242853141,4.455806391017958,11.624549506917436,1.4539887744961035,2.032321421561278,11.954317284476929,13.489402178266758,-4.40853115287344,-2.2347547493198867
3.7059202421813886,1.2304222708122765,0.9616425216515608,0.6356563044161413,0.602886656699285,-7.573223051990338,3.978677213924069,7.23089558449086,-0.6613630296225221,-0.0512385863442546,11.892998653870482,8.897398280629229,-4.787425029160234,-1.1787819613584745
2.2161029237242538,2.603443084814866,-1.2373075571463164,0.92342283410838,0.3713073725436759,-7.619453421770937,2.22980772224348,1.7383765340990358,-2.2622921437170502,-2.8490111969610403,8.25468368792647,2.3741918763426284,-4.822835497690335,-1.158968932343171
0.0472906131954928,2.008058550679099,-2.624515412760128,-0.0802478164676218,-0.3206009850245487,-7.3618349291691985,0.036819514343561,-3.0376935966113177,-3.951620816534674,-5.19380675582469,1.6125849834206427,-2.5247384436353397,-5.474511770042458,-2.747378741991376
-1.5273748461994394,0.6501160621850097,-3.6612344288062766,-0.6140197580967122,-1.2730750344564612,-6.869767461375463,-2.1535667756615027,-6.210312835417236,-6.278147489303607,-6.333120670112104,-6.443982213586489,-4.634186873472689,-8.12979291870435,-6.370984734523121
-2.188327944887229,0.1036885334674764,-3.146762283091201,-0.5637826294979311,-1.1271846678904054,-5.879239709784484,-4.281232564235124,-8.257629933255224,-7.054195240111849,-6.367416377556834,-13.645146895147676,-5.717527721400247,-13.07792615189161,-11.572996359781843
-2.444435078496644,1.085371776606487,-0.8768836242529316,-1.0478808933016202,-0.6784486553226641,-6.068530910268429,-6.189305088993224,-10.206456724613297,-7.366743500489357,-5.951651727601455,-17.624080654152912,-8.147220507559028,-18.48367638627933,-16.491602298191715
-2.778108320896382,3.0182614873825777,0.0511066328774932,-1.0745177588785373,-0.619511185519553,-6.3383527487787,-7.433803888598137,-12.460776340791188,-7.995420858340639,-5.706201588251366,-17.01648042052042,-12.167460756697295,-21.17794211750032,-18.572546316405088
-3.000175756923435,4.536652889004808,2.040149648179852,-0.9095929390027556,0.4630014661350396,-5.608031192249327,-7.68529156781972,-14.402386022587464,-6.783087774412292,-5.8493608497530944,-12.53789158348851,-15.475571786734193,-18.960765057793104,-16.36011279008363
-2.420956050663944,4.4611711351696295,3.910315373180584,-1.028665027922767,0.5908909096029936,-5.505440687788546,-7.188229963718696,-15.020294457931836,-6.170605063674906,-6.181192320001545,-6.936997455984988,-15.453320871462685,-12.500195374879192,-10.863239974290096
-0.5953579564896572,2.630294638213188,3.0038538098629286,-0.83967773632076,-0.1235965958705556,-5.016954058618707,-6.610386491335232,-13.834850308917396,-6.053797125665891,-6.258246393859322,-3.371549570700513,-11.741495321698164,-5.023059118199045,-5.037165988927832
2.1204758137076816,0.1443463919841434,3.021070196125349,-0.5499935899063644,0.1054307656428067,-3.7287504588292255,-6.368516022266302,-11.24355037840112,-4.224866450064581,-5.634752845457069,-3.22351374866913,-6.602378032093373,0.0876464782441632,-1.5769242520983848
4.717454230534065,-1.1748455625770484,1.6590528296814224,-0.2593261055981155,-0.7887720065909976,-3.358253370091152,-6.227409473631736,-8.134369414736627,-3.1188098264979964,-4.162707334030959,-5.175481234418708,-2.8120216102314046,1.727640324713649,-0.9185040765939548
6.220538510108739,0.0500934159038877,-0.9345269263842156,-0.1130187400561957,-1.8294923444318143,-2.874972475535401,-5.707766000070558,-5.31501036533281,-3.145029059448716,-2.2531163588688137,-6.478567617243797,-1.2724142502112326,1.4257067440236848,-1.2798580147389655
6.309212391228527,3.615210906316765,-1.621161347676532,-0.4961164664955606,-2.147701144625698,-2.4208852872319744,-4.846499527522092,-3.292202491776351,-3.981392127520252,-0.8330868957838007,-5.413650849107803,-0.6841088897839871,1.4389178186120937,-0.6645706315673143
5.414111359765572,7.552445540419026,-2.0949934140902835,-0.8038316197065869,-3.388727318886763,-2.769297630948493,-4.330042755139733,-2.3678324856032624,-6.1192227111554045,-0.8368002936126224,-2.804300120422692,0.5778624085649309,2.4744193215646693,1.1425279753233042
4.325637207476568,9.347460657952247,-2.0316787673382284,-1.2831108059764729,-4.562577851664066,-2.7478605918443555,-4.691594262848202,-2.650849043399223,-8.936269619439527,-2.4919640129687366,-1.2430209821980007,2.4719668467336504,3.1517917558757844,2.5179568569630817
3.68644466079326,7.8519836661905344,-1.0448941506843843,-1.686038061293777,-4.486815176702285,-2.74086037578307,-5.424786181271244,-3.8199518433117694,-9.721988492345572,-4.99124609347983,-2.745260779726401,3.276138625767228,1.5710052378223125,1.8500532849456093
3.6870223665063513,4.330026324864836,-0.3659988136253067,-0.8610926227847079,-3.241260828138933,-2.589896986114285,-5.133474510630652,-4.964625840269541,-7.595049642556331,-6.937573155378843,-6.926894744417098,1.5149312249561575,-2.624918193557953,-0.6271892668745203
4.032835943428381,1.5524486651012843,-0.1863041468494395,0.0647881354637358,-1.4886163476904233,-2.090040540314173,-2.7846590928373764,-4.931396322921458,-5.283264518665712,-7.305569431942978,-11.2565358547268,-2.2272193726289657,-7.657006155645881,-2.8802212247054086
4.108697567247525,1.5214688033577983,0.4894034042660602,0.8873417201215735,1.1596415292263331,-2.045397747611025,1.1350895869404738,-3.116722119063361,-1.6674139815457378,-6.1572627806158735,-13.056765986347571,-5.514736103075791,-10.97375469129533,-2.9621700370275903
3.283301011612608,3.767330832705156,0.932754734301176,1.370445353278793,2.604771267724559,-1.2708630955355065,4.79474171945698,-0.0813520066291744,1.1036681959049273,-4.506106914737828,-11.486322924826696,-6.126231040571142,-11.252264120417088,-0.9010189861315469
1.2873351014003234,5.785724735783276,0.6709278257091762,-0.080675750514307,0.7834791429721342,-0.2321036999977564,6.45233168213332,2.6482930491009355,0.2104142202456956,-3.442389127484631,-7.93992329955222,-3.974931941909297,-9.25485774782632,1.20139554577797
-1.5273941165686864,5.261678191969018,0.5787097035370344,-2.3757299339713898,-1.240028346125775,0.491231047671458,5.794781991650154,3.567721968869918,-0.0935774969311179,-3.277670375322785,-4.771399623579413,-1.1001912394961266,-6.928446649857335,0.9210562582527616
-4.302723511613216,2.06497451057313,-0.0159324383993525,-4.737155059532279,-3.868193015742656,2.3440061218086123,3.9469405095286954,2.221944401614764,-0.5929800708484927,-3.441917127054282,-3.5571713514673604,0.1362476395163696,-5.728824043784435,-2.495063292338912
-6.185183782766565,-1.748746302592913,-0.1537037045136322,-5.731651785641382,-5.542518815036494,3.594183255287993,2.268850303517439,-0.5619553579211569,-1.7410950746424234,-3.174623123339309,-4.228819478288813,-1.1021059193443108,-5.689956933449643,-7.58625470099841
-6.8617058859240245,-3.787998561937954,0.6486747945634489,-4.484764381393627,-3.020642724892253,4.468510521681139,1.2125951142238025,-3.380010604254579,-0.1251054232683201,-2.320625605882966,-5.487772375907241,-3.786326252034741,-5.873728261700052,-11.878900186989398
-6.630590990662029,-3.218034929196193,0.6313315204252079,-2.398420002585336,0.0554742694740923,6.4785250130399215,0.3017000551959938,-5.209453185532659,1.5442916166282905,-1.4492763131477702,-5.9261858243136345,-6.156060083266311,-5.500780872616588,-13.657217381227696
-5.9300127587846845,-1.061220598973165,0.0672401649777984,0.7085382704324302,3.444919205570089,7.57740949286436,-0.9471495321626762,-5.781275330582439,2.095744636967878,-1.1874479240854612,-4.95864751473804,-7.0447230844561375,-4.578994883894239,-12.859229803233326
-4.837609292219085,1.0442801907647166,-0.9036084798655526,0.9090831583269836,5.310330995742324,7.613612827876251,-2.2701801632937872,-5.207406352730388,3.306176931472645,-1.4630841524167837,-3.029992196867447,-6.311548473813815,-3.5717215447607344,-10.60859648699801
-3.149014613766802,2.179024363673001,-1.7327001956341557,-1.793320769149502,2.9988468491523235,6.8613240101433135,-2.8869384573121195,-3.5101817668106534,3.307854816167008,-1.4876997247702235,-1.1408701596921702,-4.43421922495682,-2.713833844284352,-8.064800494368605
-1.0148388726244164,2.3431020024549625,-0.435337275649291,-4.3860377623064775,0.0310164538434802,4.38556024879724,-2.424455227816537,-0.7450480997695692,2.025586124955487,-0.572844835970443,-0.1180210943559814,-2.042192864614883,-1.8479188509220563,-5.665542267794358
0.6138930058994418,1.6887151184921336,2.1049944536565337,-9.699744806350765,-3.964511717624003,1.181256582536761,-1.5104948062914687,2.3967702638163786,1.6515018370618058,1.0198042434880463,-0.1202477727073016,0.1505332991701848,-0.905411793404248,-3.267957883052929
0.450348394240585,-0.0619875715496576,3.6272005232185327,-11.398118434925994,-5.881301024141529,0.0061557260126741,-1.3595848039246263,4.383519726302502,1.1998582009466725,2.116858467256357,-0.6650121770338444,1.302305435918356,-0.3170597068835903,-0.8054500765821757
-1.957068926075124,-3.2443902569535723,2.660668061516392,-9.242238297919505,-4.195699268169905,0.1448334127637983,-2.694524211512196,3.6840341007386286,-0.4007980762742933,1.6295298825832631,-1.1067860260555165,0.7563033356683917,-0.7048985553633429,1.3260512953504673
-5.447946773434822,-7.348018542807935,-1.3772043696312335,-8.940313076294824,-2.987621462776985,0.4377264781982499,-4.9969970718836265,0.1696474164850911,-1.3201421822415444,-0.4067809071503916,-1.1848768939696868,-1.3875289227217564,-2.103119575257203,2.556975460593357
-7.808834954606311,-10.675341503826624,-6.539072595112952,-4.798073377357969,-0.0143216138154357,2.270621122629488,-6.774591209095668,-4.267378315077743,-2.5499008102861813,-2.758180411169697,-1.2024657771796328,-4.066636375823116,-3.613281180037319,2.768361720126116
-7.391675463083111,-11.14483835340664,-8.278822654031172,-1.9766803067789267,1.8471237856699951,3.0850438981003583,-6.615246892424167,-6.758972614420358,-4.0980777867940965,-3.966038304908494,-1.6774574752997538,-5.816557743390384,-4.001229890760385,2.5419144306107317
-4.418072685789603,-7.720214725913664,-4.874255578221821,-1.7198294885767422,1.557571353721794,3.8554396524451175,-4.162406096903027,-5.545141097089029,-2.3799076134852477,-3.4564056239500616,-2.738531878380485,-5.715400765483615,-2.7130782791015093,2.6988386286753467
-0.7773065864585291,-1.3441509793719175,1.0487562360805385,2.5675385022758115,3.304871103512855,6.496888354580517,-0.3049323210277137,-1.3742166730568854,0.0455865960845888,-1.8168041604450664,-3.788807356601076,-3.8861956021663104,-0.30294610806083,3.545525732720762
1.514126362044749,5.367764723494815,7.401217022339797,4.920370415345409,3.8859328693675392,8.231292707801686,3.430935429119714,3.0430531268586165,2.0058405882535872,-0.1399026909319616,-3.796205599614588,-1.1538745055318884,2.1142334060115715,4.599595283177607
1.8141547739011017,9.50154361476504,9.218413683084554,6.320828871986667,3.8647068924255024,9.18874780030283,5.7576429042748885,5.129650682858994,5.186469735281978,0.8372475577280198,-2.065740487309704,1.7060351041734023,3.7734897834443535,5.12099087050855
1.0621256848621954,9.42765249499142,4.984552630004569,8.648590668440612,4.36760447296018,8.475820115818832,6.2340945327993005,4.365501394033771,5.799885570715066,1.0832266871865954,1.1168604398404298,4.360236437245405,4.663569902256693,4.941471359774425
0.7162469568771357,5.673726094322937,0.4078099928180413,8.077904172173549,2.884350751813056,5.744502000514783,5.3931981218029605,2.51608806781902,5.426408634552019,1.058534866122475,4.590876321154997,6.697323808044516,5.231338890075541,4.737481781497465
1.5664857412001894,0.6257310512699945,-3.698099939245008,7.843941962953841,1.3930466133492865,2.930454784477482,4.427585430350572,2.1081808324750533,7.091975040277161,1.365159981166112,7.2201325699636385,8.473762617383805,5.922246213820337,5.433637869696259
3.458164336476983,-2.766942016423957,-5.075910719677195,8.471695991934222,1.4206139027608078,1.4438792129374851,4.551564687093624,4.471006081256377,7.25301182896872,2.5433034838732063,8.865100127050155,9.39774806741925,7.046284024777577,7.316788521793189
5.8716401930860265,-2.5835256145406724,-2.412625402393919,8.459055925861339,2.054899771229542,2.098235838395598,6.2617399534945335,8.835206390402035,7.870369379753563,4.905218511709343,10.46442848410219,9.585737025712074,8.843539414018966,9.746377239011805
8.464790627382264,1.0633936824708528,-0.2719289725201018,8.83386296893312,3.3818484161113225,3.337143656504848,8.913068317531867,13.000317002207051,10.021420650657657,8.254627515546556,12.958504966307055,9.735044407740276,11.336236274944785,11.726895342510668
10.94263857592512,6.198163543284526,1.7257800704668034,8.6267977732247,5.425387235419749,4.883680588148494,11.01580038736225,14.889875307611431,9.781696126402752,11.677566883698058,15.950662061029536,10.565497068376496,13.965655401972183,12.719238523375864
12.574294737227412,10.215910873819752,2.9928002925022463,7.830809220433643,6.408028404858175,5.183878979745225,11.200346012096936,13.819840902625096,9.309049065272903,13.77914555374064,17.51100007357808,11.931210125224805,15.527784832561702,12.85858256005038
12.195802933117175,11.38357124954533,1.740070914243247,6.293988033428786,6.588401195747193,2.931362982912995,9.178996900367384,10.702579143952436,8.228685199215588,13.426653979549677,15.643852800093985,12.556023795801778,14.779446348589488,12.434783943046977
9.017799171597169,9.656620212948363,-0.1137394349814953,4.180805188862554,7.140362877773773,0.6313570079078793,5.912683756452356,7.238263985589008,4.562059909575407,10.524616597338426,10.288957067348653,10.897706546201771,11.369089758166435,11.308247543932612
3.570603987623275,6.390253441743887,-2.8852788345013063,2.122568624622289,7.096123532984474,-2.2609707704293425,2.833141131715821,4.776490860678287,1.34026771245602,6.188524432848511,3.919082728577555,6.549903777714826,6.285365366286356,8.98613632396269
-2.226445601572636,3.32964271357768,-4.837229690324291,0.3428238261326832,6.830744017516581,-3.964811114825302,0.8124381292148177,3.6195034417425145,-1.0471928057915856,2.1175608560760546,-0.1303731381710084,0.924469749929986,1.3793482078303594,5.317046155865183
-6.155538077969634,1.6739644415433892,-3.0337975484231183,1.0469612755744722,6.1628568101695285,-2.4139156638496515,-0.2416609981120134,3.122466340441324,-2.970437134410456,-0.4020999141903718,-0.3317069909438468,-3.5441783214412306,-1.683691318738977,1.023603443001594
-7.128802845107058,1.7321237417715336,0.0104197838594415,2.732448313101103,4.587633314685833,-0.7078106732245495,-0.9483431179173424,2.373576750539278,-3.749897830478214,-1.159925294577124,1.7557609925970985,-5.147360422526337,-2.2696144277498407,-2.594822250811121
-5.762885381286042,3.0841399998684107,3.701471357981029,4.078068180652485,2.7873197502023634,1.8577867376793904,-1.7463686528720617,0.9014501696930544,-4.683808680508994,-0.9303291170855889,2.8526695541224614,-4.165250567345714,-0.9459462443178976,-4.596720959237045
-3.659157043119532,4.854445392763202,5.60025657748788,5.320112436014082,1.1665870894406032,3.5419219508025765,-2.5995088116720444,-1.0570249204491118,-6.039614329799631,-0.7728359657345072,0.8036732805526814,-2.5420005249034885,0.9266765073298782,-5.081464869164288
-2.0926984968152844,5.914996569366272,2.6855213701428173,3.448472992752393,0.3708073048210235,2.254404494527628,-3.2298457386895194,-2.817740805881904,-6.554531153359332,-1.2791099078333676,-3.6514576191983608,-2.2172225234559964,1.8358042031738384,-4.948804837319655
-1.2580013424756338,5.193076764996961,-1.016937216131227,0.1680426495896936,-0.2384051828880002,1.184394764687518,-3.464466622179728,-3.7676713940373143,-6.978224054038152,-2.303159401216844,-7.714769230264398,-3.5491150256368496,0.7609533511087943,-4.982359919990898
-0.5942956035975868,2.2322438609514386,-4.144490120749783,-2.1966895833063727,-1.09013067912603,-0.4435792176748544,-3.3329856444509183,-3.759808470925071,-7.133751647786097,-3.304972507005804,-9.082111605882965,-5.2070420011005805,-2.2964411863479555,-5.176901437290285
0.3176599939886415,-2.272787442762312,-4.677143676897941,-4.061430787780428,-1.3429492039696065,-1.551543512867844,-2.9543760325783808,-3.157207297888164,-5.9260052983899865,-3.938480912712487,-7.813611812894667,-5.596454744886422,-6.120766172253157,-4.956892017624632
1.239980960310568,-6.541435638017127,-1.3464124919853804,-3.740111270883954,-1.7044949274458143,-0.9877581178874298,-2.436720096751989,-2.544710182141724,-5.183154547870217,-4.319972240845235,-5.904681818627058,-4.458269896742163,-8.7268617827061,-3.9973775494090695
1.594672416452795,-8.619172537320559,1.0943742639753675,-1.802095775086752,-2.012562460307515,-0.9840684267915518,-1.8432561115525807,-2.3162292118087606,-4.197292162796892,-4.717315673672744,-5.151430982880108,-3.085333650635633,-8.43599577198298,-2.723804626518639
1.1887985563613164,-7.621615971581779,1.9484859511833343,-0.221504682744063,-1.3281138614726746,-0.535020068036705,-1.1240956223234058,-2.405808150228051,-1.595764567979255,-4.978989984986345,-5.417715829111256,-2.9008076080772724,-5.0000899681662005,-1.9077562374030776
0.538152064942409,-4.358173451430378,1.2036536209356845,0.3715400553317376,-1.3862349313171034,-0.793753918402255,-0.0575438139582367,-2.3480391479917984,-0.4543441494936744,-4.3479297952100815,-4.903277667039866,-3.7836129903563993,0.0954151481944975,-1.764404944529101
0.4217737680617119,-0.7974260345068593,-0.4450724733842428,0.7510718428707898,-1.648818313192041,-1.893435763557699,1.5821620738170843,-1.6570740832403672,0.6536404847424102,-2.01262838157551,-2.075488808599413,-3.899885996582903,4.553133238074967,-1.5676496630176118
1.0962149642481087,1.2236707022247693,1.0199560319505612,0.9530038464431766,-1.2147568013041512,-2.334877675216618,3.608099834994242,-0.2788610426256177,3.0128671155322166,1.9676477182410077,2.605620262962507,-1.414674784616814,6.835759730960774,-0.3389021666774994
1.968636205821209,1.0591125671061403,4.401397362110302,0.6818828283863825,-1.673140439741565,-3.809967508631817,5.173412212682415,1.2374083933571036,3.615223047729783,6.214806009369855,6.817965648682886,3.447052752120758,7.156723601455376,1.9786581815424888
2.116617539158863,-0.615307173481952,6.179245000986098,1.1738616060642646,-2.1064085840589377,-4.55766906962976,5.184138347061879,2.0554509698002548,4.842882949661541,8.654785153787472,8.30002806735208,8.062554688952524,7.028155166640175,4.107924429348987
1.2212459609207509,-2.490292309913233,4.820633753350168,0.540040728814952,-3.0628225131329487,-4.653663908520918,3.2614565432824385,1.69006269023874,6.1647402281296095,7.931840982659494,6.855235782992455,9.373446915286948,7.716383737322598,4.426477356878358
0.016534732021153,-3.499919128624949,0.2409846322404502,-1.5816414620388854,-5.398862684774477,-5.955553547844351,0.401035682908482,0.4748632310317404,5.428567940138946,4.553419703542453,4.600918723364092,6.51419904362719,8.963385650067167,2.578247567618952
-0.2735202445216949,-3.375983789016328,-5.174510666062004,-2.8546843696276816,-7.359260173323958,-6.077449871863268,-1.4984610929616409,-0.6029520790347931,5.751768379189703,0.7381576223331408,4.146097316413275,1.6929744843739345,9.15105187581613,0.1091320613179824
0.8827409148734091,-2.7588153256991355,-7.411932212243731,-4.092715339902312,-8.72676389075082,-6.670989383787251,-1.0888350918409948,-0.6936192207995617,4.615674570918121,-1.1243516553425543,6.222374027488876,-1.5868211090989846,6.784915791499781,-0.729641592484473
2.5786784320355096,-2.910363009699445,-5.558233667961128,-4.918969887618338,-9.417640503397832,-8.46376878533416,1.186524002896519,0.098106217631507,1.0328390638390812,-0.320182747874977,8.847114912500977,-1.4356614636980112,1.941817616823556,0.8980457694974078
2.961028213039125,-5.025220374216687,-2.985448435432993,-4.183443667670527,-8.984839927971386,-8.934737991376718,3.265046853001941,0.642301989196266,-1.8844969391088624,1.5473701036787908,8.84435427928318,0.9796171461241664,-3.633136387208808,3.370540321350706
0.718713180046322,-9.291567464098613,-1.986293844094272,-3.969155190269064,-8.530107658509378,-10.338183226279895,3.0736654572258715,-0.2994817923222719,-7.164814474981855,1.813150578290092,4.553716814646599,2.719331630255251,-7.813030216497776,3.842633710532599
-3.619844394676552,-14.273282143359964,-1.9175432662740877,-4.236201526523034,-7.953136014760141,-10.831458023334685,0.2795081297032915,-2.835165151906388,-10.199020564669055,-0.9665634913486372,-2.4851152665437866,1.843888339078653,-9.532547577379706,0.8418364336023991
-7.740174709998207,-17.338222907252863,-1.5233209627160176,-2.5370752515815185,-5.706988843789498,-8.00886824174239,-3.324760306629422,-5.519696760819894,-7.638168204029864,-5.594067149021072,-8.314853113264402,-0.8806877997004392,-9.1623513493488,-4.132732905168719
-9.04690496315726,-16.226037924712678,0.1161726286028062,-0.890018661200096,-3.0108466534325964,-5.542598901918059,-5.183869634647749,-6.343751919029451,-5.8401315574653445,-9.022155431594824,-9.31756127750402,-2.848371551614292,-7.750524720332205,-7.631400837199443
-6.512314098704653,-10.773166292123353,5.004849482429419,0.6004314999159961,0.1780118975695351,-1.784566264140614,-4.000539590330615,-4.475335931638565,-1.5073734761783537,-8.860729202344913,-4.91317330747345,-2.160284770112373,-6.103055481506349,-7.149467819695484
-1.446977084360931,-3.362004534551801,8.200074338702118,2.8388361729350184,2.870341702505681,1.2521061776389248,-0.7847272870819602,-1.2360829566996152,1.906937844872138,-5.497247059932469,1.832996822207736,0.541715740267378,-4.55963237633874,-3.343629864700617
3.3825900205039083,2.4892769670791037,5.955049817561,1.761791112835441,1.912328635225561,-0.5917666448194338,1.8811254284280492,0.730031432735494,-0.8383069661244338,-1.9062769269619932,6.223149919000637,2.625977274858528,-3.3550925876969977,0.469872004218228
5.592708970825786,4.432940388562681,3.057445739616904,-0.5548353532693381,0.041640654304519,-2.251129368258843,1.7393760526373754,-0.4201323397123069,-2.07582580474092,-1.1903281480103765,5.186116884484981,1.8760354812083195,-2.829652293962173,1.1448001714007496
4.631333560991818,2.7120094187640973,-2.1339595472215684,-1.6816527134019483,-1.919620924880514,-4.422506764364391,-1.561439419890128,-4.10158849470432,-3.8511291729929096,-3.945514767093084,-0.5590763044700502,-1.43574339838991,-3.123266039551112,-1.6323451727218483
1.8959383965291567,-0.3628962569709628,-5.550258525484574,-3.7947607690648777,-4.074522317932477,-6.584580395019383,-6.331182931069289,-7.666348781654356,-6.576090989306871,-7.770506884439605,-7.071260660694817,-4.655000455964126,-3.786777780845125,-5.176796064994184
-0.403558244890398,-2.318350292418568,-2.979699554068209,-3.7532423231613934,-3.541455501069743,-3.99885464477465,-10.110960700693084,-8.540798897078043,-5.153653510833505,-9.350998877601391,-10.136878022677012,-4.94121494811319,-3.941583145611336,-6.210717845319769
-0.7575447931349046,-2.2001431956703605,-1.2640661503217716,-2.095244230959336,-2.575578429385564,-1.1825374072175874,-11.30145406804477,-6.304175031162693,-4.34244777931958,-7.26365103304601,-8.382936081536705,-1.665645714955259,-2.986894110346805,-3.66224455516306
0.7344876269829648,-0.8240339679068818,0.3855867426812223,-2.4081748198873694,-2.669580543239053,1.0150387850452691,-9.974542092962215,-2.909459715729561,-4.646192194358929,-3.051235793775797,-4.108109341088781,3.001331213250376,-1.1728360495626102,0.5539968878983714
2.540349622063042,0.2939736150587979,1.25794892283217,-2.1980897956651555,-2.042370708475465,3.4539807762950736,-7.446589258378756,-0.9179848775271928,-3.6053706992685104,0.2686062422116162,-1.174940352026013,5.7592983116862975,0.5622917933466898,3.306568457130357
2.763108356598571,0.2262156257472964,-0.925231834517104,-2.254441099505063,-1.722323117276289,2.632080747868031,-5.139876318005118,-1.3766407116972132,-4.1862111547126295,0.8138413279725576,-1.7539288712371857,4.679370516453991,1.3534813067316571,2.8861045653624764
0.4228276034893481,-0.871579139882428,-1.027127519490434,-4.004237657733193,-1.8615428741724236,0.8783075462024916,-3.678726364942008,-3.184575471288978,-5.496348639070036,-0.7512168911692729,-4.695637947330771,0.5062758946632577,1.0666928354003034,0.2259252481851614
-3.843319571002751,-2.2104088985334505,0.3139219522318582,-4.352394647232424,-0.8179832344967248,-0.0985290765438903,-2.817190863831411,-4.346599357864479,-5.427491137063694,-2.100886647429367,-6.851695117315999,-4.186831841932659,0.3141997956167159,-2.1853396185540648
-8.147715922197765,-3.161967710142811,1.3921464780788868,-4.259768730360217,-0.4160939273177568,-0.9168030412182384,-2.0517801284241326,-3.8135507776144895,-4.521591808786893,-1.439277605849405,-6.029088178146319,-7.130085002385313,-0.0801370385940192,-2.567902821202139
-10.619336691904875,-3.7127202770356087,2.6394502703705984,-4.661166139737713,-1.2825751678339912,-0.3662126750966318,-1.253032881851849,-2.228572775904545,-2.1967647099808816,1.0278380215780143,-2.858645450515773,-7.916500467336691,0.3441213791437594,-1.270739263766557
