AF3,F7,F3,FC5,T7,P7,O1,O2,P8,T8,FC6,F4,F8,AF4
-7.104858409968837,-9.3460880596326,5.550584241410641,-0.5359239803355732,-0.9822420431325432,5.414611431439084,1.3558492321483646,-9.66862018644106,-10.35028398435992,-8.093299412637327,-5.872720978566577,-0.3330888334071805,-7.549686625482364,-9.591277970129958
-0.4148635208330886,-9.720590228402132,2.2810730907477854,-2.761047018654123,-0.1838092726532894,5.83030793267215,3.5298720769660807,-9.791926617442796,-10.326873373927969,-9.55375694036558,-1.5315668895147103,0.038519502480951,-0.8063834402781389,-9.478212385748977
6.193331491074585,-6.708636604822063,-4.280777594423955,-4.784722134120334,-1.842774405810208,7.481004370947335,5.412410441732585,-6.432137971242523,-3.8391674523300927,-6.110974715710411,-0.2653499734477818,-0.4014468106496816,5.54115401089078,-5.492321738220836
9.433330437700285,-3.301435351606445,-6.70616655782377,-3.03914499183748,-2.188375612793756,9.126639316813886,5.636390580193242,-0.914153928673198,4.472716882284831,0.2538193845459409,1.924702678065605,0.6777688708868841,8.455380760589,0.1377169992599416
4.743319162448223,-1.7117739000481729,-7.330333591756539,-2.2001260531988605,-4.250497089960149,9.378105787507373,2.3716664274598784,4.025048667869962,9.175161651972896,5.933374297729447,-2.703428145553604,-0.6048075380763357,5.091020216417949,5.684450939964717
0.8785549146776557,-2.1014347097652,-4.402206741676272,-1.5855796804710418,-4.92920661477288,7.512777576320951,-0.9061314679393092,5.752358417012225,7.74809194671758,8.025815407779994,-4.359403117365602,-0.6956640795856217,0.6579427211518333,10.026022884177848
-2.9461788898945085,-3.248497062801125,1.4704647089401204,-0.9433997299404294,-3.3022410724326248,3.836604306873274,-4.910681920031212,3.358384063785399,1.785102429263993,5.986104066570563,-1.6807593220231904,0.8608636253655189,-1.6827689085586706,12.01055464631104
-5.296684580800102,-3.936895656794672,4.035854531709766,-1.7580903900000822,-2.786048966934425,-0.4907690938580034,-6.80406524211334,-1.6881535067344924,-4.723388935029788,1.5893485583706806,-1.694941566855953,1.0272197538787,-2.1502135779431337,10.506797142345857
-2.782131874357849,-3.58935909057461,4.61272916517178,0.3964039551500512,-1.2852026443124012,-4.046974145183502,-4.455612828161318,-6.397177820853094,-8.292386537193646,-2.4869764530806107,3.2511949916724525,3.1369323297440563,-1.4233851718116977,5.48125968815752
-1.2221214697922849,-1.9881074007837984,3.54004583119511,4.455753369496219,0.9123239643152022,-5.891053839885122,-3.3208876804435383,-8.155315793365734,-7.884356326047019,-4.320382896791765,6.095722912402729,4.51159661615058,-1.3818412324826093,-1.1184385937321384
0.1985771862214341,0.9623225935943952,2.1374607863753177,8.43416176209587,3.0891260466470936,-6.053683623023375,-1.3185021219406514,-6.349761149818127,-4.876117019817936,-3.5925877429006707,6.965168043079026,4.765522658020896,-4.662615719580871,-6.00689081103098
1.5102422320059867,4.853009271005748,2.2218120270902872,10.399205197472147,4.630335968040339,-5.406497566311237,0.948436842143768,-2.4824609895460217,-1.514783288574728,-1.3050756214115182,10.712899278358329,5.730853813727723,-6.967235018174392,-6.528888938984231
-0.0319144515984817,8.364375913337192,2.997694790750036,7.787256588489471,4.330903245908321,-4.950179603837563,0.695347341188402,1.2917493783135328,0.8147100205026039,1.1908932389802267,9.507282648964887,5.383340497992385,-5.07843873820679,-2.3223879573666686
-0.2518358084510405,9.74877993889126,5.928572535587616,5.439274808043087,3.120935447021693,-5.077080538017738,2.0449403840468188,3.883542726552202,2.266331619012877,3.0461117172960783,8.462354530555144,5.458562318212122,-1.1439916506001309,4.661782255372277
0.342656001376338,8.090785199869293,8.680125571901556,4.414354163359748,1.2739166185532218,-5.435344634259621,3.841868263293937,5.670475770570892,3.781975330401471,4.093147658663941,7.77269751915287,6.155907476763074,6.849520804070998,11.519804084281416
0.3133144158652259,4.142321427809712,8.803062627424357,3.623711415318151,-0.2377224828271749,-5.464469855656539,3.8624692083101166,7.317117526730424,5.703358512353885,4.457506028004454,4.309247241405911,6.201159111837808,11.353998360824702,15.804162842706925
1.592535854462545,-0.2156799441565198,5.7527055093484805,3.4279696028994744,-1.2206646031008068,-5.011343837348742,3.275729268559941,8.433568509139393,7.127800315466905,4.201085318759496,3.4618497027586828,5.4544557719806575,7.393360915561968,16.14564172164627
2.145979332807663,-3.4239457421258184,-0.2358592636633849,-0.4592884683639738,-2.3258419004593938,-4.395847181194036,1.195224602620878,7.729629638574213,6.74851655827662,3.430651695263216,2.3171013823535,3.534647900921296,2.468306271128359,12.394385703901126
2.1733690406846877,-5.198079544842113,-6.965527741709007,-7.5077899000543615,-3.976243490250802,-3.936517191569367,-3.161816867545104,4.669003323172754,4.416933654773897,2.611767505622589,-0.8538038627630348,0.1974773663742397,-5.638371413996897,5.815504375191057
2.0367384535649733,-6.178873196992219,-10.286073882327695,-11.35547567816865,-5.159065200205058,-3.5466884327079526,-6.306238082034578,0.7748410413458682,1.7346076585670342,2.4284915743835915,-2.811079030959512,-2.964890892695028,-10.948632800735169,-0.9610599508427558
0.9881036974047378,-6.909067573799885,-8.107971072953443,-10.904050240505716,-5.24996523567307,-2.8787391109203844,-5.732566279882731,-1.1799638195179925,0.7738874418379482,3.0165857713701807,-5.212734708573602,-3.920970918102804,-6.645975216545804,-5.017703685921489
-0.4042195153962368,-7.373138536589252,-4.1616645306485225,-8.184715991255544,-5.566688834105982,-1.8115139703457024,-2.455060220860797,0.3177932418795315,1.9727489001408287,3.328772558791825,-6.3692139329166455,-2.371147524378818,-3.0663407989699225,-5.108321824573492
-2.7678854129684054,-7.470601820377449,-0.6008401818775322,-4.345615898802532,-5.412805940197295,-0.6651899930065803,3.778857970487782,3.760672759297506,3.356215334473963,1.6106679648301003,-4.952272438469656,0.4830519765928854,1.617770495956456,-2.921907188210816
-3.79176012679034,-7.562398417290266,0.6553004720945041,-2.8452890756562303,-4.683395092798171,0.1259735483739366,8.60506841882621,5.624920414956487,2.15477975339803,-3.0459557513048767,-3.912486332319349,1.9521493823297944,7.041091114588605,-2.0539321087368343
-2.668793628271436,-8.144886309741352,-1.3619938136914462,-3.899690960701202,-3.238228901616531,0.4972635873984128,7.13576043658264,3.48972491410128,-2.4924841107855795,-9.403253139884468,-2.316006917772419,1.030643080638312,6.536054258355801,-5.044920885549029
-1.7321765028993892,-8.895021940537303,-4.45385554079929,-4.260001517066055,-1.7100902119853172,0.8315786450874829,1.472634932322889,-1.59693134284458,-8.328583623494191,-14.454183860321104,-5.199674481543978,-4.591783550162505,6.270489881198783,-10.958325745723942
0.5715064054651908,-8.364178509584406,-5.795133069678618,-2.3776452225744387,-0.0394004199612939,1.5589659082583749,-5.829561312580116,-5.81194638301568,-11.590922353515836,-15.449625129812254,-10.847374534689829,-11.095890444921537,6.941296232397091,-15.88195214013657
2.1954958048614985,-5.125566269182476,-4.944601181418545,-0.179387309276145,0.8376256763533888,2.734403214490853,-10.08573840133549,-5.784195334529798,-10.139763192773572,-11.931931076696277,-12.86694815034287,-12.631809655623275,4.292909001022366,-16.185932120238046
0.9497899960331964,0.4499580735400533,-3.941304901347107,0.1547448882151005,-1.3158457482830053,4.000384935621629,-7.54268426704536,-1.5003839323604375,-5.341794281350844,-6.03522673071071,-13.980143883932778,-11.770140185580788,1.1254832285381164,-11.727200703824504
0.7852011221164031,5.644785567929567,-1.4633213540689136,0.4604594506236641,-1.4604378210976865,4.850787943794253,-0.8074259104164523,3.601003415701539,-1.0611057993112485,-0.887838778448012,-8.462554134984597,-6.372863919219034,-0.9448219669457856,-6.090591572575599
0.1116326800278634,7.06233466498405,0.0567331534006231,-0.6021086947913833,-0.8486985703624699,4.842751254706146,5.442262881967356,5.301392424127927,-0.6725320885379666,1.4027472335057594,0.0731682184327521,-0.6478223945956605,-5.818874409251687,-3.596317690587988
-1.1955890481917149,3.3906779412220613,-1.161744612567678,-2.6579814980631813,-2.187473497962283,3.6495887894720975,7.691706293804275,1.74234464693198,-4.603257741146211,0.6044079546467831,2.7855054059295976,-0.7612404128802923,-8.724147915825988,-5.705420651457628
-0.3057516726204306,-3.146123795773562,-1.6457335948873943,-2.601898647005608,-1.8324325095961376,1.180289202099802,5.254123276690992,-5.348090931339018,-10.223734044144784,-2.1622328113596048,3.357576617634898,-1.2349566663713667,-7.283811457514764,-9.92060220455854
0.256264764403304,-8.129090783283331,-3.3342752442259247,-4.53346491461945,-4.954978040046366,-2.131950353387835,0.5926413558318059,-11.95076323812286,-13.839617062092344,-5.312702219288499,-0.9382544364574436,-3.833753466225738,-8.526718573282656,-11.976471057461652
1.124247136072797,-8.15506855577859,-5.205343940875026,-7.826474613703099,-10.04447595437084,-5.216728591145919,-1.8124351215823928,-14.33115352038584,-13.04338960260055,-7.214697667635432,-6.41389577733787,-5.803667178116903,-7.364608263132734,-9.281121030357316
2.164486345168666,-3.332256775159104,-4.665963544917794,-8.505439199358124,-10.592475870347334,-6.862380230951152,-1.8226652813861788,-11.131945546036157,-7.874699656798956,-6.390369752871013,-6.540593545500789,-3.3638214618017592,-3.344182410675756,-2.747448136907521
1.1807109158887312,2.9107592078045776,-4.649192325774444,-9.581330098953517,-10.268073508197917,-6.664200009735319,-0.7988099873254952,-3.955416446468481,-0.4959015502407951,-2.239992306967625,-4.619660822636959,-2.752599263428986,-1.467368744655061,4.17947507642496
-0.4801576472087489,6.4118218078309175,-3.015139204892876,-7.472937251732627,-7.555374848574032,-5.572970819171606,0.4399844631446926,3.578969856736168,5.962996561832205,3.8693905202108914,3.236390251090709,0.9136028029387488,3.2689917481713566,8.106551449417875
-2.8742577055810026,5.134321209432572,-0.4752521279395551,-3.284353155417626,-3.532956562558371,-5.294037842789251,-1.6327871191069787,7.733775894831435,8.742356587528114,8.494128031816704,12.39886189242698,5.317931874688626,7.85608296563268,7.732758739992589
-3.836774774679745,0.2531391878381739,-0.1393752905295531,-2.3004333575166145,-3.03922566092306,-6.802459868798028,-3.2049426925394013,6.710828640819409,6.7170308490167,8.059723900728567,14.918657162852806,5.023714234186989,7.404368428699336,4.143794172501639
-1.6321665078523169,-4.967803447233936,0.8136187838477655,0.5236353280263317,-2.105563386295299,-9.23806985998582,-1.6098803782713451,1.8766176684239388,1.2704652883921854,1.9496035885500584,14.099691332976311,6.185221204438381,6.032160533357757,-0.2595494702042508
1.035653712463504,-7.37614562691613,-0.8038453377091501,-0.6941466962455097,-1.603698824286282,-10.322261234326977,-0.509262446389084,-2.790829654500608,-3.9524251714060528,-5.993842533132187,5.189904261214254,2.4550869418320604,6.08791974729886,-3.114865286035145
4.709803104973884,-5.699740270906279,-3.2283628988405897,-3.078537647619916,-0.1746874370036083,-8.152109248172088,4.1341972246823016,-3.181207722861968,-4.955288489299091,-9.64007512033545,-5.418120945918761,-3.198496026752724,7.215060301351583,-3.053708276000984
6.126028226671498,-1.023682708548625,-2.169864168222116,-0.4322072606105047,3.760331709089216,-2.9150328182811966,7.626260325093504,1.882550455027184,-0.2184640363983572,-5.35249321304421,-6.435858248606251,-2.3570374678732358,8.13254812940435,-0.1805395544558521
2.8614991693803,4.019851294286924,-1.7353859871994124,-1.483935726584681,4.704120599067153,2.9960329018434777,4.594101292917262,9.322482043710156,7.66670638481302,4.544101649138501,-2.867385335990343,-1.7447189577981734,5.94763544143429,3.9378283616967327
-0.1849650720559537,6.789346723772781,1.007317029101798,2.420476662382657,6.133772226659503,6.6686217677373145,2.409825306070948,13.716966178959964,13.38344718409094,13.024510273622546,6.26497099314937,3.101035724881479,-1.2293168254587208,6.975869825088147
-4.582157638027968,6.086804595770568,3.889578788198713,7.473181665813215,6.624059633525169,6.808673036472918,-3.4722702281961872,11.402062113721891,12.78024178758621,13.801887005363016,14.313280709268966,8.885359334252245,-12.136560239191478,7.185742190687968
-7.250465613065459,2.730265690440771,2.584832812087042,4.753948314624379,4.1651279277650834,4.589150953862052,-9.611887092067688,3.568105528091418,6.258683372309362,6.469522623703647,12.050735952503947,7.547604990130207,-17.10468695581011,4.61386745490108
-4.270339419430909,-1.1077476477994717,2.407641372188225,4.894022617783213,5.27008560923281,2.5756842408809253,-7.7208072633813,-4.378169463239336,-1.3711672872001277,-3.158461850835952,6.550991616071308,6.790049935582483,-12.268385885164864,1.1810044188183195
-1.4119764479876051,-3.351620108489831,1.5666743078080858,1.6185440687286652,6.528498502506978,2.698756220032824,-5.185494194263073,-6.855768343097977,-4.678419536643776,-7.8489187991243154,0.256408690635044,3.549166777036624,-5.056163138779439,-0.6341236622279576
3.308338687669857,-3.2265821576227154,0.9353142663412304,-2.722692110840126,7.613812721144312,4.941855162949559,0.4058073930516859,-2.249951557228492,-1.8491234042651852,-4.692387673563688,-3.3086691332721947,0.1570466878087235,4.429737301719159,0.4333983336392091
7.096789745121916,-1.40049632657372,3.1732129486711997,0.6357143114762183,10.479863980762977,7.676748799646946,6.558658458589978,6.211076751885227,4.256272158037542,3.080201889781313,-0.4881807002325986,2.342769128543287,9.28290177453509,3.586714427138594
4.798025146168127,0.8333494046630894,3.419055582609009,2.3732995357439743,9.80555404492327,9.157165549570545,5.043660893120039,13.258283780862842,8.908702319574456,9.354335787621212,2.5365931182006074,2.4954196474854244,4.967789456651598,6.628059011010958
1.4928800622236955,2.481914733807721,3.7110770582591694,3.9133459250119818,7.435783045554698,8.842704763084562,2.173446792253987,15.381494758547268,9.399275486406337,10.174105520310455,2.95897662285315,3.963005280280298,2.4010741082639053,7.5029037394675555
-3.9791568300347926,3.162980414423753,4.404066561599187,5.451777902427999,5.36007718389625,7.5766262381524605,-1.1933000820201545,12.56085593087104,6.595950673390971,6.217328676373348,1.5411445883267536,5.673797578703853,1.598497030189497,5.5892452306554565
-8.238922002929085,2.8528942755178868,3.5253771733261527,2.9855833002501733,3.081664869062425,6.686828557227724,-4.246780073245327,7.19272397161459,3.316573093367784,1.221340272691141,-0.9439062293878396,2.933313254781302,0.4694706415374512,2.0127543380337043
-5.734266507156335,1.6496694059161356,4.390880854281633,2.8560673338373253,3.415165327520372,6.852532490528095,-1.9973708052716583,1.901059018319201,1.6134382577729158,-1.4718400635282096,-2.410679430041283,1.7813132880401568,1.123161835435725,-1.0453747744970414
-1.108013073520835,-0.1102648212334962,4.472167408377964,5.2949626750473575,4.846375007856516,7.566677255823285,1.950512458517767,-1.7973033417629478,1.529515144898609,-1.0510103819126062,-1.756764940047023,-0.80806990041859,-0.6344163925263501,-1.6737857261561064
5.44246948910394,-1.6528699605586876,3.65641790137646,8.700256608055495,5.229905710073996,7.475223735834239,5.141670288063651,-3.5481291462056648,1.8888238122951948,1.181109621112837,-0.9653903407657316,-4.070167692152952,-5.596658625963389,0.4152547746871651
9.635584404948396,-1.960571851213832,4.55995316813651,12.51285089585674,5.186002180361619,5.3155846018609,6.624451447791266,-3.7827777528583777,1.6949622343461084,3.5098409877105223,-1.332440359859361,-2.984309373940224,-6.911380044317915,3.3517506087778672
6.0601958390747495,-0.400265502446409,4.640264811217441,12.619543922177494,3.589442087855056,0.8888592901878674,4.835879989315127,-3.521069007715918,0.6957807244638026,4.914320978481838,-1.9537463923968927,-2.3443211090606617,-3.104942742915301,4.115434333683174
0.1560774127783929,2.731451181117306,5.1865996818471976,9.970288595746013,1.5648720562808605,-4.53200951611016,-0.1605657465779181,-4.051281385666478,-0.9012595722685544,5.012242256728287,-2.5693856807310245,-1.786983432267882,0.4731451727801485,0.8298921036502231
-6.813065170705357,6.298924391728891,5.899876229669905,6.458142472067863,0.5922798029626744,-8.72540779845655,-6.016861241521259,-6.092760103392637,-2.685548716761617,3.670743740586529,-2.862323132268344,-1.756161010877889,5.115459500428785,-5.268455726460359
-10.108649801258837,9.06949435606374,5.003339333072318,3.9185897767576257,0.3251920075519142,-9.812030474207097,-8.316049648497172,-8.934433620451998,-3.920911289973937,1.1143858087928744,-2.5816439198827803,-4.420544655581827,6.594266976512651,-10.101795834342893
-4.938834259629844,10.541663469783002,5.259403270689158,5.68651043235174,2.2538117236626287,-7.520254937869987,-6.327999679796761,-10.596126901316955,-3.609298341734479,-1.6700670746714483,-1.2564329856897194,-4.442038183544076,2.4271610614940435,-9.5798516424458
2.023584490604635,11.205959106924016,6.2103382144368,9.453855340983274,4.1883714550229,-3.447267280902276,-1.7426888672487046,-9.285024628943178,-1.2098629457506394,-3.0687694484408325,-0.5481292977197518,-1.9231302891604896,1.9627112733413747,-2.922526424770919
9.13311639191197,12.035767472832756,7.494913519282896,12.950506934815994,5.955308932229557,0.0242820965390906,3.6928774273750022,-5.017504898589807,2.523933016869237,-1.823982968875032,0.8911320753924609,2.439419395289726,2.9769299151245803,6.412842343370675
11.472646945272894,13.59365721028814,8.652870880360991,14.45841326986657,7.523600288993153,1.4044792005902933,5.776038395931662,0.1245095740187087,5.642301097336274,1.858606871853857,3.365420733962707,6.881887263377645,3.393811034733376,13.205240557692502
5.294182047924669,15.420652150319016,7.014478788270964,10.606680160416118,5.185047050977071,1.0348262981056415,2.907420277179046,3.4275195349308403,6.265010511925688,6.135935718003792,2.2299471219179074,5.023097325823588,3.971010768244698,14.314802293061092
-0.8802634349090417,16.18716493767995,4.967981281544592,5.811985579009255,3.516902083350177,0.5226519629549854,-0.0328810417824789,3.3975587842340005,3.9473985469020887,8.589289398398618,2.124047428404544,1.5799081434227644,0.1180251190726633,10.60388483341493
-6.512445725313417,14.566537989854568,3.301145348065224,1.895620193521311,1.867313963200265,1.1917723903782618,-1.4355373261984294,0.4481429803098933,-0.1508252636797926,7.753682667969185,1.7175662914378014,-1.5486686650823438,-4.581784457629028,5.457296121491218
-8.766909462817347,10.27035493144954,1.553515017989907,-1.542338656118389,-1.578287070447041,2.911073494125346,-1.944102201144076,-3.897157222542498,-4.396852351336729,3.995200217084883,-1.3307453755029064,-4.130362513236516,-6.683538156032849,1.583203208909434
-4.729850144360307,4.490176952780245,1.348599260153484,-0.4985787278626498,-1.3087847162590684,4.281027748663777,-0.5083821926487009,-8.201935879068749,-7.908014198061523,-0.7930717086527377,0.4882949847167371,-0.4074568294808204,-6.7146369175858345,-0.8154680779508077
-2.6162064952193984,-0.6913279228751916,-0.6471425038766689,-0.5417875274124555,-1.8329205671308637,3.93604623977956,0.5146673776442332,-11.553991447055324,-10.697531899457353,-4.338113402225078,1.483944123913374,2.292234015679359,-4.990611977553158,-3.048444231478536
-1.229155131661154,-3.642221180148096,-4.561760853929132,-2.36041157340686,-3.530484456666561,1.783453555497694,-0.6851963569404059,-13.250287373540708,-12.877587645700933,-5.228580678010823,1.5473928383284534,1.9838836893815748,-5.907361683386905,-5.586849536858811
0.6379863397855355,-4.341445948447647,-6.755841179296305,-2.31580301194686,-2.899008980598567,-0.8596877123868547,-1.3617938933128664,-12.65734145318634,-14.084936098290738,-3.635495671734831,4.352403895968173,2.283717166749696,-7.0126087437809534,-7.037585878945212
0.6611595366647426,-4.388066234192917,-8.003862956035391,-5.633770522753191,-4.587850818793551,-2.2815237794683085,-0.7637872178612162,-9.756888977268384,-13.86625887923349,-1.1974133941843004,2.95804391578184,-0.5005919052647575,-4.303608795588587,-5.534667204587937
1.6225027446782834,-5.689078831053232,-8.283472720587316,-9.35229637068362,-6.822647159864077,-1.6610209996795051,-0.9526156204881512,-5.7081323761801,-12.434493694296158,-0.0382737662468812,-0.2497147287896314,-2.4655476914324463,-1.0392531330694108,-1.0116475718413147
2.590306777024523,-8.786319856133046,-8.150498810024358,-12.55277385099465,-7.77351727720304,0.3815290357870253,-0.447596955078424,-2.378269451375266,-10.635722433282693,-1.3063918152884897,-3.816139987080047,-2.7509273150697195,7.050801254380853,4.104750334343564
1.7162969346968784,-12.269706865894024,-9.871434710974162,-17.345218030312367,-9.190804858525116,2.311797786491067,0.2149858790066115,-0.8589574658005952,-8.92625115731869,-4.1579069727012,-9.07622325459224,-4.823259619900218,13.531327564695196,6.59756548081409
0.5895384486532971,-13.942484691876489,-11.973156766698992,-17.545219426597875,-8.695412553868564,2.7899383226112398,0.056716882500883,-0.3611481574230972,-6.559263833294384,-6.171407568657621,-11.335862979063457,-6.287048658840256,11.0830316997744,4.964898282544829
0.8463643371218643,-12.850298430363631,-12.492249323022127,-14.895767362997551,-6.726108897228575,1.4998667993687698,2.188312046008138,1.1360600997914774,-2.256465801546989,-5.255605261766858,-8.878131373890215,-6.270218751867518,9.348362595953857,0.4220543742647151
1.554203652004052,-10.35078154670752,-11.07223864511688,-11.571399864834213,-4.884840702759341,-0.838460553826384,5.539772494626546,4.774792941947295,3.951370083117937,-1.6840988443162557,-4.654374921176942,-5.215814050204092,5.1262279518481,-4.3476090968851695
1.8933151340414605,-9.115361575762956,-8.726601627148392,-7.87914483034518,-3.589502851816872,-3.132530840352464,6.647389328390448,9.202446118777129,9.631247885617206,1.6317226874389767,-1.0371707172571265,-2.923991382701068,-0.3360511279407984,-7.347931143186699
1.1263980047771511,-10.82930565488909,-8.245578197496345,-9.602078644134457,-4.151051019374545,-4.645173606305168,4.808207961395412,11.211913927898426,11.20069032535619,1.2451735314291028,-1.3706328783169948,-2.3948330002581937,-0.4371186732803989,-8.42988206474132
-1.651535765675319,-14.63810742400485,-9.896383210272186,-13.607586424905062,-5.624868446184872,-5.256897916628259,-0.3640099141997504,8.34740133795593,6.901542069409675,-3.909795352429992,-7.191690141633027,-4.952277111735356,-3.490408286517683,-8.794222737169537
-4.704118986991823,-17.74789325415262,-12.548902853960511,-16.356821969732927,-7.140970148808499,-5.223973467354115,-7.697715257351946,1.2457974160608842,-1.0962155653180012,-11.326233055854376,-13.330385297374914,-8.843776854466197,-8.42733294147787,-9.67578886586017
-4.769992512472015,-17.579484053654696,-13.93049229963956,-16.765266035662037,-7.862220943670863,-4.809356969976873,-10.78346098331558,-6.410606374307861,-7.63601324029399,-16.618399148465347,-14.051377779468671,-11.130243477108866,-8.81822326390163,-11.374166256451009
-1.4178777486945018,-13.493523193027965,-10.808017085650553,-10.225769334351796,-6.116244288570063,-4.145886470855346,-7.243284571234114,-10.38281807999788,-8.128990681715582,-16.71278511712538,-6.085960116764658,-7.184641789450889,-7.152212048503885,-13.064432140309282
2.8251588644556307,-6.726305215036353,-5.8055876593521045,-1.8836836158718289,-3.1411748451241857,-3.345573148642739,-1.5460264726405697,-8.784806109984782,-1.9056096536663265,-11.851798968647795,5.36419886564584,-0.5899469231837131,-4.55504596224705,-13.179197642268878
7.476991845213686,0.9323082681197734,-0.8903201435005932,5.052336574096225,0.0279940009781221,-2.607931121279358,5.2646515756507855,-3.15202884450031,7.359405281150609,-4.909098588414786,15.10713810782558,5.953410247228446,0.475830130852152,-10.167383624625778
8.215480854749806,8.098911179100229,2.216415501640218,8.96802206376981,2.133045044371055,-2.1571870145491068,8.295761747526717,2.9721031265812017,14.428204393408494,1.0664663594720842,18.227717158703083,9.9044336057729,3.1885889355898565,-3.554222556392152
3.327926699228497,13.60191104577942,0.4314221171544243,5.986761018502871,1.3718014119008362,-2.089238674627649,4.461111508949728,6.647253793860355,16.21416878292661,4.835254747216208,12.028595602022769,6.0809169010604425,1.5588197850727126,5.151728267365183
-0.4121521262546315,15.989578978024603,-0.9450330472504992,3.978931288630217,-0.5915864328473353,-2.30584088874059,0.6109377517122435,7.359677458112247,13.627463086618388,7.05230850107914,7.391265999514015,2.1950226267521544,2.4983515854160223,12.61712070513624
-4.737518376499612,14.032547590670342,-0.8408110818875376,3.907414192839216,-2.255823254132231,-2.5784797911878665,-2.6542606900480217,6.879372968773888,10.406710397298196,8.884057303066996,6.813630436593634,0.7443826238307469,3.7847431735108175,15.379161130148004
-7.325072732332601,8.146294556831828,-0.5687028934065775,3.5019364453554696,-2.7215921695050134,-2.6497778673002483,-4.425263185578917,7.459404827888433,10.045921852175091,10.652459307174055,7.699149437891446,0.1873390219973577,2.3408008600739927,12.169433451531372
-4.575410203598304,1.1126984997523044,2.9397234697597048,6.146357106284271,-1.2359045200190804,-2.3272790713820357,-1.823427930986052,9.805931143208486,13.101334465331174,11.570337453959938,9.75336228091036,3.5733595049855653,1.7447414049359435,4.990481511270536
-3.8376715014676623,-3.2547620657117102,5.191276839579678,6.481253110329709,0.9104559587987406,-1.6209360507832449,0.8385823196839892,12.373524973082109,16.718351261249687,10.50590786123228,7.807876247257542,5.678738134410256,0.6247533680088577,-2.171634483927482
-2.595299870980537,-2.8011220586476155,5.5070030517268265,4.060889685654288,2.0175760542739014,-0.8869355107112795,2.6261653748026585,12.606638238402864,16.69675785956648,7.016831374592453,0.8357804540523883,4.142336195419602,-1.1788178630497552,-6.074389320623312
0.3359436945776924,1.2937733099771005,6.736175375240377,3.6856185512235866,1.9501067406702173,-0.7477898283822462,3.709224070608317,9.256050789561169,10.745752191664746,1.942723366398769,-4.744638221649089,2.3875197953505944,-0.1764426487432455,-6.116489789353709
1.3356751584711226,5.53468970094527,6.697804076843742,3.4307828066165547,1.4110296056341851,-1.6192754184113811,2.5882489401697386,3.8616805501782734,0.651867783272625,-2.7686186811520272,-4.370904365746688,1.159942693989744,2.2481608876202723,-3.942773464825642
2.881561359758499,6.983864147782785,7.199055460645287,3.631690728603653,0.6101575602284742,-3.128179528638971,0.2397775870067054,-0.0906085470256239,-8.42642897081523,-4.982577116465425,-1.6970031474255287,1.5603953227481795,0.9047025689290924,-1.4724951385325502
4.08798606200911,5.3599824219679295,9.580465738204024,5.704159323316138,0.74158218980681,-4.0807929131686365,-1.3980020487853144,0.0343028335235229,-11.40521335494111,-3.673518996874097,3.431994797040649,5.0288259493973015,-1.0174009432472078,0.5959057189200063
2.7429248030728344,2.581528164657465,11.999927338314462,7.396316781328555,2.0305563580919435,-3.334170819911086,-1.7375136141367582,3.539363993014545,-7.110796318139897,0.16872840677404,8.494895838729384,9.073635020281076,-1.5128643880683803,2.567177707514201
0.643609464071872,0.5631848249252887,13.61293116044515,8.038022353656459,3.2866010445858453,-0.9880559495070722,-1.6890169630243173,6.586705259747786,0.5512997650092901,3.856424618800744,7.072353648073464,10.102249941229386,-2.3779281336985343,4.54441029461418
0.0212502597214912,-0.3187591217565568,14.187399458693193,7.889969917434801,4.441889027359675,1.3114107207672985,-1.9933074063178504,5.26137878663323,5.34653075138506,4.700745546086974,3.066618599016519,8.097751832752348,-0.7903293778303168,5.9130552749308665
-0.5004208812350881,-0.6870412825483152,12.39387662326029,6.152538316090944,5.266388492774138,1.5946357544369631,-4.503775560902803,-0.9465692253938982,3.462403284206508,2.0637500244812035,-0.8137607091284209,4.023552572428031,-0.7428016299117053,6.173695177094771
-0.2037062188266222,-0.5719454136099156,9.091941513502144,3.749598497090081,5.322949062510612,-0.5171326141851862,-6.592375906458152,-8.329966907658518,-3.518432164658626,-1.9030362801578744,-3.960120979596432,0.3889559331274298,-3.15766603780458,6.046929123503814
0.6881979115084982,1.0801052585848834,9.060661325905398,3.653174973338469,5.264829489711009,-2.998812396896265,-5.177437892947354,-11.71210291972146,-9.91410535672842,-3.732841054970618,-1.6190465950147055,1.806235346543939,-3.816382063367386,7.311771671806886
-0.3621105431340642,5.035438208092359,11.309775200516368,5.0746002169364015,5.395366608062718,-2.771771835408537,-0.8215527331207254,-8.507755804043104,-10.480422637937972,-1.3928160008135566,3.550484689979477,6.414948370348319,-1.47560124771651,11.20188496408608
-1.070889380376224,10.1010035091899,15.042827663118176,6.845341960697968,5.354201348457777,1.692770940383484,7.001370825693816,-0.6715707322044028,-4.453418896864308,3.9404342243578734,6.677140522712436,10.977200366633662,6.14007740662338,16.874063558121236
-1.2903178545819989,13.314964554441998,18.553371443936523,7.688357245938772,5.169018418328339,8.786933869772481,11.27646424261984,7.001687248488668,4.115626587265501,8.714882150253592,6.391836247232001,12.9336542428322,11.749964071860513,21.59242221558756
-1.4605886502828602,12.252256548568296,14.748149495143194,3.765891337590893,4.692997890581451,14.76356465325694,8.130417898301355,10.587998672308112,9.713001916723636,9.84164630056414,0.5197081502018396,7.810417291924939,8.900137156778472,22.634334499387915
0.2463563271323619,7.291600576905282,7.472716270125908,-0.6563898935175654,4.175531944198303,16.609749290772925,3.763744893238972,9.581215588823143,9.386022623275569,7.065640197510682,-5.187642609512735,1.5487802708425933,1.1819205152580314,19.21458224777662
1.529295312699246,1.4533762988845615,0.0415637843008431,-3.404012176723099,3.9033507086344,14.336568742705982,-1.6749516293341542,6.447995629606071,4.249305586656723,2.7751067184912834,-7.308531946772645,-2.302403246639524,-11.276495458790446,12.73733498556099
1.8422135436511609,-2.236828114185053,-5.325710353117511,-4.58448841724437,3.844137327076985,10.692852872942725,-4.238492649074636,4.103720787978891,-2.1903901753597053,-0.4397849755077505,-7.018456057142663,-4.043376076588366,-16.994655386658145,5.380635508927234
2.270673436095271,-3.3501121895751336,-2.374021983846653,-1.5425432019421836,3.611648083063685,8.615961612748897,-1.1118066925579324,3.749660312541855,-6.879964003411775,-2.037613025810404,-3.945670676618157,-0.7672591795073356,-8.09200954168415,-1.4108749077079743
0.274345942747094,-4.061174224312543,1.6751212027242115,-0.7932090324496412,2.875759703982144,8.740787312563551,-0.1770665718975658,4.664537313689948,-8.779002745531626,-3.44338224568924,-3.919900126084806,0.966850100352743,1.5515179962015846,-7.12591465135096
-1.5418224163173375,-6.5948114145289205,3.039543131909516,-3.488336198192209,1.667516174542201,9.15184859045294,-1.32655479108955,5.490996180471216,-8.460441863220751,-5.944669371360456,-7.180241138134101,-0.9306503817486498,11.28090746609758,-11.311070235630034
-1.7828146197381909,-10.741729618354514,2.472891310473261,-5.62860546689859,0.4281305812754452,7.458996879572755,-2.477512743665248,5.4079603685727164,-6.990285936706771,-8.963448560242227,-9.312163386469573,-3.1105876645141004,14.08320999803683,-13.087017569981311
-2.39903821103168,-13.966799231172995,-3.498921223021129,-6.935429758833962,0.2817517922609617,3.184860123731857,-4.470999752356006,4.215749319483219,-5.458487624613783,-10.609036262331657,-9.592123935409434,-6.185377710770869,3.1302958090125808,-11.966143023039818
-1.5033825621038606,-13.92063407071301,-8.550169008531983,-4.59313492026549,0.2248982409394445,-1.7160066689067226,-4.08815943496944,1.795668911088101,-5.125260182237508,-9.864949635676226,-8.107923382803996,-8.134943200588921,-4.329678518773688,-9.141673977004842
-1.831242695087092,-10.68943327430376,-10.377430947890511,0.5519529785702153,-0.2162563549321581,-4.575475268709419,-2.1815172430761254,-1.9942685442863897,-7.109256528793995,-7.906991946012814,-6.271195485010498,-8.746585114093804,-9.802614347476736,-7.480138604288986
-3.090681722201989,-6.485100034072985,-11.643419444622356,3.0747853004764285,-0.6448039379187083,-4.299517685628203,-0.8791647722328253,-6.702386522691317,-11.224310763976373,-6.950127952208219,-6.270490156692708,-9.820329266917684,-11.23832321158313,-9.535272052301984
-2.406822283090013,-3.278466157651768,-10.483084057387677,0.6486503630423521,-1.8646270367528373,-2.161384590619545,0.3210726836236278,-10.809168134752316,-15.1460287252419,-7.767985932601692,-8.49552487907648,-11.013525982905692,-3.912157885551816,-15.073509480043947
-1.787357215698265,-1.0724704040382855,-10.36050712602502,-2.755303757661494,-2.755298441716311,-0.5384676066671505,0.3129047962621604,-12.38780695999436,-15.47458739234741,-8.631568231434315,-9.39113730333512,-12.057265005576369,-1.0962189399435012,-20.583180799111474
1.2116058961505225,1.3065118884701494,-11.353061376065812,-4.791397855821462,-2.342825669444071,-0.9137847466920404,1.2021466246916264,-10.72541268896569,-10.541092877392998,-7.034392179894927,-7.808587266182705,-11.802873355582005,2.1968759123684967,-21.74724994545164
4.771830573306621,3.969099711906236,-10.820612672769196,-4.122573008602775,-1.4586742461329902,-2.9554151394019774,3.113448155532173,-7.448457822657304,-2.586463284096176,-2.5653352564678693,-5.3803838383890765,-10.22510889153302,6.200196698241553,-17.05782339303025
5.433556441716214,5.129655028540291,-11.288140273664458,0.584548478931743,-1.077775941328894,-5.26601873231129,4.024132965038628,-5.760163406252261,3.194551902538453,2.138214686130116,-3.2410261849674864,-9.844962341824417,5.99458142753436,-9.331830385345889
6.353333180576711,3.024459029227467,-11.62772500493223,2.0555587601846224,-1.2675152117492636,-6.789029544406192,5.549572594726711,-8.005304766363375,2.6110000933368243,3.627106438077423,-3.1575831534004326,-10.10381497388374,9.829135925119092,-3.4959280873524943
6.120238935904244,-1.361677420166659,-11.972621014891264,-1.0283888908985106,-2.439484326525374,-7.455039986446597,5.60839181966651,-13.521258189338011,-3.790512868986829,1.0362473062978863,-4.807744157098464,-11.412754561440336,11.526054580424915,-2.4164591370495048
3.4640720162313285,-4.0910325098985885,-13.511841240460589,-4.181858188722487,-4.170316551317823,-7.691214863789113,3.0283492885814525,-18.836816538557645,-10.76866319552114,-2.783150237723626,-5.987525570240644,-13.433753970051944,6.553320468875528,-4.572941830829613
0.6118584937362634,-1.5662642070135782,-13.20103103042018,-6.896532945169297,-4.210880392747238,-7.649404984429993,0.3385208400877432,-20.375717209143023,-12.590764052887955,-3.743085918725596,-4.935570111080855,-12.11987799793951,0.9612263887880668,-5.83666342427933
-2.408670873157482,5.573059761181772,-10.16386795503893,-3.055800301319211,-2.6127908992714417,-7.123955395270342,-2.4702139831482284,-17.495653618770664,-7.894489819081768,-0.380010301484929,-0.8516835852199474,-7.979821328479536,-5.6042770800610135,-3.713253020362866
-6.596800954619535,12.07397082663023,-6.344834208821807,4.762430957619023,-0.63684762570143,-6.132085681152296,-5.456205216746114,-13.137537554866787,-0.8527227230433683,4.637923808986667,3.934411655318629,-3.0039184434275565,-11.483380602227015,0.1216206566001369
-7.876293781989615,12.249964129304976,-3.404984798551129,8.134612871410104,0.6215282209663061,-5.26583407453542,-5.5973899859087695,-11.299888128359632,2.5231564181713706,6.932938217927298,6.61641123642636,1.2935689997018152,-10.050733527805503,1.6274984366054936
-5.283658714010754,5.18931018240284,-2.139871866369276,7.558215504762055,-0.215358072034458,-5.202501087418535,-3.5636674454955912,-13.389952037506408,-0.2710499409646578,4.557945699407392,7.111907339940854,2.7492655613223893,-4.705325918760717,-1.1602210523194216
-3.8686010780081976,-3.944782476575286,-3.7703010650392,0.8757304154806231,-3.036092329126437,-5.826521137589176,-3.128277236192513,-16.664122204009484,-5.968565215632141,-0.0737283492272178,3.9257438352035794,1.2685624193659415,-3.083089033587766,-5.592734783348411
-0.5826883747235554,-8.048305464020137,-4.860006983892514,-6.293067070601654,-5.479914600207565,-5.999286611682152,-2.0074669261121,-16.28021791281801,-8.339024625468058,-2.3398401496568555,0.9501392552394896,0.6611935424839037,-0.0130048340492415,-6.578609083662977
2.496978474548349,-4.081808230938731,-2.8704378146726337,-5.988092447114187,-5.623069405048954,-4.409009660962358,-0.9612046875012744,-9.35098134686226,-3.56982415896192,0.3503913602109048,2.4456366022974545,2.69350832789862,2.5848594412012416,-1.5109340633083193
1.7236576855568062,4.447838770181079,-0.5404781570225851,-2.081339105381066,-4.103241225045132,-0.7894867494709508,-1.6934735275055732,2.414439358604078,6.459227901694979,6.170990134707324,4.846661060280119,5.65616929968463,1.618152469821357,6.957469979384129
2.469168644322203,10.692646936873658,3.647872951668505,3.6507472852264176,-1.7030491926710167,3.6400619692809126,1.2717962817158508,13.737140742949835,15.726896492108695,10.51211712222836,10.143363593762484,10.903989230128994,4.732460932372224,13.17934684135356
2.2674197513661984,10.3193691744513,6.804528314540231,6.660471839033713,-0.286011304422489,6.941136127059103,5.285540119140221,19.62613280915957,18.95304734897841,10.05539430848992,14.144658624335548,14.790502840623889,5.025609405894159,13.665410006788711
0.3961648279776603,4.740786567377578,6.178206365482847,3.348937801080191,-1.0278175419868525,7.764002157774485,5.975664592348691,18.910465702668084,15.617385413826728,5.583614852662473,12.199496787669917,14.612643435237835,-0.4277249825205775,10.073672366353028
0.7098384181355668,-0.867541894458165,6.091446368172969,-0.584713516070147,-1.9998720938661572,6.150669216842321,5.191140822566547,14.6969312150589,9.92355983884548,1.16135421731755,11.947660201751647,14.109634910769476,-3.73244476589346,7.22033820497753
1.2054068538097231,-2.5037148042437742,5.231701311973708,-2.4525547689409257,-2.1975181357992937,3.3524039553126856,2.071122782707703,11.640148270849997,7.092027355905254,0.6542027830888277,11.027940286975012,12.133987708703582,-5.291532010858161,8.301907251471764
2.113122244730494,-0.5655333320705149,4.659214935820291,-1.732963851654153,-1.1580268821113164,0.9936970640766174,-2.0466761553756148,12.414047695862743,9.28428180484418,4.710611206053457,11.822613741672038,10.318989636189295,-3.480021855681173,12.111011115619393
3.10371126428212,1.251397666974313,6.509486781112972,0.7837387724802637,0.6087249863128636,0.2271243712039328,-3.1419483144648064,16.114234078293066,14.374172190826023,10.556606264261855,16.802068434714013,11.092273551344274,2.4209198389396627,14.708997885456862
1.796100295271355,-0.190586627810824,6.807806688966439,1.1138331232721077,1.246522864525058,1.2723207440804176,-1.3040050979483808,19.49356574543098,18.12899365796921,14.354018059287569,15.83065372667033,11.027203507558172,5.633266705512941,13.44536990248083
-0.6433625529091742,-4.687431789759951,7.049336061552399,-1.2364993632223278,0.482724974005957,3.3982138333887577,0.3283115556177787,19.69202702980861,17.64987812262239,13.958260630601709,13.036641499416898,11.26978766398546,1.4885932193227136,9.18074780026949
-3.5142309332070694,-9.28663323237899,6.888904951909698,-4.067185832735338,-1.0053471843923378,5.291655886534455,1.0392932837983258,16.264714128138714,13.319086622877258,10.081604381292356,8.450264907648128,10.909563315055385,-4.7688480765530965,4.867607631692634
-4.5854942043542986,-11.16891117946149,4.440198045715722,-5.663454865801258,-2.102808659974741,5.721729003885325,0.5574456672134593,11.209067124368786,8.089816838464102,5.437790622885678,0.252713923136759,7.588970533814066,-7.269745258492749,2.473869992264139
-2.6159271524425507,-9.87639074176886,3.432995134489453,-5.120253162448616,-1.9843580454229115,4.241022928423391,-1.727190346327512,7.300067693522345,5.068905906997785,2.8078191344414467,-1.863260751495556,4.50873756584625,-3.927260481891734,1.536069698711222
-0.6980907473872422,-7.11484637033196,2.115389370833629,-4.21543969752455,-0.6896402210918222,1.4789539973529893,-3.635334827213476,6.084342617535387,5.321069514422509,3.292637584651368,-1.836011488262061,0.2019196904459285,6.098295043377856,0.4153777958916
1.3594479981917933,-4.918451698638688,0.8156793520154572,-4.425550134808743,0.5117678078986784,-1.2790608843283535,-4.1084657651471455,6.87032031104336,7.305600574307313,5.629929297577363,-1.965767993380854,-4.134210557677134,15.78018667468434,-1.621964739599107
2.3845503454027424,-4.20999579803887,2.377358983401288,-4.880430810151357,0.7681296086935776,-3.0014589445388298,-2.7137490896005856,7.29229580661207,8.11185932421197,6.917001950668891,1.005530540888736,-3.960228435086608,15.96267958478598,-3.873235342605844
1.352549714791597,-4.79124875964722,2.866579544328744,-5.459073891702263,0.5285355121144606,-3.5965799909288987,0.5308891557259112,5.073783349024588,5.578526192530067,4.485323562759849,-0.0617103087566739,-3.103860498401067,7.263523620212611,-5.450465245951464
1.1203580053682565,-6.076074854180397,1.297758481867426,-5.22343486763233,-0.7899075931937426,-3.7637234066116383,2.635998928518253,-0.1329976643452068,-0.0861922272790018,-2.0632809936925893,-6.976696073247952,-4.073204953626603,-3.652446421415154,-6.455340785244202
0.8030042902069893,-7.413081675875556,-0.8839476945428799,-4.081826424501816,-1.8020564430606056,-4.122901702051097,3.808817452570156,-6.150467698378037,-6.297683357730298,-10.106245752116656,-14.17989451698116,-6.020924935516453,-13.667979651850011,-7.532689869683258
-0.302462069901133,-7.867271102248827,-3.0875271927224333,-3.112988029654406,-1.2484086665082998,-4.456830219608838,2.9422797704742165,-9.58453708477219,-9.83856039017168,-15.431792468278674,-18.41273369318193,-8.83810175524134,-15.491968343194728,-8.431857496296097
-1.1052072900050336,-6.305210315700208,-2.281436143124016,-1.054974371958742,-0.4108438849888454,-3.8726706230008174,-0.0022236028396304,-8.338033933741482,-9.222318054955904,-15.158257751225625,-15.422975693405451,-8.575081173684477,-8.319812341234563,-7.591420753381407
-2.0519946755789595,-2.2554816339057493,3.1491262818145813,1.7976944725555932,1.415039964891188,-1.8301646122779365,-0.155926401518307,-3.458267585367472,-5.8889843645396684,-10.004871608520078,-2.4779771685933403,-1.9127692935078076,-2.898305784761131,-3.675644231133465
-2.78087674212681,3.209494584740706,9.55411970162368,5.257865545893343,3.2659404313724987,0.9538755727810816,-0.3450800679862282,1.3673065307003491,-3.158035442526067,-3.9514546804431703,12.690561110583245,7.614349866515258,2.097606508434457,2.399057439041256
-1.7741784041851545,7.768361186417104,11.72153056798799,7.760658893868314,3.487669448010249,2.7521604742362342,-0.7539568172772655,2.5819474286518047,-3.621817287200091,-1.3033595205332338,18.557473568724927,12.39646483151546,4.9618838119245146,7.360839963471001
0.0398933882667881,9.457920606444628,9.3282905428505,7.365959911060667,3.4739600810151976,2.21296391082723,-0.0529483157186774,-0.3314895650675373,-7.036440993045307,-3.388880583134383,14.018546652717566,10.26735808200132,2.065141257490567,8.063427330326515
0.8749979714793827,8.253784220291704,4.25152447665536,6.446817104524252,2.89291149498315,-0.3201758715479822,-1.7431843867420684,-4.334051771457296,-10.460395720405542,-7.562777087796424,2.318614983445445,2.8647191254515167,2.45159934125186,4.440088988939568
1.762395260886453,6.088410714696153,0.1032440952054719,5.663941664463399,2.1309817095371413,-2.8810201845546537,-1.65619912080246,-5.343846084250953,-10.56615473427949,-9.364625157877862,-9.071337888065951,-5.217780628068777,4.158529996701143,-0.0226813091462698
1.5872207120743016,5.189234381797965,0.328725798089138,5.370052436429619,2.479929739786758,-3.4472434787276534,0.6704073229861063,-1.7424540411075475,-6.281309939945656,-6.104138270291856,-10.975979264221206,-7.486071064162553,2.631329052293051,-1.076445484359672
0.5348343333714582,6.225796758323778,2.212466278372633,5.5668928873024575,2.96103494501372,-1.6398972922825663,1.936522451746611,4.158457322583474,0.2960034012414754,0.989308394552726,-5.999639593492413,-5.554303594384948,1.3919445896215086,2.600331162900113
1.576534333158518,7.916128525977905,3.239902487843874,4.901238976781308,4.104339922127151,1.0293269110220784,3.297063814172626,7.997208484298429,5.33799712773651,7.703308525376977,1.6602804273081342,-1.8402952923829183,-0.8850791676503328,8.176820224321627
2.1414635293001894,8.340356647414989,1.5258034105004907,2.567956217418517,5.530790348326192,2.609044872501133,1.578108930394141,6.945644677919684,5.9269300724461,10.036728631593371,5.93878518705509,-0.7300197112756046,-5.095192557373185,11.048182799826506
1.450997688447312,6.673888521062878,-2.4918959828185128,0.1276695346664152,5.573529191529024,2.473529806286403,-2.5802090528900745,1.877352145192296,1.9652750356354265,7.106159477481489,2.9598597826004136,-4.253052703078148,-5.863335164230538,8.655076216826373
0.7556133528200434,3.8128708328444394,-4.699974744803447,-0.1012909218392911,4.801767799085117,1.7220728384644362,-4.2178298061066855,-3.660875667967024,-3.920273373617967,1.5477887544775344,-2.6643921732953872,-7.741275941576479,-2.8423742981322184,2.361827378834937
-1.4904057635708874,1.4923356425702965,-4.855855078470596,0.0007920469666367,3.131364090966181,1.889348736670396,-3.181887300049291,-6.589693505099055,-8.305606103449882,-2.7845948890261787,-8.298954216722507,-10.553839692030309,-1.1717197970772797,-4.058543940353243
-2.4163259522352902,0.8166924947210079,-2.906042428857477,0.6695985494328525,1.2443551936795625,3.2988247929472214,0.7005781897326733,-6.701235769698848,-9.31049538768606,-3.9162153179283408,-10.814083285758011,-10.355813865071188,2.4364176493362466,-7.685162537440777
-0.7170487665234395,1.4853518303703548,-0.2652157035432171,1.6195295440299329,0.506097573758018,4.690235972826319,4.999956595154732,-6.31722915111544,-7.67442274864314,-3.1299965300420656,-9.17233971047562,-6.850678728857461,5.837876001133188,-8.459256435242308
0.6772569081136335,2.2524161385677046,-0.7259813758934949,0.2169901320156242,0.0237644713199356,4.446028195237387,4.896508161472763,-7.726960765369667,-5.802639427435013,-3.4997140836054417,-5.9631440527611295,-3.834146621967626,4.590259591748052,-8.39788725240204
0.7266718259083107,2.0871713355405683,-4.33352798397513,-1.8948302703754107,-1.095815657821918,2.173990874734353,0.5837999715515787,-10.831797021088963,-5.560253600016862,-6.80952034184179,-5.840326848906758,-4.195753687326125,3.791000947620432,-9.107861351615185
-1.6563879994873192,0.991272034687026,-9.280804770849908,-3.926563451000104,-3.325037554784741,-0.8788858317557064,-4.551797030856585,-13.102392416767843,-6.6399216709244415,-11.554439715285731,-8.197113055738807,-6.514538525549142,1.0798947740880664,-10.075850662914998
-4.474038404357448,-0.1882559362276166,-12.819973624494814,-5.571470719369129,-5.4954994409211135,-2.917623315459821,-6.782252832257591,-11.843249081485371,-6.928042425215016,-13.950495845262038,-9.625168911935276,-8.156526413454865,-3.064704374913836,-9.287593215402133
-3.8292104173899872,-0.7076749001023215,-12.125489143720332,-5.044972294113425,-6.397306449522949,-3.1122349053766944,-4.035603293167467,-6.748491173309,-4.59240844266162,-11.304485472176776,-11.60498569564936,-8.943169081910396,-3.140267955305417,-5.535964941708449
0.1498807999257322,-0.7177199375269065,-7.584942068849666,-3.637612838062624,-5.629512321046674,-2.1518366182098383,1.2598518576475273,-0.4937036251051254,-0.0158451911766963,-4.830229472891636,-10.126894531338346,-5.196488133913675,-2.141316254410757,-0.2532335230351878
6.123790198470374,-1.106768727625914,-2.6253157877910587,-2.452539796542456,-3.7478096717321248,-1.449954650802758,4.1869186467942665,3.2211861671731024,4.263459470262014,0.8068611509130321,-7.205499164746009,-0.8378929871454684,-0.811420397827594,2.9584970380313638
8.62304156822004,-2.4890433443875075,-0.9374161098753648,-1.9144624276509143,-2.700358517190021,-1.842121265956452,3.112970729413226,2.593895566812999,5.651539497813802,1.1623691533226848,-7.721925994603088,-1.2079547556267822,1.199283100491798,1.017537958487881
4.372200360496831,-4.316295862953329,-3.680976770263848,-3.1835907405455246,-2.096061489932291,-2.9579880425694425,0.3042778249812595,-0.8539743516326828,3.7360413798621392,-4.160739245091008,-7.720080839695978,-3.4308283034208773,1.0132673747858552,-5.800423920585851
-1.8059478762753336,-5.112510242875775,-8.045507704279,-3.5450722405858297,-2.321896438440257,-3.718457307869247,-0.6998707925020943,-3.6178433164870265,0.5474833505205803,-10.989733927359165,-7.390679458008194,-6.480103728203481,-0.4455004911304533,-13.392255072704376
-8.003745649019043,-3.817390552995128,-10.089831059652512,-2.065094702598073,-1.6355783972265594,-3.3852006969435022,3.1858144774863417,-3.25619807945495,-1.4355645772740853,-13.997602816891858,-5.771186295355197,-7.288632231900359,-0.1923156037630684,-16.533094554723416
-8.824565793218428,-1.0434504128784683,-7.836662718320783,-0.1400008047415575,0.8514124658802108,-2.1987704742293546,7.948247412460942,-0.5435648434330513,-1.6298378263864075,-11.112211674142069,-1.395439077183259,-3.0742954186020786,0.6835382136396269,-12.868779774616373
-2.425261716854265,1.099780412784087,-2.425394120717314,2.81860685096786,2.150705498741428,-1.1136922094604418,7.981667781843925,1.210416636051284,-1.7310026984515186,-4.998858271627294,1.840553978317201,1.9656854337084708,1.0387631437142502,-4.894715225872792
2.464589793974474,0.747675795567702,1.3364046793188242,2.9749188555342663,2.950818710426496,-0.9549850358946592,2.89443458154146,-0.8050437246212172,-3.6967620459591535,-0.3474002800234976,2.022471716435996,2.956068880766733,1.849144945663738,1.9625785737351067
6.323893813151087,-1.852379227458916,1.3965331130340248,0.3197431170170456,2.307689910055947,-1.7560026756165428,-6.853177238320019,-6.129803924098608,-7.29051683593866,0.4555115461106647,0.1827531104286325,0.3971623287297563,0.9124497412324948,3.724327749853073
6.377385145973243,-4.169504979277367,-0.0966481231133542,-1.110706833121003,0.269237836419557,-2.8021214795486946,-13.4384117251124,-11.038362319132554,-9.725596972347883,-0.7424696004416287,-1.1019608753168693,-2.094617793638975,-0.8718856251963577,0.96569127450128
0.7156149059884747,-3.367032679915385,-0.2972178923515592,-1.0095082858192417,0.0940532372565268,-3.268692862018523,-10.98246288457162,-11.46959091586615,-8.018141776797814,-0.0071025808749727,0.9685260209078184,-0.4604136532564908,-1.0652350045899257,-2.047946496420847
-1.6177201306021738,1.1251672007077085,5.011255341655928,3.976830266329929,2.7003934912893803,-2.8608927285216748,-4.697015398469498,-6.423167361690362,-1.965310832703352,4.626963494970756,8.279063504114884,8.08299772048181,-1.892734454498862,-1.3038790857208324
-4.5472005497069246,6.75776581712326,14.173378743312597,11.703126376195764,6.217420786445573,-1.90854826376856,2.425546058888743,1.1241153806144246,5.154832472163987,11.089490621953775,17.635764220650785,19.425341267093984,-3.5560315727794647,3.605652348420521
-6.7022722894057765,9.685311160921206,19.64762563129932,14.899193079649477,7.92471171668786,-0.8753364184811707,6.028147660465708,6.610625040010408,9.078851811064354,15.115796267556895,21.969734457024323,24.761688098380414,-4.777866524828661,9.659283277287171
-3.784185980250872,7.85286159320136,19.068430086063803,12.735182067403962,7.339181225302683,0.2188506035843676,2.881410684484357,7.548237390355752,8.140928137054857,14.191023265405786,19.624789591714062,21.70480117249212,-5.3124217687061,13.561778762341069
-2.217490453630695,2.7044049988888093,13.136200316211578,6.848547831255008,3.5005922440773354,1.8670786611536696,-0.2034173569812299,5.331089494175811,4.679420273306436,9.866983429241436,12.806850478403456,13.632468625615228,-2.035615131288735,14.581710631952369
2.9305710287132976,-1.9892246864112564,5.8637953599622765,0.6387377753418213,-0.3507743758757907,4.5015679745647095,0.2485154090823278,3.734430007763951,2.929631761304834,6.334812564945024,5.421599733572941,5.444747447272254,5.464883242165,14.430217988370538
8.554788351772851,-3.156200719236206,3.423687755228455,-1.1028315176679395,-0.6944366766454507,7.777928865418039,1.4694923985743311,5.517363998848531,5.304793338848043,6.66635966038824,2.5967239739591195,2.6316415859326985,11.081632394256316,14.73177472457214
7.5438628614847,-0.6798663985133198,4.919805928320427,1.661783811193493,-0.3568668470398592,10.439391670868968,2.9206697693660053,10.0935732100018,10.42169681113016,10.218648941187034,3.8187412991743472,4.356415187585585,10.713060789065365,15.002416705110996
5.794075874674403,2.9279607308619355,7.249013901225106,2.8692195117030184,0.5620012580455723,11.025628944477392,3.5891803037018213,14.154108706515563,14.506322575794288,13.4585330717962,4.30945282980014,6.2160507794975945,4.521128507458868,13.258585891314585
0.6775924136480438,4.847680841333151,6.382864708144643,0.2411013718223114,-0.0071452033774697,8.919732388203759,0.85247633546754,14.49077025313371,14.645367799236295,13.217079264896224,0.6800177125736554,4.352983998147228,-5.160735842920468,8.46180946831179
-4.759855304515017,4.016472614061044,2.177368222519616,-3.2603121703410967,-2.9265026511982466,4.870726221367637,-1.457688389422588,10.468757226323238,10.824926791442412,9.258884770140629,-4.487977909506964,0.0754794083798289,-10.914603985812084,2.0845043604416933
-3.3043361645227565,1.2831886947292528,-1.3860101499181547,-7.032522833026654,-4.158108558630181,0.5504536220633875,-0.6523942911549967,4.161166706275591,5.183358697540346,3.9645973252834033,-8.197400031012576,-3.416703021347536,-7.571262501484554,-2.91918110007415
-1.4974151768432056,-1.9449880770733712,-4.195090023527516,-7.416788815041842,-5.041271612049762,-2.4746211099211006,-1.64221684797283,-1.5964548558649403,-0.284447685449213,-0.1910565748771047,-9.362848115746408,-6.567238047773071,-0.6436406008264408,-4.709450974717666
-0.144817700470184,-4.847995833611283,-4.357434127223733,-4.756495057375751,-5.16585738258296,-3.538216550012481,-2.9824900482071075,-5.222094565189408,-5.073258308856047,-2.7155306340616603,-6.323466630751423,-7.184334990326969,4.387288028642155,-4.085914524458138
0.6438906058785159,-7.094360100409244,-2.6622451109020004,-4.117023653595979,-3.930523027812231,-2.9360399253211784,-2.8685725582574366,-6.765954190347189,-9.452077613613056,-4.82633835097624,-2.4539356635999443,-5.86048589143496,5.184238883212107,-3.433716075369152
-2.6101105243496425,-8.14568272079308,-2.162143052613037,-3.952731156551346,-4.005670782761175,-1.4441158162892158,-2.690306734326528,-6.799428698230756,-12.92714339743024,-7.442160464801856,0.0309772797745038,-4.2732411549816085,0.4663274905135011,-4.220305534887856
-5.261941897390897,-7.285792852466436,-2.673468310819942,-4.86257409661142,-3.767808101892784,0.1611394700845045,0.6300292680969511,-5.401571902558345,-13.905596884736369,-9.71687824626687,-0.3249967774239739,-2.7129709484791853,-4.574666558676829,-5.603389681917895
-5.311361080806197,-4.613102968600988,-3.1644371505562883,-4.7463572209632,-2.7766275762940924,1.2807383727586017,6.250938794346732,-2.4307179435567,-11.096172450115583,-9.654046397449116,-1.4382265215747163,-0.9287008522517124,-3.958704766429472,-5.519723197843168
-3.22526799897174,-1.7616723446810023,-3.176738685052771,-1.534985569267304,-2.513327779090717,1.5124988363488845,8.209182983301716,1.3992305716789444,-5.174060894589022,-6.12739753817058,-1.2711032454371616,0.2118743902156189,-0.1078539899661037,-3.070294468393984
0.5435343382961393,-1.0942608591354428,-3.1004704886999432,-0.0612908763310183,-2.1432332565301557,0.766277162631285,4.969450599471156,4.167005337208677,1.1281325274164111,-0.2629143588660897,-1.983930373664661,-1.3516824709350646,2.516272987982177,0.2858823529556629
1.843435404481956,-3.714503109391632,-2.468905003064612,-0.1499084391966954,-1.5642885711631227,-0.5624834158935309,-0.435368198243876,3.9043639008523554,4.759722654275127,5.137365664519953,2.4499000427196944,-1.6011089263550613,2.7508797611517632,1.9726851940211527
1.500507939710361,-8.119885781098606,-2.4542715245285107,-2.156218343400605,-1.1547861771953545,-1.6614491067386563,-7.14512525417119,0.3346357511810218,4.397206905075036,7.555325596168261,7.4839791851998525,-1.554747957060937,-2.063638742438953,0.7302523339419924
0.9423216673043858,-10.957762185068692,-3.257367106608514,-5.234488028183376,-0.3184584859943112,-1.7649522218447045,-9.840351016684894,-4.548661529243468,1.0973439519633787,6.393858672320264,7.360172954647239,-2.636093921765959,-6.435808384845137,-2.1775208472631338
1.1082198981414684,-9.41821049767956,-2.978674498906825,-4.316351622457152,0.9199241577359074,-0.73200316839017,-5.543309463061745,-7.773870543929849,-2.7234900677998395,3.115367841065626,7.924128068620615,-1.2073863189570528,-3.417252298295301,-4.112120830485435
5.369946237370426,-3.273639977405859,-1.064595857053483,0.0430537592475642,1.964203089306079,0.7768771912295027,-0.6808223408817186,-7.474904679953811,-4.865875939636305,0.0862256882164684,3.250854845347925,-0.4797841868557444,3.6855973515952094,-3.353461964475075
9.910004005442326,5.02887258958279,1.835379499270984,5.097247720619212,3.3855966842606025,1.7583354675767926,4.20392597350354,-4.003280962560492,-4.30970718191416,-0.8462351960365702,-2.790177136174569,-0.4777893313810413,14.069662448243433,-0.3541083127505917
9.238957036636316,12.019552923090576,3.3298010640665834,7.704514418490548,4.777217487878522,1.622237697563368,6.460598918051492,0.6412659181460532,-1.366638547785168,0.762425008656435,-2.362969075874452,0.5127229402854047,18.36115457772852,2.962624905425802
3.353125534346056,15.074831050379654,2.204595970629358,5.232973976455651,4.97042631033327,0.5992586831534803,3.238239212782174,4.222625267789507,2.514040296358843,3.7959967933795262,-2.302972985266013,-0.3682112722554069,9.8275226654637,4.81420975973906
-4.566050247680847,13.285672271842657,0.1783374035261631,1.271234900906954,4.99847110248148,-0.5551721252898514,0.0329679587977287,5.27221689752322,5.126941747180972,6.063648347136471,2.210119860539548,-0.6228486811233958,-1.2832665080022334,4.483556795084835
-12.438074085150683,7.379620509482615,-2.11298293205645,-1.5315032232457957,3.653306907349793,-1.2669214791623808,-3.202042691525229,3.347614585417052,4.434280411187928,5.38589805850782,7.914978903584244,-0.3034830058406602,-14.846072721457228,2.1598937993327616
-13.129869403375585,-0.5696832789759148,-3.6797889377920026,-2.350185004629674,0.87835673035961,-1.5761499616862216,-4.831318875849487,-0.9020699773029728,0.0382022960282144,1.0222146449523306,6.570015728589633,-1.3488059318790624,-21.31730302573688,-1.4347801180773796
-5.344525893396232,-7.432361952936412,-3.323567223129286,0.2628123936872732,0.0701263389420136,-1.896447953747504,-1.9318948127251645,-5.57643065653286,-5.837531643722693,-5.380778523638066,5.157196959616345,-1.0253701361531935,-13.402082593103692,-4.973981031982814
0.986176150034886,-9.8688812738066,-5.10666847004557,0.6379271817465386,-0.0775952517933857,-2.394923389811449,1.8184868129778895,-7.884400183550205,-9.226968223952278,-10.330279120405203,-1.0588283557251374,-2.340361033349046,-6.245127095834686,-6.557611772582508
8.245886446681963,-6.056204897278244,-8.432945405977112,-1.5725432661458998,0.4310308866287422,-2.69627987416943,6.570458938258208,-5.659546660199703,-7.19572343639153,-10.658998136444213,-8.499122170845787,-4.447992575320725,2.390223612277276,-4.743901884200349
11.24174570893779,2.608809051516642,-9.253288592932249,-2.2004043391513983,2.190906608575588,-2.2774361066830755,8.982544177385678,0.6664797611628149,-0.5067623044102878,-5.961985035166793,-7.761996186859399,-3.725749128537122,8.693477661834734,-0.2066693688536194
5.422080428189016,11.516648656971515,-10.375748102852478,-3.924000666385455,0.8237834480585025,-1.163508217832716,5.356793881491183,7.539992502850819,6.36367745811581,0.7481396155589426,-6.125050201100898,-3.898257183726076,4.779933106679016,3.776895328261928
1.8703666280048528,15.333402995248662,-9.056884156638525,-3.444697255019715,-2.1927245728845874,-0.1637908362707429,0.1960448385302233,10.397657753217256,8.40404694307593,5.043659049899943,-2.0208393744528865,-3.2423952996795045,2.111214573638545,3.290473084086987
-3.717326755919639,11.595748062640393,-5.917845017010336,-1.0647820757362376,-4.379332784730294,-0.3185351780560024,-6.371153947471506,7.156290110661685,4.033468319251547,4.338566634292962,2.135832878887308,-2.043532033667598,-0.6497632251037112,-2.933445117302814
-8.210939487063886,2.664374101611532,-5.251985804389244,-0.8542553568291664,-5.540148797729215,-2.023302518634007,-9.987048123217049,0.085701523207031,-3.55724560185055,-0.2802494553945749,0.1403577891151064,-2.899202810431808,-3.091954353889398,-11.854799392101814
-4.996672911999028,-5.753223148181399,-2.454026280846527,0.8886613845167141,-3.027913454710014,-4.624530345673751,-6.703701252679983,-5.829626957486077,-8.933321193745194,-5.186927913008115,-1.479494700769422,-1.84403679142845,1.0090599531085165,-18.007908290588816
-3.7503156766225128,-8.588754851049785,-0.7908093048517626,2.0305892326315664,-0.1551908609291407,-6.822016122696513,-3.1187376676985448,-6.764576511984282,-8.61650191385516,-7.212551162536409,-1.9898472547475947,-0.2414643326318989,5.992405587473416,-17.598328689326006
-1.4864909817616727,-4.8784707283643,0.087586414264132,2.094528395818895,0.4527548297589797,-7.493628398507221,0.3373463874394725,-2.7798216627356505,-3.3530357092952228,-5.797657061832602,-1.4811614177586454,1.0252313863633944,10.804866113975956,-11.26941304063241
1.6670188745609305,1.9042501913669956,2.4724678936548115,2.613993570939548,-0.3199328403216166,-6.290579336437398,2.3559896075943807,2.820959503231441,3.20090811397331,-2.6206590673445493,0.7588349060973697,2.3602622659859773,11.60766682061267,-3.1689101951545906
0.2186466376424108,6.693225620606451,1.926962306085022,1.4224845604086915,-2.442278751949442,-3.6838612441841834,0.4012219310880728,6.494048642894718,7.712845389850093,0.431916401239568,1.1456268308567887,1.275163406280989,4.4454830380269925,2.5963789518576696
1.244839547547946,6.463711864722732,3.15239356962454,1.865886678523632,-2.941641470804355,-0.6056496538255787,0.1690118252334686,6.854460494092503,9.260293317951051,2.6844814169251103,0.6889634724518422,0.7544495566656809,-3.3242293521037483,4.771862049533743
3.346986681776202,1.9699734177826176,5.182380591552626,3.800546287728351,-1.4271756207892126,2.015999375280567,2.083489051136531,4.673545601308343,8.852484364630932,4.302825198579377,0.5165915861425006,1.494900456591952,-11.918605998754265,4.79488527548156
3.056077628166062,-3.32150364946143,4.278269896997784,4.295682035074359,-0.3467239028686918,3.631537950891077,3.1261523420406654,1.3658948441436989,7.660030583088462,5.130099741130504,0.3814504741636724,1.8956895822495492,-14.601376160189696,4.520566355695339
3.000397763734347,-5.897079693931699,2.834742742098943,3.022301042840556,-0.7545496681072897,4.237334526759134,3.671557442248365,-1.9838059880207712,6.101719849989165,4.456521914865268,0.2614934296160693,2.4187500300429425,-7.084793589774375,4.473398223730705
1.335040264662259,-4.444426452302775,0.4972780249058279,-0.945132037395095,-1.583860290481879,4.233440358773419,3.0055442818598217,-4.371313979405764,4.391060198063199,2.035803402418521,-0.8802869553986822,0.8265186950128351,-1.808673621807627,4.114207964303833
-1.143344036293921,-0.3831254406278988,-1.7570240633496603,-5.802401693294382,-1.812616976654284,4.012167744472475,1.0064345272711337,-4.591639188006146,3.251475462801933,-1.066316934821197,-2.964033017345183,-2.2909349273216275,5.213050348743195,3.1715682428353364
-1.5261814399682705,3.32632566597254,-1.0402854075919246,-7.4647934732348125,-1.1390519738256228,3.5872560019926505,-0.1414649513896147,-2.0687426316780737,3.493141493372584,-3.108032122912124,-3.754670101679419,-3.4123423012303022,9.78473150048877,2.152868219405339
-0.5608389419261626,4.144564427578915,1.250613892727945,-5.63477183004595,0.6312883362586142,2.6406090807655667,0.0393577698239411,1.9075472618498903,4.850498455726401,-3.294917206109222,-2.0780914672962525,-2.392192767494012,5.158638647319826,1.533670335278278
-0.0022027117562036,1.456608042759184,1.6817040558426195,-3.0781001923131743,0.5587376184670932,0.9980986855662092,-0.7823151725572501,4.403269624867935,5.69848943306721,-2.577041796222625,-0.1795096306894671,0.0161704361110811,3.829638641508602,0.9242876647833196
-0.1467304688082003,-3.2627689688568893,0.5667355619035561,-1.6793560717892952,-1.3725472330310144,-0.9445653492217309,-2.664518475321974,3.1181325110418427,4.413328098737695,-2.612109617673128,1.1548941608024257,2.621581373113327,1.013987878656222,-0.4789464286658633
-0.4763787763262649,-7.656756968830045,-0.5290604084075241,-2.3682587940734394,-2.483595134703301,-2.3593859479039034,-3.3728037080860056,-1.1619817998566226,1.1701375805418754,-3.922737561567264,1.8746640911293388,3.50709822767661,-3.655978127257166,-2.566297018954325
-0.9678404504300224,-10.150505574164228,0.7116283624403226,-3.297393380157846,-2.5516171712713995,-2.638921639083096,-2.7241251743212835,-4.603385260364648,-1.7884636425219185,-5.206959888273547,2.259790286251802,3.457605339946565,-3.068415022835641,-3.807193581336108
-1.52244619282876,-10.782756927700431,3.3916282340297186,-3.803027584234604,-0.857083797905199,-1.9249819327349973,-1.365615669945743,-3.375168525808649,-1.925250133162544,-4.532659542593816,4.1936832737717324,3.2221106287190318,-4.938784611237884,-2.4764769648421003
-2.288095279209445,-10.602889016382017,6.125931023193309,-3.323942846774842,0.8988298108326187,-0.9383779370540096,0.8787128142897946,2.8317796162671325,1.3805979763779908,-1.1721807173747276,7.658975026423497,3.640073263238609,-7.559345451106305,1.4903962397530517
-3.294886164195575,-10.31995936329554,7.171978367397301,-2.186657200168049,0.3817139235611823,-0.2520818190212174,1.5245856215782034,10.138376483686796,6.258176053757197,3.7305720621328096,9.207979060210173,4.327174857361349,-6.331548071476908,6.028598136717048
-3.357755617101315,-9.586604169446035,4.021978366903495,-2.819000934193493,-1.0957729385739814,0.2321365613348785,0.0004335496481767,13.483890124906669,9.824045202605571,8.129937012241344,6.987153141181971,3.7270841451611862,-4.011751128283184,8.543609382651844
-0.7802298848016581,-7.627771049333779,2.6726852991429992,-2.019805845091673,-2.2040980825900465,1.0255836870171278,-0.0648431925631517,10.705068016611191,10.198428349803418,10.523916492593123,5.380760851792397,4.3392712432224565,0.8141517149182892,8.082635576899378
3.9627122762119575,-4.4923342523092895,4.012838829803076,0.3709598179588635,-1.5078731001064054,2.2719315571609253,0.7165710726694392,4.087070000793919,7.333082012424173,10.519123855942713,4.111585054251178,5.370588255815951,9.335666831621802,5.947549824546522
7.41960031786398,-1.4970822826762884,5.049538722408017,2.1086391914528497,0.849570327952686,3.326487348401963,1.560054791598194,-1.836361843835024,2.424754998138533,8.38108481462115,2.403128863145932,5.19461751627598,13.752593515591292,4.236394432828208
7.1601147513433725,-0.2375795272376972,6.5518104360725165,3.892538993306337,1.976488866032006,3.2737995813601346,2.650658023929952,-4.037934968690239,-2.9695812928891474,4.522810610222948,2.6167041720989843,4.8882433483197,10.51672444006672,3.9137317198478176
3.69593079137397,-1.061640065268656,3.923121214431752,2.775809600282224,0.995797418943276,1.96679431981896,1.6806144612839042,-2.9286968443305854,-7.240027256730629,-0.354067400427021,-2.2879407598279444,0.8746904227921625,4.534269406438561,4.34878983291298
-0.8149552812479008,-2.5500252780084365,-1.965417668196341,-0.4336220145920144,-1.2660437899407857,0.4821690456399272,-0.0663204672842638,-1.1017317911270397,-8.80188173262531,-4.861255837043739,-10.81590706366244,-5.573732908299552,-5.213686259800432,4.541687371356289
-3.0770312371971578,-2.632570601093492,-4.986903702609695,-2.005194302324516,-2.971319200036881,0.3108369012346506,-0.8958271816695821,-0.5703616647493917,-6.759723305761673,-7.21630987581785,-14.366029143132227,-8.86939903914594,-11.400284976050596,4.426042472537606
-1.5510509444861684,-0.3872839716587362,-4.786564043789478,-1.4747568285860098,-2.136908950358408,1.8603318786932024,-0.9717722819240192,-1.2712868629826437,-2.00818325212093,-6.438030656734837,-15.389414392030014,-9.24207214598157,-7.205916252717778,4.699719620072125
1.4493981415111865,3.105006965632122,-0.5650606949428618,2.7209737343387657,1.0236606680049094,3.730577612861981,0.248643803795048,-1.9093244970743264,2.517466925061873,-3.448872433291241,-11.794549923096245,-5.126209401296521,-1.146030070758658,5.446082910385297
2.569561451608744,5.617562422899673,4.879534178222625,7.810473761110892,4.038948774497657,3.717506730967931,1.0719784719280294,-1.7621451024047818,3.3841484003567848,-0.8229794910822106,-5.410730793821091,1.204587931818386,5.605806971309737,5.295718708103543
0.6624950756595774,5.575631881918484,6.259056724765716,9.37221127993249,4.950196430612834,0.8836734039450689,0.6669771308216976,-1.3931775878360133,-0.834649459609409,-1.0557815759916656,-3.857574633489477,3.592863756604839,8.552038672901055,2.363796409893901
-3.4329135775396766,3.2501766928837084,4.7615055008690135,7.729158413915194,4.360841411412441,-3.197336265442453,-0.431877807598356,-1.7587110835618187,-8.247440820884272,-4.691824295293419,-4.178588387985661,2.695860461229446,2.046208263913701,-3.757069687578911
-7.850271617257566,0.4363115186147457,0.6318069258044141,2.700151857623897,2.450078087375176,-5.422792666485833,-2.621014588327788,-3.0004501855268497,-14.905901854132882,-9.914044171840873,-5.703238340189924,-1.823440141360128,-5.684663170174164,-10.937300554850635
-10.548562396495749,-0.9394822264297424,-2.5243820450216794,-2.486516007623175,1.326174562730284,-3.785519542929984,-4.332740226631841,-4.31589862193722,-17.691835978241272,-13.91662324852641,-6.243062793835016,-6.24393605483892,-12.376550371181782,-15.590410488980083
-8.541084804894961,-0.0257121121425258,-1.3146602880725855,-3.391376666458908,2.2845458904188694,0.6268639962972786,-3.8687951284415862,-4.848815715858295,-16.321244818728353,-14.795493320176757,-3.42108869339582,-5.848805331916613,-13.548451280746972,-15.094496312312383
-2.614564602898918,2.796491543035599,0.947927485243406,-0.6786855098214186,3.34644466734418,4.212179078042524,-1.6210631546275127,-4.401728571368906,-12.805370171344736,-12.378231401699692,-0.3361124735401098,-2.478453793155528,-5.976625036210975,-9.55287160852985
2.979914988942976,6.577962063245856,3.631659106534532,3.111243285891287,4.724907053538612,3.754100176942144,1.336720844624732,-3.210763815411237,-9.157523992969216,-7.627733927367961,2.183111796252319,2.1786704931860137,1.45439310309112,-1.5757862546592598
9.972468191719145,10.396719762491747,4.572234112768792,6.365377228755198,5.567302436103533,-0.7719426489663181,4.143232792804195,-1.3128305621543443,-5.718943097912634,-1.651117348917987,2.585703192766531,4.886438481619496,8.300171457879912,5.502358772452653
12.366719678907325,13.368326554282543,2.225262234808956,7.228190627203839,4.874488679043883,-5.968564537097312,4.177001574727482,1.4882156046787391,-1.6369464927780355,4.558347607608498,0.913074527842784,3.5827533821089235,10.679535012644015,9.45822913341589
7.124220061148916,14.46048532759858,-0.6665546915704148,4.311725046137295,3.7062873310936575,-7.675748206213946,1.3938343780543376,4.916219790303976,3.28211102441885,9.68635322958832,-1.6682523490840462,-0.3983846014457429,6.400914313102143,9.880365505054906
3.5125284025139014,12.840056500342936,-1.4415827046531542,1.9189103589863536,2.470749700783271,-4.324796056618847,-0.4195907335090214,7.696108444950265,7.497214708475911,11.998637011607492,-0.4234438613558957,-1.7079178385963374,5.814125237167152,7.670843518509192
-2.914045793764579,8.777499047402618,-0.6226076219887136,0.6116537489324734,1.0112089008546017,1.8220100065370937,-1.6009332147549071,8.062280644922877,8.67828128311352,10.22174271995988,3.494620027046043,-0.1445487386099436,6.745159439503442,4.088181536936132
-7.858989601691777,4.139257930126653,0.5177112348076949,-0.8555370903232029,-0.1049631752396467,6.539767769180093,-1.4056564568865368,5.053482354422034,5.767345267061163,4.756643104873524,5.835474078203308,1.3077782247814966,5.627892580556468,0.0831639035054725
-4.714373388032349,1.4905735391778343,1.9811837373176957,0.800888911352211,-0.2754723717257372,6.979956068448962,0.2118375405050811,-0.5293191173612324,0.1121098789503172,-2.0716245053712825,8.488695062584164,3.6900912882042207,3.5085641220448776,-3.785233470838113
-3.944237879687374,2.120643292141553,0.0752317531359813,2.2164351208445443,-0.0340521671373122,3.688684699753799,-0.812697103088391,-6.3642797695521525,-5.409592162756904,-7.214720468208503,5.017760361740386,2.163327022308817,-3.799151964709346,-7.026085631956637
-1.9702598567517755,4.686218980735135,-3.105413398317916,1.991244367104941,0.7709134208253996,-0.2329363452141333,-2.933082109244941,-9.885464819870556,-8.390914168180451,-8.635848209364218,-1.380875459767707,-1.42460740641929,-14.05468301355364,-8.892737880988923
1.9230376772152389,6.02601779989466,-3.5879951743855223,1.7178664626447495,1.6950896088991003,-1.877712176151403,-3.1797263995992733,-9.679144622835512,-8.198425705455222,-6.1935957177538565,-2.590530583511016,-1.732123639291527,-16.019771717676825,-8.450736144830017
1.7251628788198927,3.8123160564044,-3.009514031740043,-0.7447945593576555,1.458828569000114,-0.7287623448896254,-1.175450578965969,-6.1410991169231846,-5.663117811334532,-1.1907170090149286,-1.6643884195077177,-1.1825431679333973,-8.149055606310807,-5.140411520453497
3.167323130777625,-1.2255628732676538,-0.192429614900349,-3.904865422727008,-0.9717294348980282,1.4467917140731323,3.6334300652138825,-1.128321276618336,-1.905540135990611,4.676717616248589,3.249631162179858,0.3277687334246261,1.0661717089691878,0.5240824423487318
5.276109211051501,-5.692374581792749,3.164447653058088,-5.618253079863605,-4.423670878160273,2.585208651095611,9.542827721083086,3.072452254533567,2.3144382023245043,9.965044478870642,8.849024050809918,1.7495969856414515,11.976503458634843,6.742893467175002
3.77449663793489,-6.4292680230673565,3.193524081301997,-5.456118192236675,-6.366913600244933,2.171451607567537,10.428213865666285,4.840281897479948,6.244092766244763,13.483402030212956,8.75211792396437,0.8253490636427949,14.505825744688382,11.06956103319296
1.1583835294808933,-3.3896034373658948,0.4912820900322591,-4.26795081062464,-6.301957915010681,1.2923905722656928,4.959663287230319,3.805601240841168,8.61521234065308,14.198706349432666,4.608968372458603,-1.6053899612698723,4.67114776870294,11.60980366377878
-1.6188016522647606,0.1966138817287772,-1.5028230908870344,-3.101268686543276,-3.0034491848705263,1.1097933608910115,-1.449433907085152,0.7056586016775978,8.006343708710435,11.558821579026894,0.7254477940059129,-2.056427149877355,-0.7950062845313105,8.024767776841145
-5.658793874293253,0.6288790432349125,-2.766735843227241,-3.12374329074108,0.9376578697960511,1.4596684329820129,-8.833223851772598,-3.234062404415111,4.039351518266933,6.07392899838806,-1.0887794955898682,-1.4449236350248968,-5.783705115332254,1.7348625550322443
-6.172934929716918,-2.9833165564049304,-3.572460571507355,-4.370078188634845,1.7121918776552283,1.016987668681358,-11.392913139270586,-6.89498810324454,-1.800562869736966,-0.4799054121529549,-0.2935194931657118,-1.7599240404832202,-7.675014592787955,-4.708915863931347
-2.309271043498751,-7.907936236825052,-1.8602839330657317,-3.2312682701757587,0.7958984157159691,-1.193639886495292,-6.166901401121836,-9.537763048175112,-6.794965518899634,-5.655425268071193,4.012973404191508,-0.329904359909447,-1.1136542145719135,-8.69496589598286
0.0988990392408708,-10.105370896543905,-2.941110747530085,-0.2869427837312443,-1.663550430602005,-4.518183913405815,-2.391325165722308,-10.826386447280653,-8.755170197814454,-7.495315931077268,4.526971164808764,-1.4358099875781067,-0.91268287834868,-8.638723038656732
3.7706768868801146,-7.522387856630475,-5.616720241247808,4.164554789612711,-2.83663685034778,-6.95335437657752,2.074366420217646,-10.790511200670087,-7.404337239802738,-5.548621124002759,1.887996271290154,-3.3025573897734293,-0.6531528542343485,-4.755819986505902
5.62108794006993,-1.5076386870513532,-5.430581381757538,7.956478564723139,-0.6671186539825464,-6.775209256472852,5.304127846286775,-9.7260384533935,-4.166291343379841,-1.0806558522249556,1.0200015522451644,-1.850033994729044,2.0732357378068134,0.849247745326962
2.2301639167146607,4.603042417002435,-6.481430428558481,5.96339916722326,1.36379659037515,-4.021370034371533,3.1505731448534977,-7.956362173927144,-0.7001492396273559,3.6759201965444097,-1.332718455883059,-2.2505382833372165,0.9659451073365988,5.09068091905424
1.192793013484334,8.133200875974893,-6.396751910709089,3.256217946174164,2.7706603209975085,-0.5017373808574099,2.631451325188816,-5.6219014132073015,2.285018365603566,6.757628659048901,-0.3389378631400578,-1.837356999851808,3.525556054030718,5.591672506135405
-1.0288880061158314,8.556636858161676,-5.615191445565996,0.92438131434256,2.1633398136349102,1.6098707593740298,1.799000196716838,-2.8315110418202547,4.832008120568757,7.398719300682945,2.503878154356893,-1.1969345073319473,3.772098841028159,2.161645868052448
-3.680540967084752,6.914564212814891,-7.449961673681868,-1.4021256253437224,-0.6255337495796561,1.3214381427667077,-0.6650257002239072,-0.1350423248580279,6.651094859744471,6.088853893037916,1.6092876160214291,-3.333632696696512,-0.4159182547944111,-3.119778981229164
-1.8941634245917136,4.284156095427687,-8.165508076977495,0.4616855681916306,-1.957840557117652,-0.7478212805938309,-1.3139568515656377,1.332390083388303,6.6693407715441815,3.8612270543863065,0.1262550747118666,-3.626588363426533,-2.461675841224704,-7.4444093809632275
-1.880573589727311,1.0181004195347327,-7.101954711873139,0.5709786133334028,-1.044538134364675,-3.17897644480966,-2.3643939133997702,0.614915466975102,4.001840054168066,1.4923677856142952,-2.1027394089136333,-2.4852386790944254,-4.871274334144172,-9.262344684123882
-1.0803572772471326,-2.7208703461478594,-5.486729932146116,-2.397590580085236,0.9254006889660972,-4.859857435162768,-4.013812701756714,-1.8336541731417668,-0.6041315892704961,-0.7347749432293438,-5.175197789867546,-1.0491432466300732,-4.77138741097957,-9.051194079777094
1.163891030892836,-6.122333401085337,-3.442203983993702,-3.703702525419653,2.576517060297979,-5.4077888788767,-3.4795724622549757,-3.8166631284322903,-4.604482172946335,-2.6667428885961617,-6.304978056412828,1.076584673650939,-0.9847289320019224,-8.304063210165548
1.0130395686655094,-7.801142546843236,-2.276525336151105,-4.861788849925215,2.523099890834046,-4.813504967587013,-1.6784023128046308,-2.807584535154282,-5.366040041037541,-3.86417273714576,-4.876185571710879,1.682516959920776,1.500975877836264,-7.84678614992716
1.743893013279884,-6.838193968146978,-3.3563083055614467,-4.787529533323843,-0.709848715297777,-3.0082520662160586,-0.0050194969998119,1.8250970785590592,-2.33157969667921,-3.6721013525768846,-3.716719799687539,0.1624553317745691,2.6650219131395945,-7.158013770431055
2.4761249759757478,-3.7013443214047657,-4.579563531216229,-2.777237046146873,-4.264088319126721,0.0308917197010014,3.334344613265619,7.912220342871946,2.458743346642276,-1.760786279455986,-1.5325509725622566,-1.620353435350568,3.223719524708568,-5.230077286150211
1.58923678149665,-0.0697737372902209,-3.672183326128696,-2.0762857597490365,-5.182325376533267,3.800497191084784,5.189300684500601,12.061292937622516,6.084574798040993,1.367783681728028,1.859276974273956,-2.033902181051077,1.8026810088496483,-1.9112996633341368
0.2227999577710581,2.258819344952756,-1.3366091697837683,-2.330123010555782,-4.885827383911106,7.108810740253733,3.8784203881272177,12.45619246717658,7.080675919037298,4.376000351481514,1.471305321036334,-0.6056923822810357,0.094380227124832,1.712738467723718
-2.252923852926089,2.339613002162527,3.363948661794531,-1.6113990549160109,-2.004958267336626,8.618161806315452,3.3124028281435023,10.249611520172486,6.1868665427795,5.652559179889431,0.7786499613283545,3.1120420937978914,0.2233412042882183,4.200651459413646
-5.628230101388152,0.2305701984542203,8.640840273220688,0.3636371591665993,0.8806959429120291,7.69949162811355,1.6179373086495905,8.212569779444536,5.013108159563962,4.163097020808468,-0.1888506349979724,6.969351814206184,-0.6697277940144101,4.894750428381174
-6.356613965227879,-3.382538038517464,10.511588681880635,2.3337938898805786,0.4351154144798086,4.846943423749056,-0.280246295992838,8.04232737942887,4.281300611896176,0.1960077426141304,-3.140757903014863,7.885953316179206,-1.507833474053535,4.235915266921457
-3.598239247447921,-7.392219584357691,9.941859739642402,2.6787511813339724,-0.8978033702911296,1.33458992205893,0.0332351273922332,9.03445755831087,3.576331736994652,-4.422893739680242,-1.3647831725500787,6.657426632731719,-0.849177177720411,3.205597658386215
0.4241278118770721,-10.242985834742957,8.071269821418907,1.525542130589295,-3.705404371654376,-1.5149409309250956,-0.6061936102356815,9.295371460121574,2.649797310086,-7.023163777812475,2.343388119870279,3.968544683352553,-1.315050583688837,2.6720263557904564
5.763428117679907,-10.316324301070852,6.02643677269025,-1.166649569787948,-6.410427238891527,-2.887731522640665,-1.097482701522973,7.967568492418744,2.437608972960538,-5.65698968759625,5.974449239726437,2.2814564747477664,0.2974569142674391,3.1617479856882067
7.823563472367572,-7.0399864478286975,6.181709671641596,-3.50072709689018,-6.273390997944295,-2.6761921006650105,-0.799432856101441,5.987269273376745,4.271830610907254,-0.7047928470676732,10.078115781079529,3.808517379041495,2.9511632141931035,4.8120247299604255
4.873948798925436,-1.887364257885596,7.157937696824464,-2.9704839489892154,-4.930846523916549,-1.4724964580738873,-1.728943890298837,4.677393805727926,7.989213096652908,4.834990889079608,7.81992407319606,4.945646557941174,2.925039933423069,7.118262005362567
2.340149075139064,2.060443659185336,7.495365928321261,-1.992065562951012,-2.95040431282126,-0.4044035794503818,-3.2633053363080826,3.96330010096194,11.210868430374036,7.1039127285149615,2.7734492136841418,5.078846884048129,1.9760588533077912,8.737243159928653
-0.6849401706998541,2.198939389657711,5.734386558993939,-1.753953397811991,-1.3550892661245024,-0.6225687621897671,-5.995444280243785,2.405324730980106,11.052510984814326,4.241816530726648,-2.512031565646559,2.3305995771679973,-2.147228315134768,8.019237877142185
-2.427250222191701,-1.4566201742808538,2.349139094275857,-1.626916193505722,-1.3242378955884422,-2.46225563680172,-7.252776108184188,-0.8868979848938736,6.860878402844937,-1.9152236763397756,-7.655991793599379,-2.98329523237063,-6.772082532530567,4.307732512849993
-0.6101238579956387,-6.114442963127826,0.9341647157903774,-3.0612938231621927,-1.7033069997314816,-4.874500874753357,-3.964399251845316,-4.659847722873103,1.1794121045147437,-6.99094918556775,-5.262756914737313,-3.88262719065341,-6.270550666058847,-1.0468333208245832
-0.4766907477835896,-8.40421818253775,0.6158958131913581,-4.125286142044564,-2.1698069972449416,-5.878007000931109,1.047477329837514,-6.269768401227006,-2.2944358449199798,-7.435055186428635,-0.5967335037975317,-2.097050457698832,-2.1824399412606152,-5.173683125949022
-0.6452330098279551,-7.037509142175743,2.522454158011293,-3.568662926470135,-1.696412022410111,-4.018496248869319,8.6625366511361,-4.287101702330221,-1.9775723714255544,-3.3658085192672185,3.309841479519127,1.6517132273949084,5.335946005576124,-5.634941789601174
0.0528346992678721,-3.547722591125785,5.761245520912677,-2.9190129529443856,0.3000204689935681,0.260377425931424,12.535856752070108,-0.2931236436549316,0.2295212677137299,1.5908899764411977,6.143615130757327,5.8817043719539495,10.790240831489012,-2.329314044923737
-0.953909262747306,-0.5900354129131804,4.350366016688028,-1.424015506891465,2.06712730422647,4.646180140872195,7.474268851667281,2.184163092807178,0.8084860613284222,3.366202656044692,0.1905183135385815,3.07683028696654,8.000051792704504,2.302338208802041
-1.9569747719077133,0.4078812995989063,0.5681816631894046,0.1196322610579023,4.617976631904593,6.5943994542137565,1.5495527022287332,0.7954294684303154,-2.0590890011655976,0.7310494226839399,-8.192775086276827,-2.7588472617751085,0.7231043044664252,4.977978074706828
-3.788579374486172,0.0527322014540452,-4.270635614341985,1.879505303609992,7.230520307995325,5.303823205897952,-6.431683819545929,-3.399865378376916,-6.831720674886185,-4.037912260943498,-14.906759447444982,-7.837451384845209,-8.158051445690933,3.789782479066746
-5.332116043670185,-0.1703487497532152,-8.898671727872316,3.951215978574005,7.415472074315787,2.35209101974615,-10.752271607514771,-6.772972516903158,-10.02512652099017,-7.500332332316884,-18.835205368500443,-10.892751916213314,-12.123885217871242,-0.7335434961299043
-3.482012397425,0.4937951137970686,-7.464077305263043,4.070918947145154,7.124113813457441,0.4286190576195623,-5.776250701470501,-6.266403748050825,-9.229420245024636,-8.087654489671785,-14.056831293948845,-7.480249019327841,-6.609034148146772,-6.260259586324464
0.4343514918038245,1.641758270513466,-3.7999404369946905,3.0599333935130555,6.479942536228162,1.2326169680288015,-1.2313123054091857,-1.9308106949634,-4.977686333596699,-7.071194355027889,-8.113000151287604,-2.896134045006831,1.2582207058584922,-10.218369478942508
6.638096485546431,2.554707961845025,-1.3643377766016709,0.5483074644397905,5.151479868439048,4.258851537117764,4.025634584874954,3.3274209738121607,-0.0642535309220768,-6.819386375325646,-4.976220525563969,-1.2897428725433122,8.303124433335027,-11.12963583984092
10.013038062428924,3.080663579180361,-0.7809416812597629,-2.573287645354566,4.563941191794878,7.350311688431589,7.062475038943954,6.278019054493418,2.714707157531171,-8.24690494873241,-3.547495424459579,-2.003554932008363,10.477069414223864,-9.082573939376184
6.556165432280613,3.576610686701179,-5.162065420628965,-2.727650718995662,3.1975713815505515,8.392704857319618,3.443204743953624,5.738159394945276,2.3282566080442217,-9.940066313761786,-5.502425838450407,-5.695183716039904,5.11527989064952,-5.393480927680758
1.3863347753961448,4.207869359654833,-9.54995108749391,-0.8436858174690929,0.3345658025342172,6.710032208920749,1.2253008867097588,2.897515646795686,-0.3772134077414121,-9.663351421876753,-6.192924741052617,-7.884041055647671,-0.6829031947087039,-1.8137301887199568
-5.669659782870478,4.605054664359386,-10.694211798034887,1.2157152016688484,-3.435663213931909,3.184194498705228,-0.9741375348205188,-0.1522156307327793,-3.7402424146612185,-6.654369259232858,-2.7892176844424723,-6.597036604101051,-5.738527302916436,0.3417778461710075
-9.331452277287124,4.299437823572175,-9.22843720314854,2.641702442237982,-5.9105056577236965,-0.6977628847003088,-3.0412662924500724,-1.996370457377278,-6.31775084073116,-2.4743590794888304,1.2171347991316384,-3.991664119983666,-8.164014131166192,0.7777829963049641
-5.1033554363384495,3.34453151807198,-4.898515006087788,1.55575276408661,-5.715566882550456,-3.8730114805894695,-1.223152328344247,-2.3540460432563104,-7.264224470203374,0.3282480481860368,3.423979732487794,-1.072378531893205,-5.185005506059771,0.2030016022234111
-0.6062577953939954,2.3300533636282665,-2.2336924519382224,-1.3386670048413625,-4.635300327990595,-6.0165204633732525,-0.9408200159381616,-1.6117816270956276,-6.320513639289394,0.4183039299303459,5.470682760487375,-0.3515735844254814,-0.7686102037819021,-0.2972530479658344
4.722365552070355,1.7749737135536234,-1.8952591633747475,-2.557620595846738,-2.635772571849309,-7.1889123579329,-0.7193091851208897,-0.3407830273561631,-3.8444377369300224,-1.2787079475464271,6.137604613676041,-1.259800345148542,5.051663643066081,-0.0581663042499385
7.742718631638341,1.6460692978610425,-0.8741650387893227,-0.9709935882165296,-0.8344046005804251,-7.450633564484487,0.9596838881301551,0.8227995419225151,-0.8110252123951742,-2.508777809965512,6.157261852339075,-0.8698110032488655,8.811030664505738,0.8298991603913142
3.708437831555524,1.5831888431740024,2.0453978966893893,2.4710262585626936,-0.2994015125193767,-6.883887050865109,0.4613409467619412,1.3034412557749846,1.590986122176548,-1.606839787593167,8.833498844006924,1.7857417879962971,5.905311242807954,1.9114633203217064
-0.7794153325322298,1.5397644195582405,8.200313636277887,6.340498927121887,0.1754731626678695,-5.829930257824264,-0.3122173478551477,0.993433273014868,2.7269648974366705,1.329346477262804,11.044603686246582,7.425662387176714,-0.7584338276131831,3.067440848621468
-6.349164956733922,2.015000131421041,16.377568415333336,8.810162851374306,1.0444926803287615,-4.849130096329816,-1.584296442541986,0.5148977599682181,2.982907024345578,4.854430880183985,12.406175395220318,14.409148952271824,-9.951088294910024,4.77473235689837
-9.922624050834951,3.5112352682398837,20.43887001965114,8.577329699756213,1.3874933391095454,-4.2847426159510285,-3.3223290094964137,0.739466392760169,3.333243935018296,7.534154738407164,13.692961076573717,17.7895051056627,-15.000791064531397,7.564547033883124
-6.559621678387608,5.781909482772841,18.4459102167246,6.982812793558492,1.5054005052469617,-3.888292781984052,-2.95419988490209,1.7904345693236636,4.298273772110425,8.93647714305219,13.336197696439418,16.453448583767372,-10.333657713070243,11.154408787707458
-1.2813122792902014,7.771679019536397,15.642799393005111,6.530633558632435,3.116739987241355,-3.0121375246923083,-0.9888856499293236,2.618139325148027,5.3463542083594895,9.562422255918367,12.592737698621194,13.032636063632594,-1.2447035280728906,14.190650660334772
5.6271725683044345,8.442361484324035,12.084792939450852,6.27282552586003,4.690837008551541,-1.2736567586902192,1.1917222252704929,1.901935129648208,5.462002125801819,10.099944524560224,11.807478354272392,8.504931020628788,9.03020430866112,15.080928592756802
9.940804415866468,7.671126244768218,8.732450647138165,5.434410455639753,5.101045981687963,0.9787918793404962,2.469168100164504,-0.4066818128997664,4.362959162338473,10.827604664871547,10.200048282927044,5.339372563606065,14.123499349037829,13.328285789970948
7.420050801471706,6.249583102977336,7.735280520544993,4.304214782625468,4.315180033339486,2.926268460953065,2.6200738920220963,-2.561067597707413,3.0282968118178526,11.55396483432764,7.319023232258488,4.665167748624017,10.372065476610643,10.129337155665617
3.7654287335583385,4.95666961113216,4.184359512620341,1.6540364346130283,1.967371776037378,4.035607070124033,2.939347077473465,-2.385263623181876,2.803659767843442,11.856200469852087,4.612823716064685,4.13712318184762,5.435079276682618,7.51778643225536
0.1110178568307908,3.724362610037281,-1.8220723714514235,-1.2789197824810008,-0.5091674724752978,4.534819251719764,5.054839937455585,0.551441014884329,3.8711214429933376,11.267828313562354,1.6709814206705924,2.286685039245713,3.1232765935709685,6.6650946877424335
-2.3428514779442287,1.850149920476688,-4.577056724811852,-2.0253060934813347,-1.1293266507375843,5.1097870178548055,6.199155475360514,4.096588197308499,4.69699221594626,9.40433072058538,-0.4468609430262281,0.5671622781597524,2.28843599462043,6.828267901561642
-1.016763445153438,-0.9762542771646374,-5.74311758536288,-2.1981111065942542,0.4740416778031314,6.12599858794796,3.775157016370028,5.05541170151263,3.214127002290671,6.188167959157846,-0.111476129477661,-1.1745099361428837,2.524952598324866,5.934394529119498
-0.7307397033424055,-4.045144894714035,-7.069160702610945,-2.192383583023506,1.95907874796723,7.1547873267714674,-0.3061524213541852,1.8680019642720445,-1.2477458099354417,2.0917551256782105,-1.4893539605662305,-4.823552301378379,0.6380850674465235,2.334365464681932
-2.8214589116829707,-6.191813287474859,-6.91730568640503,-2.092857749341219,2.688217395752428,7.263896023348461,-7.321458370430385,-3.9803013864152703,-7.104654736510788,-1.9305204803396303,-3.0161994284393048,-7.432328651067422,-6.627621985276002,-3.759185135668013
-3.330292971278684,-6.930763553047094,-7.167059073615626,-3.082966152835498,2.7113073541377792,5.798329200955523,-10.95442388523746,-9.064666716614983,-11.587011622738862,-4.925146873001248,-2.63935333414928,-7.837904664173399,-11.294542335424367,-10.2682184305157
-2.82448990313644,-6.784350718708048,-6.173015375709934,-2.5009010335836,1.4771096606872176,2.9686923780615797,-6.641650583332867,-10.59442921624041,-12.781817593962757,-6.438207564750012,-2.0249535774693816,-6.785173978692364,-9.44220006357462,-14.52490222745137
-2.502368158877029,-6.352139185716194,-4.008878683638162,-1.795359793677288,0.7921616742487075,-0.2081045360603672,-2.004957999879658,-8.221231223199513,-10.860223800741254,-6.532551951581149,-0.0138628521217106,-3.792251338704625,-7.629015068557449,-14.77663876649535
-0.2973483806675094,-5.272980108119857,-1.5362630030521276,-0.6967253545045529,0.883492609309492,-2.5296349515860497,4.397105104602938,-3.792448232107472,-7.582797177325133,-5.3734999133496295,2.522646073009616,-1.078914705928904,-2.907714176280507,-11.028982681218556
0.8017732979220464,-2.55141796812286,0.1210741912373403,1.5454345212263978,0.7098180474723252,-3.335552832027739,8.054803420768069,0.3098290293739936,-4.780759613355142,-2.99825329780901,2.6592077468122244,-1.1759027244106113,1.3825504997411202,-5.019246470617145
-0.6519663710169744,1.846725165745477,-2.1108121903543555,0.8988746459056313,0.6375695487841018,-2.879067331356506,4.146546641194219,2.6165213721993914,-3.2432584495628447,0.3216547927141917,0.818109344955138,-3.446758170423725,0.7965353985695635,0.5084199553680548
0.5936659577794696,5.972581807963145,-2.9953370896333738,-0.1026210676185083,0.4151434602266512,-2.1151448696483643,1.5559541085428343,2.84029065319125,-2.747788259164112,3.5588761291420603,-0.1837409548515925,-5.090237524162218,3.4595840030543656,3.060847042264328
1.5465861945689237,7.034849959390535,-3.679254332688104,-1.7369627320228194,-0.2465851244464322,-2.0156700182972798,-1.4338189861297992,1.320447362913324,-2.7741280007471425,5.140138444714246,-1.3417263416720355,-5.647153190003714,7.392251995138354,1.825774073847736
0.8320156199194706,3.9967144759747297,-6.264409679775546,-4.885256135892991,-0.95086974928932,-2.842779147943102,-4.177582141409654,-1.4358662169020202,-2.9926793270366083,4.106645537407537,-2.985135603146641,-5.1913298769383935,7.311328837921978,-1.5987759012033314
1.4441282030471354,-0.968617042784611,-5.978092306409037,-5.072640227868867,-1.6652605601246608,-3.9292008814478776,-2.6137833531713226,-4.7262945640134255,-3.1928567156433667,1.2472750303882387,-3.6843949967292224,-3.8229831139802495,5.262490580032668,-4.090920252555942
0.8385339959594832,-3.970683284953477,-5.992755255292752,-2.598974872209185,-2.6146773849743017,-4.222672744464079,-2.2438210965312,-7.535687699753119,-3.073479433840263,-1.1141670394913334,-4.703814672151317,-3.0278756312296538,1.4782111225180483,-3.330534813822782
1.5658675793508237,-2.736509844474312,-5.83024459383166,0.7642921461305041,-3.603215246738037,-3.2410593359235,-1.7397886147115758,-8.839861288814502,-2.38213634694488,-0.867437642310855,-5.353332026928862,-2.6832054447036797,-4.1460680547756406,0.1352315517661226
3.6215908192038633,1.3395103730775162,-3.20811324330962,3.279104601097521,-4.279098778595849,-1.6501998133169398,0.3009177038688432,-8.261111573090545,-1.287562765626392,1.9956814875118545,-4.724020454711605,-2.335407916056198,-5.870925365799192,3.062320835163713
3.0872101122985343,4.442964000597589,-3.0178352511695405,2.139437395833038,-4.994000502892529,-0.8925134584046079,0.9045386142889184,-6.454970267537618,-0.4193162211609342,5.118176298173712,-5.371168331678039,-2.084073658300969,-2.777058995184664,2.154549360066656
0.4793542744541873,3.6991534655544527,-4.8188019197088,-2.4707879115863967,-5.090066838483322,-2.070844112217495,0.662771258104093,-4.721194419830855,-0.3027819117056713,5.547606957157432,-6.636300023906526,-1.7121967760839814,-0.8851026068375681,-2.948744681361684
-5.125102845886964,-0.5408181608995695,-6.579573081502096,-6.757295353934207,-4.496583074347629,-4.959810225675318,-0.264453548977035,-4.007098044943627,-0.6615236623133587,2.103370771530802,-7.225384173425301,-1.1400112411280363,1.2844257538440964,-9.070830704154668
-8.41942569870431,-5.4519782614024175,-7.604480901561823,-7.489984548167276,-4.026912103109857,-7.953217774977263,-1.3541834202466574,-4.075040449065531,-0.379492407020976,-3.6504226775769535,-6.996199722522643,-0.341259204164715,2.485426533735043,-11.986613618150164
-5.138489678936851,-8.431111326475651,-4.67398615867952,-4.851594357047055,-3.304089722227685,-9.0237200758163,-0.6401784040201871,-3.5785132049602035,1.6316436806143475,-8.578857721756243,-4.092547802024007,0.482217549704133,0.2752541541427057,-9.85817327596997
-0.0537069157804767,-8.956235627423958,-0.6831282078772536,-1.650224247707308,-4.097988425386515,-7.020495955034681,2.558327905285408,-1.120278035143953,5.336146849296787,-10.228510714140173,-2.943236080108221,0.75066593176838,-0.574421539403949,-4.57082567840951
6.7746845291859445,-8.09926328244337,1.6873468600799042,-0.9631395656675764,-5.830495245203486,-2.440092200324485,6.97547684911317,3.441187017449084,9.26748524411963,-8.343790557532992,-4.828673221589068,0.5424110778002271,-1.1831272268904824,0.1108707775083674
9.178277798820686,-6.794410477767648,1.9738257367160528,-2.94350934582702,-6.174555001563577,2.7858566734643357,8.262552066583758,8.474343570246125,11.393570249005624,-4.6706821803938965,-7.179033339579218,0.1546958944005145,-1.866849256793532,1.7257710111879012
3.3508179590884013,-5.030547073196363,-1.2737266938785536,-5.378279347332496,-5.576519958744631,6.331535878815245,4.016856061730368,11.396791278420404,10.50644832612208,-1.526939188393893,-9.64697659138638,-0.1050564950503697,-0.4946172778222878,0.7264225652212488
-0.7831568571525513,-2.679150611101499,-1.7563939085514688,-5.420790033441664,-3.0040707211906312,6.755308411068183,-1.662503522544699,10.399311786496302,7.044992275818629,-0.3689549002919632,-7.35048363405183,0.212469425337452,0.3306432491758682,-0.68631013734469
-4.363216084827259,-0.5550816361807631,0.4780839672964153,-3.1209736723869623,-0.0703652266549569,4.316542126992281,-8.56082404283892,5.861404156536403,2.778067084956745,-1.215516063352648,-2.118693617228756,-0.0394290904811776,0.8686396179978201,-1.0206581637220644
-5.704934951486425,-0.0404208980004034,1.26697634163663,-1.163291429213788,0.5741697521856208,0.8509293195480403,-11.652646486176003,0.3375931562469834,-0.3029245806268656,-2.9581533958559563,-0.3871937582911876,-1.833170793155984,0.9859244468091252,-0.7317429180514319
-1.5151947863551456,-1.460175228278624,2.494061127535814,-0.3392067428835192,0.371157373431126,-1.278682413843816,-6.609441811373878,-3.0368073203555124,-1.065297006224263,-4.129517793515272,-3.559848145170851,-4.387311573923935,0.0514004481210394,-1.2238014371654966
-0.6380748693462174,-3.167364083615154,-0.4534546907667058,-0.9564621529562416,0.4068147753909963,-0.5705526662949749,-0.9489573989087904,-2.6828392399069525,0.2792510231713283,-3.757655094128811,-9.52117970951285,-6.361346951021333,0.7661335909276772,-2.969563349874866
0.2874845676715092,-2.7883502072918205,-4.696763012686075,-0.3411262410167893,2.3019821247320764,2.7409551120107727,6.479844107911803,0.287771182839788,2.3515357617297354,-2.037889466852008,-14.104848884420171,-6.567759362380082,2.7176278504388884,-4.903293055513252
2.643141408089345,0.3195274547461588,-3.731315447493553,2.6827924159983567,5.515271507252526,6.881121863034627,11.27813341227368,2.8622076151886944,3.2750124207204805,-0.4370674076560679,-12.920864818090678,-4.4364003481663055,4.290639302582296,-5.7246340650465335
2.2502535742154213,3.988144185058574,-2.259055337587945,4.203969473385779,6.533141395967112,9.648561359239752,7.656620948089961,2.388017933688454,1.6662305342347778,-0.8626801347061546,-6.4867367338713136,-2.644667447330887,4.51938016868078,-5.5657972837269085
2.798964747730252,4.996418523039434,-0.3047631379135797,4.069525248430115,5.88700736501505,9.69598482119342,2.1475835382753674,-1.306690278740307,-2.3841731066228142,-4.1250066428664125,-3.4856230308568232,-4.690324706809919,1.181183911979402,-5.9929204653137855
0.977498089206372,2.194742367404689,0.0731013107430393,0.4161381566070687,3.077073607724826,7.18150529306774,-5.701835923507324,-5.588979035921183,-6.982790436315913,-8.80378698213504,-5.537720269598831,-9.14906923440772,-3.987960111808245,-8.130204526389718
-3.13099069065476,-2.127165918336173,-3.681591824212071,-5.562509246934213,-0.5446734268929939,3.4782607562057555,-10.657092076229445,-6.9121835692561895,-9.336293560768445,-11.784604191570033,-8.31495447526379,-12.285800410802867,-7.063429533503975,-10.910643909624197
-4.085293120347373,-4.1930769093350415,-4.882914171279688,-6.255010412699917,-0.2148679722561161,0.2439675776077696,-7.055475914579865,-3.619060599017701,-7.623941668390919,-10.527083541968851,-8.95478481770174,-10.307538092909516,-6.675629839522616,-11.594014309954062
-2.9488740677715164,-2.2486421573911364,-2.9595365350878367,-3.222682473652796,0.5290679169077199,-1.5198258101580984,-1.5669757775492676,2.5409170803579766,-2.518582698364753,-5.374482319346555,-2.219870991362519,-2.5954458686669577,-3.394721488675498,-8.377244190635334
0.3676603710922302,1.818901220267259,0.4709704898239024,1.1264932625918338,0.1399933979632418,-1.872355773626854,4.548368505679144,7.5659029171148,3.0743216265093505,0.3036399808724388,8.351483697914716,6.613629301880053,-0.4769932183752984,-2.5147979768008373
3.76113816001968,4.377348248468116,3.986127801506116,5.028683797699409,0.1854063217918198,-1.6349371093391254,7.335335986559055,8.30151484751037,6.138538606757056,2.693935831339498,12.919041377895878,10.830539591391762,0.2959462680276768,2.431221098762542
3.216252324807588,3.5664983806804145,2.9987396270333946,2.183755952149081,-2.496726818319812,-1.666606216366728,2.946581534539951,4.998173262065686,5.844449036843407,0.8162291650365994,10.069301185140016,7.390943840518044,-0.6992982514572529,3.7368070205036528
0.3196225222346222,0.9142199570220776,-0.1601429159173744,-4.102012202609224,-4.550082718472801,-2.249170071601516,-1.094618131825698,1.0678277093714947,3.942024537062258,-2.52824456070782,4.5859317312374905,1.8389060392717356,-1.6895462825294103,1.9862690063257584
-2.0165960164177323,-0.507312291340535,-1.355165157992028,-7.932768372011531,-3.462221227984456,-3.0041895901913245,-2.930548281406835,0.0920069836672929,2.820496925180197,-3.266936659441201,1.6714839331004383,-1.1056624461611242,1.038717358085083,0.3209234487265249
-2.374521003703591,0.5897806937477688,0.5204578655805643,-7.732687708640128,-1.981921422726193,-3.330972194643289,-2.429825733610228,2.630966585640608,3.069932262654228,0.1012901607144001,4.878978461589441,0.7954989919242819,4.739808026743733,1.1935230901912712
-0.5606704775696318,2.3453087265856225,5.172561065426656,-2.1120354144126057,-0.0061250242548031,-2.9362467860482373,1.3265449060542855,5.734687328367553,2.9776501159859645,4.932441744955726,10.705212871896329,6.917887565972904,6.083429110956804,3.9807289170230136
1.5231775682284292,1.7419601615488451,8.564256219055267,3.749203721679793,0.5232047070560699,-2.000012878126438,2.7307047358202308,5.705395512423954,0.5415244580459544,6.783316313456107,11.819616100718068,10.831146240034936,6.363787631907049,5.934684972950374
1.4668299207512194,-2.100537151819138,8.372116594056003,5.591885810271213,-0.7919804973986029,-0.9173864233582664,1.208977212073084,1.63939737916923,-3.991487124951928,3.625703428944813,6.437318136758638,9.896561398285243,3.358694469204411,5.433234888433901
-0.0153973871732882,-6.690576475681208,6.358124436808795,4.548357216695971,-1.1121721929046755,0.0366458590195529,-1.0067566211557275,-3.5476097523626384,-7.726183444586792,-2.019710212164369,0.2819427392118714,7.022486535633412,-0.924772967250762,4.030168226481523
-1.030507245743021,-8.25622062692959,5.658483255771418,2.600434472303112,0.6501788106791607,0.7794135544266745,-2.757128225532064,-5.61469605936104,-7.476837868798659,-5.132118503288858,0.2188054604067961,5.788897875607445,-2.360961202359716,5.040726158433076
-1.3545399847244526,-5.11839752973389,9.34581084322862,4.028982615288543,3.35537431203496,1.2719460169125438,-1.4906704123473489,-2.706860345516315,-2.7029139767352843,-2.596768795800045,6.0108163927196445,8.090548866546223,-3.5275280648993608,10.031610156221458
-1.057935892498742,0.9008859816665478,15.28019232280283,8.304410304214008,5.336906897607193,1.4725050396841215,1.0452867614535617,3.155513089608011,3.856536032829269,4.099850724120347,14.49444036160563,12.931574861775587,-5.260822483389748,16.81393790761199
-0.7201542757926025,6.267713497147259,18.95033231643349,11.616675326877106,5.756600980873819,1.5398331844212971,2.7160247957353807,8.083624491610514,8.531339620797375,10.337202189172205,19.593057970448434,16.325828381952807,-4.4752092179435214,21.057377011887063
-0.5739858455689337,8.838977236137389,18.96155493292932,13.62549987316594,4.971078134065185,2.011727279076044,2.6753466084163557,9.75820846585788,9.798896272787127,12.509295133867049,16.06560108000835,14.78427384144582,-2.034370067207422,20.036968237428383
0.6646738913533023,9.282497638887872,15.293982589646143,13.733095791835378,6.858348992195341,3.566977060323349,-0.0195307113948065,8.988273116445345,9.127349996722357,10.915217785243373,10.90706155625577,11.398802146148274,0.0911213987025748,14.976739296456849
3.911859628871894,9.68588215119842,12.226852420375806,15.138277600480324,12.026111410509245,6.383656166543233,-2.050959936944796,8.1061184435911,8.876268129587444,8.803048401422593,9.438495578521684,9.350099030654714,5.084591005801713,9.916499220420649
6.13302829618508,11.055167900944252,12.356392250176553,18.244450794790776,15.596411449527151,9.633473355042252,-2.2588039540774387,8.102741589204593,9.507331526703648,8.763822059582681,10.801396876777542,9.227943458974476,7.2281467777257635,8.353142154438903
4.261701542300233,12.336386171479637,13.088471344196414,17.985838619472695,15.113100948977872,11.692932782322622,-1.714584955540328,7.55285549340501,9.020612296067696,10.166395305089814,15.143639231983032,11.381700298074003,2.81572651616522,10.75828485150384
-0.0064205608839718,11.81780924865395,14.435487863518654,16.95585888393268,11.461643265735177,11.083013527770197,0.9003263664669838,4.402488306227325,5.23164860688269,10.13216701514005,16.494851551720227,11.72703805934882,0.2325482818555127,14.861529925663
-6.679216407284354,9.233248415546628,13.14143840519056,12.583103161848072,5.721114432246552,7.480744111853188,2.314853213514467,-1.3248526378631589,-1.4331503349838228,6.921402144030642,11.42062383275416,7.884869555826738,-4.155059465038404,17.858291397849573
-10.46392686913191,6.231404685971175,7.665823045944171,4.623119162754806,1.6581261783241708,2.0190015254750038,1.419429539788835,-6.828763053012757,-7.560956769222123,2.1800019649766083,4.47848647231746,2.35879442708783,-6.555436476565212,18.249609154697943
-6.567722080807447,4.696386700173296,2.1074534737907977,1.7197308093900543,2.1018220704720654,-3.363709350444549,0.4100434749912112,-8.747214589649426,-9.393128560319395,-0.337171679669654,-0.880341118801446,-2.242760010590867,-1.3941621438351324,15.9952590631814
-0.5688145686180716,4.721391364066591,-4.910156414261013,-2.2418746899601807,1.1393547320822095,-7.036099486628839,-1.994737903851058,-6.2334625505089685,-6.102728231510349,1.6105849593282973,-2.538919147297663,-4.415467566055155,0.5362931818661423,11.621518120174278
6.662511124191462,4.410452222445098,-12.709413375410312,-7.914456287377328,-2.9191391851520607,-8.468988843420926,-3.779890394991485,-1.905413965306613,-0.6399803804067048,6.3397343243073205,-1.6650120859658413,-4.777271966045947,2.7864827739661164,5.687703466865401
10.249546226127745,1.7639658324816017,-16.227822702357766,-9.145523345513514,-5.930078229290194,-8.25622260675117,-3.3756586269249453,0.3230000982316312,2.6711979775091983,9.456508839224224,-1.12563912793972,-4.764094558639963,4.471370140097566,-0.9737646668762708
6.273145613131602,-3.2622366208377382,-17.4335866396338,-12.983436545774715,-8.986584063117787,-7.510728235086733,-1.756935128676374,-1.4420498581549754,1.6084951022854526,7.603630081492137,-3.639928823006521,-7.185024765061047,1.2255930833906803,-7.091483644032063
0.0470240215179877,-8.594637747226564,-18.22846537537475,-16.95990055902574,-10.564273959281216,-7.15567258134841,0.2748513654537529,-5.628205586515232,-2.466634866381185,1.2640139298848387,-10.360086644315992,-12.122082696547333,1.1756213321240083,-11.615349855162954
-7.386711806449532,-11.887046973467156,-17.252703391049685,-17.43094688184662,-8.954259928137343,-7.537639181079006,2.044574398037999,-8.825141766733575,-6.229566790032082,-5.854445206057092,-16.40853748194543,-16.234950215035067,0.330429934016303,-14.661924642291208
-10.094484018693633,-12.475428384414284,-16.908941680935794,-18.46476164180545,-7.84104770099936,-8.423947155314528,3.443681288733541,-8.835493463183369,-7.387495211586153,-10.055388852772476,-18.227823360487488,-17.814149693902692,-1.282494674134696,-17.433689318558567
-4.885552948160059,-11.547488513186556,-16.897935275973428,-16.306054919284637,-7.774005932556143,-9.19434758877095,3.705865450520755,-6.336343013935026,-6.285711467497672,-10.420145979746462,-15.638431800876544,-15.169991756880547,-0.4760662316048716,-20.73900643787405
1.8712917724870888,-10.550677858374796,-16.25500177234023,-13.067061591642824,-6.531513370362421,-9.086171474714549,3.2972901374924364,-3.855974672720196,-4.933257846088518,-8.790175458862528,-10.266963698372017,-11.178021242866592,-3.171030501314563,-23.502834043724132
10.056028147868206,-9.652733895358589,-14.760712738542942,-10.96872067355518,-4.810835521659896,-7.524589232634951,3.311587002323713,-3.3364211045943897,-4.752415875931456,-7.47903574922841,-6.069791822239214,-8.233927854694306,-4.883276626111453,-23.1386455473845
13.22622283075575,-7.899361079068562,-12.874921332237042,-9.277590303941166,-4.191360279809786,-4.551421280802282,2.0554575380210136,-4.663533802189535,-5.35750012752736,-7.205656692608599,-5.715695216130426,-6.990480376438113,-3.6030686302220136,-17.969291426888848
6.774142580661306,-4.832349543052814,-12.437904188652858,-10.759651537086285,-3.853211221091416,-1.1007356526177898,-0.4383913255037587,-6.300689959866769,-5.373740463092032,-7.092409647239267,-8.456504469174794,-9.28523850349271,-2.5177330564456595,-9.574500434530412
0.1398355877841612,-1.7263745388098286,-9.41249072694543,-9.53500965726507,-3.594392368960968,1.2842150497764946,-0.8810444689614798,-7.016224635309204,-4.186865131648684,-6.251131934030461,-10.146195442487254,-9.631628012863356,2.141039763551483,-2.519673055391664
-7.614989738553069,-0.9275396599319716,-6.114277425481883,-6.210278244962478,-3.5827881828560475,1.3698322786450916,-2.500169019290848,-6.836258852236054,-2.7002711793731877,-4.972719983524602,-9.778573271456908,-8.059552313487034,6.821842987770016,-1.13645766188265
-12.184790666343202,-3.704616508260065,-4.886992377645703,-4.03700196647796,-2.443626283084323,-0.7957824868444137,-4.185680678868128,-6.469114089345132,-2.357226172478396,-4.246760920781279,-7.855072648098991,-6.984076059572347,6.675746167309107,-5.9034195634135855
-7.56562575029071,-8.62353284589285,-1.038199106040028,0.6023470115439166,-0.9863489619931584,-3.745399361425537,-3.21206917099187,-6.155727479268161,-3.534391659607389,-4.31515115174161,-3.519023356845121,-2.855800053102329,3.8858579971996337,-12.668172924313998
-3.5134027837623343,-12.135288553600232,1.3965927731178185,2.6366848695161296,-0.9559824492963888,-5.60653439652718,-4.432380063696147,-5.357097552051634,-5.023751138627096,-4.039990399488064,0.5396036433283823,0.421130878797009,-0.942212504092766,-15.620678021506642
0.8362857113577344,-11.09578878395979,4.063837125000243,3.5335699035018813,-1.71780808338738,-5.5093970368594745,-3.704373957110039,-3.555120616219167,-5.147631396353036,-1.956950831478073,4.912896467640291,3.365374820961762,-6.350527580412492,-11.658315284387063
4.581070259692597,-5.1624104593919,8.329152852249896,6.096851562248409,-2.4196614697321377,-4.131115616499454,-0.4809441388330775,-1.1115701037881376,-3.377756855118358,1.988994251726796,8.592152150805664,6.809285631763212,-7.8291222668248865,-2.5727701908804
2.243728758196307,2.91947008973838,8.674505906123072,6.198516951768724,-2.4494958976648435,-2.8510226895071646,0.7217377970562192,0.8927576417096599,-0.8652869071484872,5.8703401043269015,7.603488424965028,5.969094640488559,-5.350853664596459,6.588716325057199
1.3626299936417854,9.312456818724987,8.918203383691937,8.233910970290927,-0.3333011851443836,-2.3444889243629685,2.6480965020304184,1.6944210709397596,0.5761979213652615,7.135012255628172,6.1953593739561885,5.099059394516623,-1.335734195242279,11.39591952961154
2.0412678156293937,11.658620078123128,8.545715776342472,10.339094690408547,1.968844597186615,-2.022215638287856,3.172109870472273,1.5914115325778186,0.0043145391747609,4.757348028396008,3.568540422875892,4.150808347982713,3.6713855403245295,10.890475333308144
1.1045936528123697,10.226329468050302,5.751077623109984,8.75675506015822,1.925005033175681,-0.8407567793395914,1.522414123608319,1.56590209121276,-1.9871795992572912,0.2269788768749547,-0.5088540136434206,1.690681896624037,6.52688408580082,7.3910526147463615
1.4498187241840084,7.040312507880933,3.450792992616493,6.428531531571458,0.5207494362197338,1.4464822657274228,1.344514001549754,2.23202539818166,-3.8722793418837504,-3.5191407030088677,-0.4785271434033868,1.159330443815464,5.53000176366073,3.97035399479212
1.188832022732082,4.092443714645741,0.5160649973961804,1.557725171304903,-2.4020900473108404,3.979777342425965,2.1556034876273777,3.2863188789128754,-4.297828086768715,-4.268238703960671,-1.5330599687317874,-1.0011891087717288,2.877717443123072,2.061610224746293
-1.175607429304791,2.1984346835184345,-3.8704037606118167,-4.852078436981905,-4.525734226017912,5.731130274498794,3.44812264394343,4.012699007941159,-2.74046372580002,-1.999896039083364,-4.690399927059821,-5.480351082819948,-0.0636799775882266,1.0280401790808922
-2.225284141581388,1.118646776656285,-5.94672898067681,-7.070117665280627,-3.199858356560657,6.578941578797598,3.7589689922003866,4.161905026753272,0.4773555324927905,1.343608536151887,-5.305122739177532,-7.390832305243756,-2.5170322901054347,-0.5204136689868912
-1.1879202319748856,0.331869257499779,-4.995596410000213,-5.565413717783114,-1.4446465895330574,7.254851722445066,1.5167229451800095,4.129207644183124,4.370875055390144,3.296082216366294,-6.947862587071786,-7.473994397881106,-2.685266278344016,-3.263591346697593
-1.3681193028815102,-0.4690846180561596,-6.106338056922508,-4.297779210549424,-0.8593668019655295,8.217043257112508,-1.7083259378380151,4.243707241369085,7.428091842063599,2.319305906755419,-8.840403303603447,-7.212107979502878,-2.064520849549515,-6.773523938400284
-1.0707373976159542,-1.424587649091464,-7.6489039951079665,-2.913071054514801,-1.7186487736539569,8.808937793977453,-5.590112600676107,4.111087965050627,8.018479562338843,-1.4912885049336904,-8.494388396092614,-5.887984692907175,-3.8829259457417966,-10.026907792282366
0.0581175880691784,-2.6406512686141763,-8.498676124447645,-2.7252646574822643,-3.7823579112170913,7.8243627026381315,-6.79771174578285,2.963256297212376,5.367091840342327,-6.467879036108445,-8.48610392936459,-5.61768385675633,-4.018949391461659,-11.938369187905298
-0.2071904817634918,-3.989961195952159,-9.586462937477652,-4.444181170498429,-3.7509718635794775,5.008925586100142,-3.990593876594649,0.7924254152868584,0.5808469072370261,-10.016229346927163,-7.497053589181485,-5.6985682090862655,-1.2791376389890836,-11.525930164723162
0.9810532221522156,-4.843896349649175,-7.011034099621409,-4.410181448684245,-1.072447809519636,1.824809957030448,-1.4769580664134667,-1.0278720095958054,-3.429868950643812,-9.818132287649664,-4.82141639959014,-4.248697784291401,1.1269561017590897,-8.175287876207399
3.571120547043493,-4.339975870371943,-1.292976951846318,-2.269807077930457,2.4476146961097496,0.4253110986301589,2.6170228213503526,-0.6077612457957455,-3.6814370062134794,-5.331382396913879,-1.45749475081478,-0.7183017766845172,8.585898755284806,-2.3783079554523505
4.482919518468634,-2.27598187645987,3.0569939807655,0.0276388669200096,4.635928677005043,1.6625947011675573,5.505486863988288,2.657026432860407,0.5176869574400107,1.3316109455138552,1.5916664078960945,3.363444191716339,12.928510957261024,3.641979872466438
3.498900338078795,0.175680776104468,2.993200977465494,1.4901922084507366,3.62624690340955,4.127541550029325,3.646113347082133,7.0686870746917805,6.58791060537034,6.222575966488082,1.960145836116916,4.057444240531508,7.1174327849744925,6.5495726647981645
0.2466490145981114,0.9455769580791928,0.2574098233217621,1.7218728844662936,1.3765320764766733,5.355298378746349,1.5974631279531408,9.637089627810184,10.291237844214375,6.06327244841453,1.141141278661508,3.544174898228673,0.7971726243893617,4.0067103302324885
-6.006252083446697,-1.2266996358748257,-4.476575340798675,-0.0132894302527866,-0.1689225258340956,4.186744328105139,-2.974349698413416,8.527047825364487,8.961765794936062,0.7856823112821147,-0.9410172947970152,1.4113781003512345,-12.073627995268344,-3.1305442829470724
-9.679128118715347,-5.200656510416,-7.842470649112403,-1.8033553448994255,-0.110851010905126,1.9948807131160065,-6.9775976132237165,4.865696124997784,3.773918063419842,-6.05178107155296,-2.966739973238984,-1.3120215168326337,-20.694834769544016,-10.596108998773682
-6.840106344300202,-7.642980775841963,-2.649900415483716,0.1223416052176277,2.201173977220689,1.445479514678727,-4.523486022416292,2.1628764258747992,-0.960478085461661,-9.625132672840657,0.0723758893436502,2.131225536800635,-12.464128353153065,-13.199342164468606
-0.5084809959570296,-5.366816488195505,5.913549754406287,5.017901533359708,4.41160012411542,3.833293129661984,0.3947492922980449,3.564004002678569,-1.0780655035424775,-7.297225178654806,5.183359436044356,7.512641604741699,-2.7401852435939977,-8.414064526290105
8.983747281337845,1.8797225680213556,14.881863449447724,11.793677490487152,5.617492300870093,7.533340330229779,8.148457337646311,9.103863451500786,4.150877813549133,-0.4287485528189165,11.327786112795003,13.34476308623458,13.320273846763111,1.703263827153802
13.943001928549291,10.641533754722465,21.165587622259213,16.671027617215778,6.128986835702046,9.19002579260244,12.838284657362022,15.288085779311013,11.37460994984976,6.826856901389219,16.703386085576653,18.62992412238601,23.698240580984304,11.853400648381056
8.272131847595862,15.982934528704718,16.77117946035625,14.749010256254117,5.122910523417147,6.692540666989098,7.960184419043762,17.495636222215502,15.647489443280824,10.601095539751665,14.525292966506145,16.175767945538038,12.712425052517933,17.084836150492983
-0.1096276301698754,15.087046661433764,10.486812870719918,9.916523778109534,4.365517117046641,1.2002612965326631,-0.1436354175112594,13.39727468310714,14.06885176522539,9.751396788174995,10.402067931669196,11.591760437041277,1.213939398516199,15.896401379622423
