AF3,F7,F3,FC5,T7,P7,O1,O2,P8,T8,FC6,F4,F8,AF4
6.244087416915725,11.996969885534524,10.231265074631835,12.690331130176377,4.386315654386767,7.309136114638385,7.188732119685875,9.54553026519238,10.272998992580463,8.580090797318285,12.290782486482868,7.100196843794652,10.337055514456484,3.3580963117981604
6.336756151131596,9.821993029048636,8.798150517797001,15.77424163923342,4.991448591526126,5.975522852934006,4.073590073527348,6.520180346749104,10.373446253581434,7.740958019869573,10.621660409658244,5.078854481564996,7.907584106564926,2.5670436894230235
6.04217052104195,7.026062341805056,6.326111824662004,15.392711611465575,4.378281432565057,3.3612342167761184,-0.4293430026257907,1.7686812414712136,8.354987489876738,6.777982837751125,9.46785635102556,2.9140899787948484,4.789553920124191,2.0922912465631818
5.894033604521386,5.89693895399261,4.065326257130916,12.223694901589042,3.360850774798145,1.870437517293098,-1.405506118565118,-1.075209119217682,6.529290187194295,6.450745520386594,9.55187725494496,1.7490424379113882,3.7228730488648263,2.5763216096437027
5.663983780426076,6.91731351571262,2.30752391766336,8.113705932689886,2.9986311997293065,3.268691530683384,2.5847412665673497,-0.1882773487213853,6.707156136013548,6.891639372483184,10.33609151104518,1.2727338517193196,5.673952981904276,3.425667682989399
4.70014452134679,7.689671464310105,0.2954907438633221,4.822375774620578,3.7965731398039466,7.017803390810048,4.480901556073374,3.201313203776284,8.678413418723238,7.463406990092913,10.563062731532645,0.3317607529457618,5.078250286173328,3.271298737015865
2.87142975222778,9.581284561262914,-2.608709566359501,3.2363136628207734,5.221281885700986,10.461758896147686,5.641438166053647,5.967550550954989,10.464936974404427,7.146790831733075,9.358198293463744,-1.5587663655297632,2.6178473670290523,1.364192280371462
1.173397288311694,9.337252091590155,-5.642853561104875,3.38578299173172,6.050140251301354,10.886323930916127,5.656298679069461,5.66184362159165,10.119179977068992,5.35920824008447,6.982735315810004,-3.311448661048402,1.947981347783404,-1.350977500790556
1.2550081715421475,6.135163174639492,-6.724214286506999,4.797141765251677,5.372500989521118,7.746291293127978,3.342143971466477,2.429811743286216,7.4564985549460765,2.72273787892032,4.656480266992386,-2.931489096675115,2.3161957723004334,-2.6141145504406573
4.069050391403067,3.659955680182977,-4.1850574206616535,6.630192419223835,3.406196295957137,3.1168615487215554,1.9794206361823783,-1.2220643886723863,4.20362732093297,1.0410006482862109,3.6299764224907314,0.7157950458237003,3.7346591115169874,-0.6041267735167786
8.728043925487,-0.8119641972991309,1.2520542309019262,7.655897747741644,1.376324431088339,-0.01329585639618,1.178265793982312,-2.523078735614103,2.510384975712729,2.1321503287250856,4.251901185673145,6.540803362619137,6.833003617023658,4.293878388862176
12.653678390552969,-3.0668580407336496,6.252923650578094,6.605833127614481,0.5283283228181688,-0.0603338892097902,1.0753728322018985,-0.6209900426534496,3.214323283409225,6.189968032935653,5.732360188075869,11.546327259765718,7.249978356663169,9.279135717518578
13.135167185458926,-1.1350585554522263,7.073014177782493,3.088205489684455,1.1476565986427865,2.230200575257808,2.3289640545725474,2.9138901564675983,5.346922655097657,11.104736943290453,6.73792034896503,12.783982462600292,4.8645763787621,10.89333466880607
9.21776900088216,-0.1331723126444093,2.623136849087313,-1.600930262914023,2.450612337311764,4.850304594684111,2.9911987880342803,5.5649352959462455,7.142175162524417,13.670859265345182,6.329686415797902,9.544410058022294,2.3489851105173813,7.525281029749923
2.46303613622678,3.312333139851521,-4.244625055095881,-4.81259608309756,3.3940241101612827,6.34119077246217,3.257429731397341,5.970028007861291,7.4933155214698814,11.97656099719455,4.543286304377698,4.044461237703988,-1.286152039789725,0.7176399368303521
-4.035085719717081,5.098948910070662,-8.625740736920374,-4.266455972053816,3.608505051199497,6.620493820490914,3.4682440488723945,4.840985696954579,6.590779825328838,6.992185444812524,2.234268887369037,-0.0768217937190414,-3.5556085211567794,-5.811114033048085
-7.610386486631391,2.801730677041792,-7.323588449717111,0.008417781203871,3.582183568105457,6.319415820627615,3.253565348906537,4.006958606200655,5.3937205315422325,1.8639016575139389,0.3886367748650983,-0.4189261399734825,-4.023227577020628,-8.730284799246387
-7.471179437454241,2.311041650181845,-1.4064874180806406,5.273383444455469,3.965681381238245,5.67241104150747,3.8512412461754177,4.564956728936277,4.633711206555031,-0.5735764343277019,-0.5294713938104181,2.4378553835127725,-4.125477493791878,-7.293163623234051
-4.711561284450749,-0.0389782830655254,4.654177428366705,7.897237992908519,4.7196125095021735,4.276422933008991,5.2822195960062,5.864759355058482,4.27796404418584,0.0933897630055291,-0.7305888671752996,5.56334684649654,-3.109280833004827,-3.537087265277467
-1.2257377872067623,-1.7121291838232338,6.6042503413040805,6.098829178858395,4.990302716292138,1.884998241124956,6.485087701269605,6.215673830871477,3.772263875412772,1.91313792193451,-0.7482369390303276,6.193562136104365,-2.250172260513469,-0.4785499992519568
1.3974428487679518,-0.4385674102464381,3.757915910523135,1.32316689836893,3.92064116126928,-0.817448706810497,7.693024174720257,4.576248190911933,2.661770252971724,2.5354160016886738,-0.964694259077671,3.986996085366407,-1.63314386278977,0.1496324112459941
2.303899153736433,-1.1885925346248936,-0.6831701572502027,-2.955215076917259,1.684591147607561,-2.4710301525695684,9.00508410148906,1.6072967574191388,1.0000142642551282,1.1543853455456483,-1.4013768350653812,1.0695662261055323,-1.4036034422068688,-1.141792400098307
1.3278672472285518,-0.7285727075262154,-2.459450358840529,-3.944965268676686,-0.2849463970465038,-2.152431185778841,10.267440262565442,-0.8621059681659435,-0.7023372622197126,-1.2289319857355387,-1.84991000316518,-0.0928084601463279,-1.9484379811908616,-2.479638313909369
-0.9928410502629744,-0.0145809500846309,0.2774721616084505,-1.4135039355052452,-0.2772528932551115,-0.198283297317559,10.341465272443497,-1.3829028091460458,-1.827798070449834,-3.0991010403261274,-2.1358640436604777,1.0263051471235285,-1.970355186291507,-2.3540538055764006
-3.317652891271914,-1.0079596880897057,5.69100230327963,2.6960568014187487,2.201109260811476,2.1004931662392554,9.0607602987552,0.0067863001747898,-2.011723252536454,-3.782500174286369,-2.297227531577767,2.674762309238078,-1.601208006021273,-0.6767800102881285
-3.8714943542338194,-0.4379231501559069,9.951633919118413,6.155430573010175,5.719317157344836,3.5783358451756038,7.109474906028593,2.01683755609818,-1.3384735316046277,-3.6802037645933545,-2.626742627457197,2.6057113129530904,-0.5287502932740306,1.513821881201812
-1.556713155707271,-0.3499661236922194,10.219071972154971,7.877966201271905,7.784498367652522,3.9372076784722942,4.136397755949956,3.258900388097677,-0.3272759679385775,-3.5436802950288726,-3.609485237648393,0.1713535305669076,1.5503569126722692,3.1087719970247747
2.8907833160287435,-0.5190576691719581,6.495160659993435,7.77982643509899,6.724803891069836,3.511726761018608,1.8990050044676736,3.162295024244182,0.2928275629894017,-3.7791111422049593,-5.720964559013829,-3.2248889287913576,2.4083834194958293,3.6487804635690697
6.930853709597657,0.4498921547366377,1.212172245320228,5.830523486616221,3.0504256335608995,2.5310806771683625,0.5622995431069135,1.977091972541241,-0.0325628430553592,-4.354916325993697,-9.04012924551014,-5.533088449624301,2.0706231720665174,3.235421184010046
7.885039276609769,0.8967039688855724,-2.700135039183823,1.8042842954389533,-0.9364084976817636,0.8417100727413018,-1.544681070759881,0.2146577146028114,-1.310104543775327,-5.032067958113525,-12.839881989989538,-5.772556831002794,1.314236661559201,2.1188930622772717
5.122918349816978,1.7358160645750136,-3.649023335153876,-3.863713208198925,-3.023065721509545,-1.5889122734859598,-4.022594805877512,-1.6988514461350164,-2.89927042695828,-5.443433762533461,-15.564306707380378,-4.455945274789174,-0.3778050534665752,0.6599247763520522
0.8529874415825862,1.850539172704279,-2.002577703614522,-9.320149932933663,-2.835857209864463,-4.074176295271827,-5.293533626765769,-3.29629018965995,-3.843144972387692,-5.078839250471809,-15.496212109217003,-2.6155172536874254,-0.5670461128557623,-0.3470792410418943
-1.4347715193838924,0.8219175835704564,0.5417216180607145,-12.012352166148691,-1.900429774426077,-5.392192272528067,-5.4288314149261,-3.9287574142128094,-3.4873621838684974,-3.5747925754073093,-11.87520611318396,-0.6959066587386582,0.9219687305033074,0.2831079018453022
0.2218412791117959,-0.3271053307318311,2.181984382670561,-10.672601307687597,-1.9884618582048792,-4.763425068075042,-4.914008030107761,-3.096751962222239,-1.977796670405532,-1.28042953058945,-5.683985949977579,1.522371891905916,3.018347464321985,3.249161102701525
4.553604133793447,-2.672037297937697,2.075378378390385,-6.719831481572969,-3.333125285359123,-2.670145475989564,-3.37837833734347,-1.0637169063599092,-0.247618073457887,0.569721201318856,0.6327272850298007,4.075907987440401,6.372707095665096,7.663127239727316
8.005124550847329,-3.646310406027866,0.721380146045467,-3.4396757698640825,-4.4277290452553135,-0.606842969779686,-3.074647601514069,0.9816812310644952,0.5563903111654918,0.6163996057685625,4.512199510971594,6.161548084451681,7.523399155901389,11.002973617792527
7.599204954749959,-4.245912941347817,-0.5186363029742198,-3.3511208019329137,-3.606671793307525,0.1021445014657365,-4.162860163906561,1.6483090044415716,-0.1666710516216787,-1.372773205434113,4.8221198515797,6.530747750792591,6.192612975670911,10.661642805557864
3.288142153669004,-5.791667034268986,-0.5057461966106407,-6.053074256597219,-0.8819546356187247,-0.6762920878788337,-4.735790134617427,0.4714852952182724,-2.065360667580148,-3.981100341118647,2.516372715327665,4.640939655021262,4.239596885173943,6.040601902871179
-2.185790011435254,-5.602469911064618,0.6984793239842997,-8.592543992124726,1.760999427051968,-1.9650664195897256,-5.303765138280519,-1.5919180409549276,-4.091935908154696,-5.106050853463214,-0.0791344754674445,1.4216453412659606,0.755402527724366,-0.6931528581574677
-5.682371041715192,-7.217435299951355,1.7566214479283078,-8.125051699761944,1.9525956711424608,-2.703323537118752,-5.193352171174044,-2.884549285447707,-5.246797385108946,-3.737930170743589,-0.8417961069598991,-1.2038840568716327,-0.9227746701909146,-6.078257120513332
-6.129377150257898,-8.822127003373367,1.0910067602574776,-4.490113355373149,-1.01172420849704,-2.6725043569223983,-4.098226600426632,-2.447216636357547,-5.264248254925841,-0.9325730607356012,0.8150411673299374,-1.7639332817908215,-0.460657863955312,-7.936554313579435
-4.97910728165578,-8.33178569625234,-1.7044519596939685,-0.3762822756903201,-5.492994843098026,-2.485927928545724,-3.212203959920005,-0.8506961803835154,-4.7211078730786085,1.0332693339741024,3.734456342495656,-0.4303316081995874,-1.374915368528138,-6.844830009862162
-4.514472243935709,-10.400122033314233,-5.281259329544294,1.0424973287860713,-8.756002710265191,-2.8134625742455857,-2.3178770258584964,0.3312933470624246,-4.488064089229174,0.6418219528567466,5.992830759387886,1.1280819491429552,-2.941816653963954,-5.247904106970588
-5.752423192079569,-9.712085827341047,-7.39692238074768,-1.142989140193202,-9.012570809999138,-3.722768131498254,-2.519833164163789,-0.0476657128116313,-4.974187751849786,-1.5644687975487743,6.30937143854138,1.1770345055136788,-4.418621826387155,-5.096843606181225
-7.8018441982541455,-6.707067999116629,-6.5938017153376265,-4.82770398872833,-6.578144972534215,-4.743190662261648,-4.128830052230689,-1.6990595768958403,-5.8018259963291445,-3.576561484741414,4.88613269007283,-0.5925990479135042,-6.287988840979139,-6.176487995144914
-8.969227344456225,-5.832254377680247,-3.3052736307612163,-6.659147810527064,-3.390859855367821,-5.425832977348993,-5.533642334915785,-3.2657242625555165,-6.199199800451161,-3.839345614997259,3.1144802833356167,-2.8600108356239264,-5.748461798642302,-6.55669677253335
-8.334314451399813,-0.9917749095570776,0.5162410318183177,-4.691670138080487,-1.529341023313305,-5.734988538062553,-7.045755611296059,-3.705935297216125,-5.77478874146623,-2.6921276665737546,2.382211696843467,-3.9802348144683104,-2.5451533428399062,-4.637479720092055
-6.379208216703429,0.9185059762893186,2.8516427502615365,0.2218343951600836,-1.9639839044050973,-5.949298346770712,-7.980385333677162,-3.340628438267503,-4.976438303276964,-2.0203064850204795,2.847021152306845,-3.632578222722832,-2.462596937013944,-0.8960119124866548
-4.392628204453999,-2.642532026102115,2.869030404571953,5.153692920600262,-4.281413930649789,-6.341838811254002,-8.006662942472063,-3.5110765666950368,-4.786875648446665,-3.5157859550368267,3.110770960841434,-3.280376318198922,-5.186566896246416,2.194039064919033
-3.445486205681915,-3.6470722379788274,1.0512339213554205,7.095331438261825,-7.239198190228902,-7.032813789895027,-8.822871760635273,-5.135168170860481,-5.872489468228302,-7.171308517552797,1.163776001325413,-4.964017191931097,-10.046816169008766,2.005413540378611
-3.7909135744628326,-8.52958369811855,-1.5980975454161808,4.725018463817968,-9.55387983194076,-8.031041114687683,-10.237198439497355,-7.554951609287381,-7.89906894837593,-11.263518308299936,-3.92844207293332,-9.46214187824177,-18.407340670230397,-2.1208307124147323
-4.882065298860393,-11.193339750039616,-4.333227827056888,-0.9836122977371256,-10.465677328689326,-9.20757827507309,-9.780026496203694,-8.85252777190021,-9.604906498582372,-13.635670284447018,-10.798000538117527,-15.423169480138906,-20.30297646530544,-8.13405016597937
-5.735160955200509,-6.440568317205321,-6.800123694154101,-7.359310482530064,-9.9484306156779,-10.159807773996338,-7.549305490539696,-7.450466841275979,-9.600413286874112,-13.06094329720288,-16.109099404461443,-20.198135138507144,-15.283309759725448,-12.512422684333355
-5.420509827721112,-4.2369134307777925,-8.73362220390143,-11.409207942625857,-8.591207990044675,-10.273509515838969,-4.637744873056912,-3.5864171203201147,-7.287804337024471,-9.716411055625052,-16.5449751351569,-21.641835996973963,-9.00996478987246,-12.627700310971544
-3.604013803225365,0.7903407700756369,-9.804242348112142,-11.400720313762404,-7.204142613538475,-9.17185547078587,-0.5115504098665118,0.6848060858208527,-3.241902398495087,-4.788257161885832,-11.199794263413391,-19.406729907982957,0.9260156367939132,-8.53598539732209
-0.8928745283798643,5.469280179699198,-9.81136751170919,-7.910398029674755,-6.3003745641841125,-7.187120860016257,0.5925868871339605,3.012394240188546,1.1594421301861662,0.1767017299493964,-2.538668387162277,-14.803482158619564,5.4090783827764,-2.8525684720526634
1.4287063873628068,3.641932876269932,-8.878476716487892,-3.569492307566282,-5.767092165702167,-5.23361314661581,-1.7682493876904368,2.5023228738738705,4.522694746319609,3.7756094322794738,5.0205215687532485,-9.54655249223977,3.306154245574382,1.2358034375503395
2.317805677412537,3.9986092517486473,-7.329699240266912,-1.3517746632981398,-5.008167725853034,-4.007188601197725,-3.318661671579404,0.2288139870045142,6.088760743234808,5.151962053111229,7.979953419813504,-4.570691806018132,2.4548099666091185,2.298962715388116
1.85125203501294,3.5352200933009046,-5.422289347257208,-2.4312415877315807,-3.509578755468149,-3.2816744285163075,-5.036021505762716,-1.8596436311218056,5.886676521801649,4.329811296275056,5.885718107940394,0.0767812194752819,0.5673046401005983,1.4513653412069134
1.1483572057285016,1.3828241766027722,-3.3601348989937456,-5.333043238431305,-1.3911880210718914,-2.171270035616832,-5.519043131002978,-2.6201508366858137,4.432467759371305,2.2081298720907148,1.077098435201017,4.296252657418764,-1.9700487629382328,0.944892557813449
1.2233052264312558,2.047627755638003,-1.6243031195188031,-7.287417127634271,0.5408591232645161,-0.2577019630734884,-4.001035919150134,-2.518904203222246,2.305688473986629,-0.0177035660529778,-3.522315798420653,7.012651698654145,-4.274099091202984,1.824710360366133
1.811418990592924,1.2744673583515844,-1.1065132923787946,-6.758172505971929,1.329139520290747,1.5858579877866656,-4.327238882408652,-2.9339028005341703,-0.0694839956257813,-1.6777475525165482,-6.513281362826125,6.447866649631308,-8.819863886470305,2.821905396956254
1.4316647056366143,-0.751371020889324,-2.587960313948045,-4.84761336150597,0.5710363100951517,1.740010911130028,-6.107747848219684,-4.662706241974969,-2.363778203340849,-2.9476274171408674,-8.293088766351644,1.7119810445648622,-15.355194718909845,1.6051340054757026
-1.1810676436448864,-0.6000114160112469,-5.836356115433951,-4.1376334912148405,-1.268640736299063,-0.5365086427408476,-5.603160432433722,-6.990486736639645,-4.192136771388209,-4.303331279788732,-9.6593176642427,-5.604225945911468,-15.693841571535234,-2.687343658487367
-5.56708042810883,0.6505752542408048,-9.216425243475303,-5.95086312485767,-3.162580972555001,-3.9483164771337016,-3.25042621102524,-8.12678101655977,-5.101305730038171,-5.6497401121975335,-10.45393648870045,-11.595244372577996,-9.503573104747264,-8.03732403421246
-9.47598554339621,2.044724795130909,-10.453093406020908,-8.689678996974898,-4.170022022488643,-5.785674963766327,0.933831867415842,-6.622129855602134,-4.743054703356564,-6.084417776145544,-9.644876779220969,-12.432753466361692,-2.4709381394894567,-10.769133653457784
-10.474174215867002,4.971792242267768,-8.174874422459364,-9.044266849753429,-3.940703828157425,-4.027279674857926,7.766414433346296,-2.587938302072988,-3.085482178490305,-4.651098769779085,-6.584852847467764,-7.335752003672848,7.317990254630138,-8.523202954578924
-7.891028578989125,6.045764095165498,-3.059597991918043,-5.1263004747862615,-2.7778983418930507,0.8419463205930837,9.632056525314496,2.2227582582615826,-0.5096767784326337,-1.3939755620898442,-2.0081086144897133,0.4644658347216763,10.398960755852595,-2.4064751437109067
-3.4348698328900644,3.24086724298611,2.4040260296455243,1.3988159858999984,-1.3215376990385472,5.940455859331673,6.187989566505148,5.476720079068849,2.2310653592200422,2.342964627122951,2.2376490501578736,5.910969467748343,5.308246438187139,3.633468918743228
0.0204405749202791,0.6941856320947417,5.465814498279709,6.334194090741411,-0.1246179203836472,8.05300998720993,1.849578982720342,5.6569275379051485,4.160782639942532,4.7287737002811046,4.362657409914727,5.868222680919358,0.6144778429173027,5.755752848022717
0.4546337530490021,-3.1299960739518733,4.885729402413644,6.394133408320282,0.6310181748776791,6.036247881165648,-5.224489183948973,2.8846180078948,4.385275038339274,4.693461821531219,3.5973908659756333,1.3427643668766862,-6.204084834742528,3.0368102193576263
-2.024656767053868,-5.218224229714177,1.6949163722545968,2.0518809051521014,1.166641451435595,1.699280464731341,-6.299920926243593,-1.231879556497114,2.585380818707121,2.5893191745779927,0.3292092438522473,-3.637296243403668,-9.132657456830335,-2.1135891320293494
-5.439615490192715,-1.460231940368801,-1.5197411523442597,-2.742843712820348,1.8982423303878688,-1.4700978322239877,-0.304062281448831,-4.49982932223798,-0.51816713727922,-0.1625206948927333,-4.266354554069075,-5.369072467713018,-6.652174029450696,-6.046215735364688
-7.311516710296922,2.343334436207082,-2.2540370379422328,-3.719010584288156,3.117317916304369,-0.7282354598159659,5.463956507888171,-5.239684926275533,-3.196886597457354,-2.0072412078344355,-8.522867142995494,-3.085367968787768,-3.839407446859012,-6.519443791028101
-6.083139216570874,7.404208176013632,0.4440675046224878,0.4426107844640783,4.787577861620467,4.116830175640161,13.231920306743298,-3.031820837821247,-3.5305918970708543,-2.013805030496989,-10.476577158930477,1.2332416748806363,1.2220187445353885,-3.7658513179745614
-1.788366394697951,10.549526129234788,5.533036484993858,7.428611385063596,6.632507145830722,10.70296365522396,16.121071410349185,1.2036378833533292,-0.6367501589827018,-0.064214123004147,-8.40322782263777,5.2349438086811,5.036496882574175,0.4741221757571354
4.149278238635121,6.522742874259646,10.698597177976575,13.487004360446589,8.42281166265031,15.758413719764512,12.69416587818121,5.775967681595995,4.59301496308123,3.351219013227089,-1.850971978303726,8.279633861384994,6.981838668458814,4.601394760456895
9.61287614568998,2.0803056008399494,13.682813954930287,16.30105346861053,10.108197137186457,17.1332540680626,10.761015300620109,9.101128502136204,9.921573872106029,7.350476887295569,7.469409337295796,11.31955195400928,7.271932433976444,7.884179839096719
12.576422021941744,-3.6296457278348,13.41198493106086,16.06936723246713,11.54952126411808,14.849020002350608,8.477154817011916,10.393499047614998,13.109833119150297,10.761394568094657,15.933509533785344,14.973384192291624,4.680752063094115,9.967122336324396
11.801854729085472,-7.466781424641271,10.361212305882738,14.29906312304864,12.113875463569634,10.650234005850734,7.134617856208668,9.82996673844486,13.16999472490754,12.33324444785557,19.7468315852298,17.982075677326897,3.986838363574153,10.233565011181174
7.399556543206398,-4.748475088391484,6.100627254386319,11.998411641642292,10.77201589528496,6.633603856698226,7.94081374594936,8.209464005351052,10.672439725154415,11.281138740496075,17.31246109041294,17.854331407525446,5.014235830401052,8.087400944325154
1.0644262983875752,-2.151330702028687,2.40085660456045,9.20299753885442,6.985111402925021,4.038385836119511,6.227802232875148,6.42702868694917,7.110138870721743,7.961977646437857,10.56663310154648,13.331549458243757,8.429611825466536,3.965148634573028
-4.360237598632437,1.6861245879738602,0.4168404552932752,6.010939737075585,1.7387651197402905,2.919369716575793,2.481604657872416,5.093026273022737,4.00848953778471,4.06344242232423,4.071678662094488,6.347731750656623,15.486342624791313,-0.1778481626802843
-6.137952250348448,4.247826143561769,0.3141003719304445,3.5203538861600645,-2.452603449171403,2.6359547283371385,1.5058328202116236,4.414615950847201,2.3780668718631333,1.827006353815122,2.1825454659084995,1.3166953460616044,18.24318526017233,-1.8206603199267437
-3.2235575656301703,2.401304951072053,1.4160802670044037,3.2139972665766896,-3.0624363575548226,2.5646093907045517,2.8172082981231186,4.26062075802558,2.549792306792421,2.60402337163152,6.138351067508047,1.896233139420886,16.77664080068033,0.2685222075922642
2.885690134138442,2.1945152167976048,2.710371534170445,5.26131986051044,0.4129910571765269,2.4989261970792414,5.535159401860986,4.3041195778366514,4.1389723071220885,5.807613284196492,13.204301538806604,7.849166623885314,13.961007657911903,4.885880098393201
8.895625759654516,0.9716978139315244,3.4414356216561943,7.731061058036564,5.733347906140269,2.601508265368796,10.664319064351584,4.200320391606322,6.097951015672491,9.232142893170714,18.597808260298397,14.873582991070128,7.964039803921542,9.10846504704904
11.818755787674126,0.5495584449031108,3.516190313665647,7.992634053721902,9.430617144907169,3.0947880545142548,11.713140034659874,3.765071415184022,7.077350734515615,10.63278392739004,18.819799154965764,17.81688504012449,5.663736745233553,10.41571448100536
10.994904746482694,4.621984487824841,3.519462476174686,5.221641685846136,9.479841090177894,3.9509225652323408,8.316974463350906,3.0628788757713217,6.130838159739197,9.313940420277724,13.89538111107689,14.636026759853909,7.533507349488432,8.495963468259694
8.437047611345294,7.0926370109640935,4.285338349017531,1.4661510998549514,6.839793677011041,4.769097412588584,5.046994136831197,2.321013053806928,3.3372110946251783,6.414417705373966,6.913425479701207,7.716977068971643,8.585277623253392,5.274995307238636
7.155158396613952,10.540816768833476,6.219808861517421,-0.0568223999802057,4.478001539218072,4.930725136494438,0.3895516979303568,1.714680979859645,-0.2193175631175474,3.746600553284986,1.454368435146698,1.5397353509684044,10.422233116937964,3.2283557007607517
8.781475827987652,13.697417892929565,8.810207081590569,2.0469280990813554,4.743879603534148,3.985151617293244,-1.6047189573575338,1.2047384310705556,-3.179562708738966,2.335797588972956,-0.8816991902439635,-1.0411159084419284,10.36186902426411,3.448803430599787
12.420180643433314,9.893993616931406,10.757086361733109,6.015594233444701,7.429964748066954,2.034208375820374,-0.1156469744561483,0.5842042091553918,-4.773709831241578,1.944438940471235,-0.9740685486790266,-0.5770685814964853,7.663868427331034,5.028510122252005
15.575642783584748,5.92128685888889,10.77741496291372,8.63955376626671,10.15831094649284,-0.2071770436446285,0.1197490414140443,-0.3046877900447802,-5.129303322435132,1.7701545697065288,-0.722424310873302,0.3597806281897719,6.0846940751832665,6.102495418776696
16.218000269261346,1.7942306520505031,8.558137493848797,8.313462682874341,10.572429517613491,-1.8209617932204565,0.1491797789592118,-1.4034758664204454,-4.887882240204827,1.3716006000418246,-1.2802105130120336,-0.0690887188463671,4.909449630218201,5.505134699584749
14.156304277139654,-3.63170216236637,5.084056570368873,6.348071335287158,8.279846766355018,-2.333129623002225,-0.7612368886614692,-2.506120607088594,-4.625809984339743,0.856063236038711,-2.571364187924742,-1.6116173104590246,3.158202417488786,3.60196851713573
10.678440903116629,-2.7358566113601093,1.9771515264179176,5.264864991026336,4.941963268946046,-2.098350169247373,-3.381617652409825,-3.502313631341356,-4.626676450264171,0.3493029314204747,-4.160598650003617,-2.9270450707242555,1.3428751314077625,1.7107664584316264
7.081952311013247,-0.493762710430083,0.3186102881615156,5.938780583426663,2.717864898387137,-2.0483731039393245,-5.393415177914492,-4.510211067562324,-5.030860157599221,-0.4149500986032266,-6.176087562120761,-3.436609386715893,-2.7973787355603306,0.7968734652781331
3.6552222548884368,-0.6321260976254781,-0.0648655126356376,6.625924448387985,2.623535689533424,-2.9122209507657364,-7.155032816439332,-5.681020179754711,-5.936122317622324,-1.788796656322391,-9.098231840656467,-3.909755762105386,-9.511292212503198,0.6898160261837987
0.032822459903496,1.731811658408473,-0.227971139430382,4.885163444492672,4.113317749441991,-4.483585420488387,-7.11508846325233,-6.805529430375971,-7.172068625841567,-3.5284176835095358,-12.628563675014655,-5.300398360930316,-12.009218448115671,0.4751082843277032
-3.658894094844321,3.1315189311551386,-1.0001201312824095,0.3316115381154372,5.853560622939876,-5.574907987536863,-4.702832337284546,-7.158962502076132,-8.026680113773294,-4.605915430442228,-15.039384099732096,-7.284734095228126,-10.345300900175433,-0.4359990143699424
-6.279911196072464,2.5770928989750788,-2.181147068127892,-4.705735486140608,6.694031070341393,-4.832441668878138,-1.1054418822696226,-5.902068529294333,-7.453543491793811,-3.896380584344061,-14.07690217298511,-8.186512777301559,-6.035704326120412,-1.6679253387266346
-6.4990409009148085,5.72310364087692,-2.787451548392614,-7.324153655283442,6.059529693354614,-1.883443856535926,4.299443735178802,-2.830484726213749,-4.847141566040529,-1.1775183323872045,-8.890256385264015,-6.4428572103097,2.627283143120692,-2.295804593887948
-4.19542403202788,7.2940211002720785,-2.094404707283345,-6.753880499254836,3.8599229771385817,2.108081870834468,7.03520901648461,1.1882324617238915,-0.7661985400990554,2.506076084181552,-1.1889387924367736,-2.1620521214804023,6.694074861821777,-1.8474825121275915
-0.9493686838475676,4.2219911161069,-0.466504323268329,-4.852485896813016,0.4628884554127745,5.068483343375005,6.688993945270468,4.602698576607542,3.170133536841135,5.485443187313675,5.700836437077058,2.752388495938232,5.789309185293776,-0.8278110459058332
1.023090410359096,2.9608869420230093,0.8217919330982686,-3.9770606558055626,-3.1363555575855315,5.484898100287173,5.759336449877591,6.190839799310787,5.305939144499156,6.563956510400788,9.274397381642936,6.033586086289684,5.02863942311069,-0.1995018133423149
0.5690613067743877,-0.2927814003157494,0.6215055176666353,-4.55846635023347,-5.417584400662016,3.5728229547394035,3.039831102324543,5.87038883292305,5.0917467120019575,5.65518436425403,9.618869992572382,6.715326008922816,2.29063500534016,-0.3532453731795084
-1.6529662826039375,-4.701104840174192,-1.1320599798699948,-4.920874022069072,-5.118772248888536,1.097870333529674,0.888261154680458,4.59977532733096,3.371328113092637,3.536572234115011,8.839205598959232,5.575881230183253,0.6593468861396988,-0.6662329678854408
-4.015084602385538,-3.6686136596955192,-3.3744821851965194,-3.432719167743881,-2.332419292766096,-0.110878113353265,-0.4582995113038591,3.4697688894189094,1.5977589649681674,1.0838432017707589,8.689860475113138,4.116838801513592,0.6611777181044571,-0.1735250499148792
-5.424815212023235,-3.440037011150691,-4.79707622323839,-0.6024318175803007,1.082570717190218,0.2611342774151315,-2.553724843827331,2.8171862961195218,0.7183335893601956,-1.3010911707014483,8.765943041915598,3.158039418300608,-0.6916579047124303,1.2834797481350324
-6.018431899411791,-4.617486559569303,-4.891940698094151,1.1494100654635395,2.4281961027932217,0.7355555291421103,-4.816327790383636,2.126060157611362,0.6846039429805104,-3.676794410411073,7.093368622699863,2.3414076123798537,-2.6382559895152005,2.632230931630575
-6.550675453912511,-3.842108273932327,-4.298278674549058,-0.1997387961993948,-0.0401499314451343,-0.6387394467544407,-6.597513827333112,0.7138632985238946,0.8662463597086913,-6.145042256209832,2.5225840214088144,0.8418413553418329,-4.046277984353281,2.4161513124254594
-7.366896186364098,-6.4919372348063,-4.206999642401973,-4.30293335725016,-5.802407340652518,-4.478413655768926,-7.924088915446862,-1.4976948245532218,0.8114771209365483,-8.490508092496496,-3.575240432317996,-1.5726822604042074,-5.17976464141989,0.1910915902944914
-8.126862151215459,-10.57350051952208,-5.34632712034132,-8.805567978557185,-12.322264130001864,-9.335996261058767,-9.158298679030024,-3.814092121086959,0.6127344771857282,-10.172920359376237,-8.176215425966735,-4.201663519280739,-5.954681842201118,-2.8836955897362744
-8.438247238259216,-12.275756648889985,-7.379018198282412,-11.554813964911563,-16.713358760194673,-12.692445856890586,-10.14387679126302,-5.275934008915671,0.6602688553823515,-10.628417722928791,-9.291118291744915,-6.041994656137158,-6.160081757672669,-4.93858211863734
-8.481377359962066,-13.592139040717356,-9.17791312534002,-12.328571016108246,-17.571059871809464,-12.861335322809998,-10.53474002325605,-5.350807550180772,1.1681218639446111,-9.639607082302872,-7.807876580200357,-6.691233941111994,-6.367437244984938,-5.04463451086274
-8.787052816092093,-12.051708911065106,-9.725718260332762,-12.433537263419469,-15.646483078851828,-10.267462169507636,-10.309069936708486,-4.27259611724997,1.9564337331694617,-7.545934581747622,-6.596342414876009,-6.671871843479861,-6.503814896242415,-4.09729585980378
-9.403416905815472,-7.576500293605076,-8.879464527008873,-12.8547076082593,-12.9935103663869,-7.111394844646469,-10.268297279408156,-2.8659534533433284,2.6088822432222565,-5.152540384060622,-7.696513312764427,-6.956898303339971,-7.404174877111066,-4.023316572651745
-9.482580458136582,-3.309485474214077,-7.367428224092756,-13.070453859558103,-11.358749603398596,-5.716531591764601,-10.378124640062955,-2.0595480903692494,2.7732522689696983,-3.3232751257184554,-10.313909226490004,-8.17369232141374,-9.263593614441016,-5.934337064813271
-7.92165567534588,-0.5053674629119196,-6.054010091037222,-11.742826441089138,-11.042023833018993,-6.832273647377624,-10.073800369502887,-2.393351042288063,2.342501366837968,-2.4476373565290843,-11.548136889300014,-10.110095473669576,-9.762683828942768,-8.90196176889257
-4.541548149276321,0.5688296787063446,-5.156598920732451,-8.387230543896798,-10.98433752745888,-9.142501313870827,-9.501619160853496,-3.7342445789646015,1.4483783660592104,-2.1782656169288543,-9.132146525633727,-11.80797876777949,-9.005014027323744,-10.564710794386349
-0.6204593282874962,0.8019276878832969,-4.141962077252579,-4.14091189110512,-9.8899340366699,-10.306105130326094,-7.901111645208815,-5.310841906423581,0.3464270676840866,-1.76318614912873,-3.600358033952552,-12.1280471660439,-5.964814522213379,-9.142694939727097
1.8723087764294029,0.6354502844119467,-2.3946033862161715,-0.8358983159196952,-7.444117435397944,-8.732349957147648,-5.117314780655824,-6.087584730787174,-0.7233750722463834,-0.8185077521126587,2.04805374973005,-10.454054121815844,0.0465908259596292,-5.094313685643192
1.7966025380760329,1.436687535608945,-0.0036965379532949,0.5743804744033703,-4.651116131007205,-4.7600859386572845,-3.0208948505433,-5.3514045145029465,-1.6441381315075438,0.1437343792487995,4.759696589434737,-7.141540607861886,2.7965662070174813,-0.8874078839135323
-0.1681744003391507,2.0837655205609047,2.1257462399732168,0.6042388003761424,-3.01075928494609,-0.3635849772720245,-1.509260648463993,-3.197886059280471,-2.430351428138339,0.0651131386295249,3.721725724499154,-3.393121203379127,2.319557612790678,0.9768078693185284
-1.9579291738585411,1.73039167078606,2.997188693322303,0.3785643638176241,-3.202674678359621,2.355615947156079,0.382692685939249,-0.5509761922688847,-3.0965369021591167,-1.592373910587646,0.6951319625107777,-0.551893855544348,-0.4793760462219328,-0.0337593224057921
-1.7208527403230858,1.821755592172996,2.4184026692190854,0.3916188028704821,-4.417661062057948,2.6787940567675,2.2947819688966287,1.4064766429781184,-3.479060921972097,-4.060526114165462,-1.6060505564795655,0.7452587576855434,-7.205472620196037,-2.1992440807410096
0.6569239154676247,1.144137113752503,1.2031165357856122,0.1881745935422234,-4.998074977926958,1.5889899420957687,3.475531592525473,2.0690748789790976,-3.2268606137845044,-5.675903088778154,-1.5409989168206772,0.9152137516888514,-10.013078660955768,-3.165230181304548
3.3453941999214227,0.9150445186020564,0.4632492327241153,-0.8622273128992617,-3.917552978093952,0.726747590488225,3.9178250528935017,1.8839700086259572,-2.0842887925814404,-5.284881393431951,0.5814031015809362,0.986026525122635,-8.754482850731975,-1.953447503467444
3.9633062474638585,1.8512374525311732,0.6556912420826251,-2.677831259380052,-1.795952095394466,0.9652985341743978,4.286315945786554,2.0088508589694816,-0.279795623555954,-3.342170901665249,3.132765438712241,1.7305817285751526,-5.857093074604236,0.3891200779147197
1.5855620838052642,1.47597614772133,1.2861068463065404,-4.396354071711071,-0.4425570844880059,1.8598994079017956,4.417824978882638,3.329498928951349,1.3922464609203238,-1.5512911795922202,4.494219987937515,3.085471621871215,0.6421904864757003,1.9079720134388056
-2.2209810085225823,1.1867610773817,1.5265666646012264,-5.04936122346417,-1.2103848697332007,2.3674895856327614,4.719417105021947,5.62393884954655,2.0321336934263305,-1.288506261000668,4.0332016848307815,4.273030621699587,3.457505929359045,1.4395154501718128
-4.315268377706983,1.3566809904134884,1.110092898876661,-4.169522822090814,-3.596210209715499,2.0642792811731105,5.326190053684545,7.652455177995613,1.3578273272927366,-2.31734988208946,2.2432695645867,4.451906514328646,2.283864536631972,-0.639154051883911
-2.3567041182722903,0.0547612263050054,0.6127013161562402,-1.8216080288710776,-5.413818592590109,1.681880194012124,4.693657865475817,8.193433906240902,0.0528901153015879,-3.0784058070493123,0.2406035617331787,3.378168218310248,1.2300132405994202,-3.048412865971727
3.1249982388411803,-0.6416482200800412,0.8612261699168391,1.6519857979239805,-4.5074722665307245,2.4785805525377,2.846666291628752,7.143281362856589,-0.6669559890594305,-2.276923403909388,-0.9137682881145892,1.656466635111304,-1.4101705272750602,-4.754682480501263
8.701999919064809,-0.4866629318016974,2.0717709459620943,5.631281060647153,-0.569738918856062,5.055754813420831,2.1978285652521383,5.640220191768589,0.0217464313696589,-0.1704547856921618,-0.7088738343354715,0.4486681172846234,-1.6305759481702753,-5.491640874225558
10.321970248904693,-1.899941424241105,3.568572494123671,8.990995377030272,4.512399938252379,8.703459236149822,2.582271464111544,5.020323957411285,1.9211316779118004,1.7343139481356935,0.6428538932953174,0.7640508874696641,1.1475353264014243,-5.407965874663121
6.283435737855792,-3.005569948820857,4.335966939684438,10.247403214606486,8.082669850813792,11.83347028894519,2.9953173847707064,5.538610352532858,4.022963038738904,2.240207983282346,2.358216191271242,2.6774364738297383,1.5557964844426213,-4.563743015904783
-1.4018444471023912,-3.416492100921677,3.8434573086265367,8.418724693963302,8.679097465229058,13.08266990578511,3.917969680216813,6.0713248769381805,5.322567832296135,1.6611711671723572,3.4769666405839086,5.000830709299861,0.4178826018310934,-2.9994993088790656
-8.409954341594897,-4.493882280249974,2.367846585569973,4.031200014491028,6.897199686037817,12.139722364134975,3.6163466263452753,5.1137393463909335,5.451756480058405,1.431465295862666,3.3194753571347144,5.82579557824141,-2.0516074564704607,-1.2296515105294097
-11.22105185154776,-3.5524102320991107,0.5863752358703689,-0.7839016816387385,4.557970661820136,9.686095346786432,1.8966764805042569,2.150738571002499,4.610017182929234,2.5191364482833603,1.7829311846697546,3.779087570694637,-6.841284457454187,-0.3283898840068122
-9.490801494904677,-1.0492354977767162,-1.0663547974707832,-3.5150566252582784,3.0779175697076298,6.666127138432708,1.1801321450468645,-1.8643164551917604,3.0462401955060745,4.258361999442743,-0.6651651532933247,-0.8632790280608855,-9.227123694258967,-1.1364217349711137
-5.844549501564078,0.6409520071825209,-2.6149458359286086,-2.9878468557093747,2.524935709885847,3.637032618757466,1.1407782800519164,-5.306767497590295,0.7828730403474875,4.807760957743037,-3.255629230767145,-6.163309143375638,-9.18857696510157,-3.20187078858576
-3.4404335686687624,1.206087779259137,-4.177203038427649,-0.1597030349260286,2.061426104006252,0.7462835517208717,1.1620803419951329,-7.137693840903319,-2.100606290637401,2.838627794387376,-5.265106519159742,-9.772562101745724,-7.94434949090993,-4.664879487000961
-3.480705768631287,-0.0793862218174475,-5.485880496659174,2.70144715799389,1.1312177066346116,-1.8138118207774632,1.6654813654002325,-7.475623399567311,-5.04836014536472,-1.1419234000054177,-6.266952221185969,-10.51918284918218,-4.327440125574865,-3.590485066213695
-4.727490954329756,-3.0805632035470625,-5.886688908612651,3.762080656037672,0.1213962848607685,-3.5169627279307534,1.065034445428017,-7.122568010304214,-7.126114542484892,-5.072207382340299,-6.214376127645679,-9.049505979850142,-2.0311855616133028,0.2093121381343294
-5.171382004594625,-6.713787502442586,-4.9202061512563375,2.844909268369797,-0.1254181812779364,-3.815141103321883,-0.7502175834518379,-6.695720936784685,-7.714450361307565,-6.953391815878225,-5.382287784147039,-7.043420972984201,-1.1113557241694842,4.569107684032245
-4.102022694257723,-7.703075822911577,-2.987513895406977,1.2183879335281755,0.6459237839640739,-2.7894762918721714,-1.3518489885411946,-6.238850047443396,-7.125209139519889,-6.342271115194302,-4.231324735791132,-5.770563834294293,-0.4904598741945546,6.382520574768806
-2.6582602170484453,-7.162329265764308,-1.424595174796547,0.3108381922618868,1.6622703123324545,-1.4119613688938486,-0.9790259146327916,-5.527029126786109,-6.424961015840754,-4.467572978774097,-3.261999427138086,-5.284255295882446,-1.0725660555119905,4.000403079822576
-2.521710081144473,-6.801544852251072,-1.7328154401426126,0.5460776397166214,1.7904602349703893,-0.9838573902683264,-0.126568610577589,-4.542699101019103,-6.516539136810181,-3.024773602766672,-2.9112155026515047,-4.8696941940368745,-1.2052921414693178,-1.438754381194414
-4.155218081160774,-4.191620215233623,-4.406145088451797,1.23768615259905,0.6451944027882455,-2.129451687559726,1.6948271297465218,-3.551709628174997,-7.314351478775272,-2.814429190393497,-3.4775844276094183,-4.135647321674586,-0.9342513867206114,-6.91497211723596
-6.268820571714246,-3.3620449694715733,-8.233569609265405,1.4641889777485808,-1.008902482200524,-4.247718359251428,2.1541610815589585,-2.7766335315955946,-7.813283138908535,-3.33405899116028,-4.984554947349471,-3.541826358502409,-0.6579375640870772,-9.82214725784085
-6.918319649293144,-3.1300845294653463,-10.766075482007803,1.0121998444283289,-1.9840483655289445,-5.981083680889975,1.1406510056363224,-2.1389873467205875,-7.004587926246186,-3.436787678724749,-6.947315586277458,-3.770326216725127,-0.0210879657151045,-9.59624377105558
-5.148729721611757,-0.3699449071062003,-9.853356995171348,0.5118184424116423,-1.7881474867952385,-6.335340850973202,0.5940719896460365,-1.4107895709198557,-4.792049021225544,-2.28731426007644,-8.24108365713353,-4.593112168343137,2.016992868071063,-7.392522454826618
-1.745420974000357,0.4585783603075881,-5.268233130545239,0.6906569344489029,-1.0138277388394208,-5.464629048280182,0.0190188662130779,-0.5846617419705264,-2.085876533791005,0.1672475769671884,-7.43483198867194,-4.530508525685926,5.652073765471776,-4.463233368229412
1.4220276842549122,1.4264155078333955,0.8495208288405642,1.5051340419782484,-0.6507230850225341,-4.434212439986204,-0.1116922737110159,0.0115393397374106,-0.0355622708800762,3.3544470099101424,-3.700826509417244,-1.9187331378286068,8.71590661930754,-1.0270024184821054
2.7880082038189933,2.2738536337550843,5.2823702590153925,2.0288708763881225,-1.0618477102517383,-4.209479812226483,0.5075279501573607,0.0423683478906262,0.8727812209278696,6.479278438283222,2.242337681474829,3.427898143628965,11.405466066567753,3.322985364475736
2.1013979670892127,0.4671786025176992,5.970790782598499,1.278985309332846,-1.638976343707231,-4.798066032691237,0.3865355697054086,-0.410182429930197,1.0798376977391833,8.82916572637449,8.100847480447708,9.56151550625659,12.246222422257809,8.363801923660972
0.4398933811748922,-0.2445518292706903,3.511627925001637,-0.7372193916507097,-1.3973921072430162,-5.2854361231534455,-0.3438168990978343,-0.8257208396497759,1.4327167248226331,9.963486814061453,11.32480147526108,13.592089892040484,10.599042582400909,12.707738299462523
-0.5876163661021891,0.4125244250316129,0.667714963582867,-2.748165364060707,0.1519001487621576,-4.67493835964806,-0.8379100196912384,-0.7187195210606703,2.408557121402051,9.881328943081472,10.95768209856058,13.857998760871142,9.76996797198145,14.708215381902116
0.1939220795886846,2.086005541237532,0.2113909111362168,-3.076997079371509,2.670703624106544,-2.7618506723221827,-1.3383525050808414,-0.1449860320246792,3.7440491902070754,9.075377032291453,8.402107438787855,11.195730336224829,9.329883772826172,13.936532132120515
2.968580389127484,5.638025714868077,2.838539566456838,-0.9896327513953338,5.372430609483725,-0.3127005476148241,-1.0780006800747344,0.2979671936200159,4.704381446200934,8.2724930370585,6.204916548117048,8.17040806662591,10.2308024883244,11.716311720376895
6.982228475952148,9.338941989306567,6.843093750675726,2.588381165411601,7.605250189959259,1.5307250746840817,0.1271555182667194,0.0077279505615823,4.682342312379333,7.905909829892446,5.793152327811216,6.963198463598372,13.224700661316875,10.113922388555071
11.04007554624851,10.714288833844478,9.715688504638914,5.617780329344894,9.0905604780274,2.0680888007400533,0.4045508445318926,-1.0822756952265935,3.6184130674371655,7.724837184751733,6.256860801032012,7.759102341860288,12.130642864729134,10.260887388281226
14.090636536695447,10.078849392798626,10.18368589116995,6.355049739347294,9.75453676624578,1.4225126031384736,-0.1294092238609279,-2.502357895315466,1.964590843154996,6.954765279511983,5.399039807502053,8.877793091975064,6.988817577506664,11.464414151529969
15.574576099352209,8.648834684509069,8.945622644230133,4.54244008701918,9.505843513549062,0.2731517255469633,-1.545110946907701,-3.755937641627833,0.3112842929645136,4.95702985587122,2.0387426030431506,8.259101866362915,0.1922406567076363,11.803824327658036
15.44126888246634,5.736248073025305,7.659257674467289,1.514730487972793,8.279589102882234,-0.7233947371586105,-4.300640353827,-4.761844191234358,-0.9856376865733908,1.8428444398610733,-2.755644179462092,4.912296090671061,-9.690467044167114,9.64921151968166
13.99316646202017,5.394480258084549,7.336820013810417,-0.7613650136199475,6.3157960120350864,-1.2855503446268577,-4.258445527973643,-5.733810902350736,-1.912722467150017,-1.5004162879026983,-6.732280332014536,-0.6358357145625622,-13.14657349465101,4.907124963577694
11.797604025163466,7.754411905805498,7.686404171671004,-0.9230888499778516,4.363009798102414,-1.378229045067901,-1.2683089256651332,-6.634104183106977,-2.619978848196414,-3.9859022171867498,-8.617064494391162,-6.760116117145795,-9.339628745041054,-0.8345604913477693
9.705732343702056,9.28437829812452,7.848236488674889,1.1327068020144893,3.5038885199454057,-0.8405326649396567,2.4333050710739923,-6.84137425009142,-3.1331469877544755,-4.993115470843179,-9.009506234327134,-11.38601071757899,-7.275490786944608,-5.2287213988508405
8.737751682080237,12.975454378392142,7.558319522880442,4.437815775171437,4.563028152295434,0.7390504922449637,7.84235333939622,-5.4912327574724245,-3.190172279384175,-4.588923239581359,-9.095098336895113,-12.60481493904263,-4.799373533302926,-6.481732696580469
9.590091276708293,13.189985900905697,7.424577794330627,7.596358469977886,7.409409097457839,3.6438854459598105,9.768650386145357,-2.257211493996966,-2.3530685407479237,-3.2426646640707126,-8.75300524356123,-9.418459686989507,-2.9523797161983256,-4.27787702845508
11.930907494382131,8.148066794311509,8.010107081945236,9.345900989819103,10.683481196498605,7.4304795490413795,7.625044963487636,2.146788526522247,-0.3760990267587125,-1.4337877397343952,-6.397211601835529,-2.526702246302502,-3.10251276119064,0.1296039878528461
14.119297744897857,4.4978700653786445,8.736391247814382,8.863315996140596,12.335027559280071,10.737177860166089,5.93467320393705,6.251129920935011,2.3974385834156244,0.4595891043946878,-0.9732285195767147,5.498586190348604,1.8976558044128504,4.614613512352481
13.92120244609373,-2.8083811032108663,7.911132937684215,6.008842750934708,10.82079263507186,11.891120016929555,3.4169816113073224,8.716906227202031,4.9667342266518695,2.020480247901194,6.017412801394865,11.248732192201448,11.810449882873671,7.220366746276387
10.026069646204228,-7.53571856515679,4.13197236345615,1.5997855690866594,6.208642387587169,10.01335126382715,2.077258378807111,9.1394920325384,6.161793773271075,2.76861192718124,10.924289377880026,12.381953967782827,15.224079905521954,6.986427345636219
3.277774339769209,-4.380474309943313,-2.103250100845916,-2.6155215903256317,0.3232018204551039,5.775190741409812,2.634364515802495,8.19343108525742,5.489897205836783,2.482050623186573,10.839065424804115,9.110994999581724,12.771967093979438,4.208100443960195
-3.537252813665841,-3.638523154697828,-8.150668867041375,-4.705156828526089,-4.309936572750246,1.115112006123265,2.329200576581063,7.096063905089025,3.704654649569278,1.6185352273829243,6.345531576562184,4.1000894958333305,7.912595091956483,0.1487988658501038
-7.4443872900190975,-0.2237593671738857,-10.829310600800632,-3.828454754298633,-6.029033362641442,-1.9635478253392729,1.791808374587521,6.838476941589615,2.4810566764433872,1.2995850611875248,1.3924060626428592,0.7795245373716142,-1.8514151310171167,-3.5280226204464995
-7.3142216157947715,4.726663272244286,-8.728397681867268,-1.0447993070841155,-4.97287756567216,-2.6168848396330238,1.740258783131517,7.687733746699305,3.2363676318778296,2.615862368218444,0.2105540592127717,1.275277320237123,-4.474864132296594,-5.359992995295215
-4.531793668796308,2.954673695773216,-3.3412538102219926,1.3083435971781192,-2.729622188561656,-1.4842867652309906,1.8662882031318224,9.180687767696575,5.962153415722941,5.6843838020005,3.9850763855571536,5.32419603074387,0.8577971178616542,-4.613101337064737
-1.7575017401788973,3.402980914613826,1.9379043649413104,1.4527166097833604,-1.0602210216265746,0.0508406764635367,1.5296991080363616,10.498939984927691,9.108639949434316,9.282455754523689,10.168897358288849,10.690907406380148,5.671160428910024,-1.6416383814977067
-0.8731244137914089,5.776656626233878,4.16420683548999,-0.3173207700590197,-0.7399045682899388,0.9670004054834322,0.7193520472582038,10.949272806254614,10.749604274248238,11.522192583857665,14.815178114753634,14.576353694875094,12.824608647864777,2.12889430443906
-1.86086251919534,3.703146588911565,2.692156244245401,-1.958225328582836,-1.346496867384371,1.185255188555992,0.0906345146731073,10.287462453698506,10.089323161547584,11.14711589202911,15.637402438680189,15.078407039056952,14.422791699257074,4.793666690326914
-3.409810434083292,3.6993049871767223,-0.7861986577037889,-1.70522875448569,-1.96523281477368,1.299355262459283,-0.4892529676395785,8.7460346384828,7.984255815675837,8.420526168032087,13.179396813227063,12.000884174829746,8.94199767572593,4.993424813618757
-4.423142755155951,4.940857246642031,-3.769285088698531,0.0933202109220054,-2.05471691917942,1.86809201498059,-0.3340507358388643,6.801900301726931,6.019996231395133,4.851963406787371,9.52821803707382,6.781791036010368,3.7722016102832368,2.7711437347900585
-4.888345971065835,1.5367197866578983,-4.641565359160797,1.2199644936068026,-1.7319551377292228,2.930537030535042,0.7346170968101958,4.863613344116942,5.034737558265052,1.978474026690764,6.231557660981528,1.6815994150647278,-3.2799312302605594,-0.4289234476549648
-5.401003990623771,0.2261884743370485,-3.3184689834160537,-0.1985553381469271,-1.3826341582049917,4.059053977153525,0.5947778800074635,3.0907275479705945,4.483068852508447,0.2237461516742671,3.4006866311467903,-1.393757542010193,-7.221040234606573,-2.768097731650835
-6.07345332175044,0.6574733745647419,-0.7504005070672317,-3.663165606235793,-1.140283310968159,4.764247624951107,-0.6837039131940391,1.430800093942782,3.1765039327347484,-1.2275857948813051,0.42206788184978,-1.900898805171428,-6.783545497196337,-3.3472425544785542
-6.131647625516551,-2.739824384879331,1.907991221762737,-6.548095764914219,-0.8082104702702244,4.857547100821936,-2.125021899553705,-0.2213822948979933,0.5888465883402372,-3.4909115203299885,-2.906689840811705,-0.9485972563083314,-7.738544097381735,-2.807613376275304
-4.683678237749143,-3.921431282243975,3.74887362220598,-6.47432595016801,-0.2478535517480047,4.527865144938104,-4.176396485043362,-1.902303952400596,-2.5649818905078403,-6.818718218257043,-6.08015156959958,-0.6036876969782057,-8.656201329830088,-2.64167068417919
-1.8447168226998176,-2.8509475641393185,4.191531302060545,-3.4954115864804445,0.2780003869995102,4.150260872118871,-4.260028819793803,-3.543285178657885,-4.946923738796038,-10.191048908029408,-8.469357709145878,-2.5033517355418717,-7.640195727832422,-3.728042074271156
1.007742626998466,-3.5880378534414383,3.113015531633666,0.0633754838960145,0.2656141494683766,3.999353321616184,-2.088489575193893,-4.9391345293452025,-5.684211028708069,-11.971525919030462,-9.839154029337518,-6.595728902287767,-5.241696907512457,-5.348616401662761
2.20592147559296,-2.380496912118698,1.1154955881168434,1.9066330713572808,-0.5041973624995721,4.057125454385439,0.2158901908799772,-5.68952236337577,-4.873869322530564,-11.08984985881953,-10.151551083826218,-10.918866046518051,-0.7018264955992676,-5.646292526047385
1.1179642241049272,0.5350746863996095,-0.5330970709158471,1.8529873970458333,-1.6767319126679938,4.030586947428496,3.301693528492313,-5.265493729608107,-3.213805683328681,-7.8567385515511585,-9.078376631544415,-12.76875887404592,6.341314957559165,-3.282023529483471
-1.389312388784839,0.4847791180368355,-0.6743747588922275,1.6273194597555989,-2.6493476360404262,3.562252313755049,3.698394708580023,-3.37963868198195,-1.3858135044559443,-3.847252317729604,-6.117398340268474,-10.629643221860531,8.812555661691224,1.0776293170983138
-3.717648086752055,-0.0157694031902574,0.6615481359645816,2.6982272809799337,-3.1865564508278563,2.478964039047714,0.8360838938748882,-0.520220227302465,0.1240490714066879,-0.9661080880807162,-1.4612519901968426,-5.5031678995590205,6.377731061000879,4.836630721474844
-4.752754065084066,0.938759835063035,1.932835926997189,4.520647793449216,-3.617643906758836,0.8920956706616856,-2.143335844612969,1.889540956750732,0.8225456354436069,-0.328454995422387,3.3323644180934195,-0.472791233531673,3.2029834547953016,5.276670009742244
-4.447766512837344,-0.4201921693031371,1.160957196579698,5.071387105491503,-4.340995589813588,-0.9014807457091508,-6.185966816861492,2.1806430515310566,0.2369434623236692,-1.6614503036190058,5.9329086263123045,1.425374683985929,-2.443049068521561,1.7492607341760902
-3.4470735755497355,-1.267690229725251,-2.274038142509303,3.115852653570741,-5.170703186843225,-2.579492222306971,-7.171126594491881,-0.2673157713560954,-1.5518904041769606,-3.571396129301336,4.967894494253933,-0.4903372995846187,-4.683424692828518,-3.5731537829912536
-2.365084464819974,0.1299345601765911,-6.731827904891407,-0.2049160990208562,-5.318171978308319,-3.849973809930255,-4.358432922150344,-4.157551398720182,-3.430729959719688,-4.47851507102347,1.4364225620023277,-3.9572997719016616,-2.7464616627192786,-7.140509673579498
-1.485191984910415,-0.2772367158123775,-9.348522394311068,-2.195510338319977,-4.145883926929846,-4.417994464217607,-1.4154755853354823,-6.819399857191923,-3.6489253348390864,-3.598036102048619,-1.6740670663242376,-5.530533255491376,0.3469983029122448,-6.617716842336954
-0.972588243760928,-0.3382355381236031,-8.309886209042936,-1.0712478204496092,-1.956015677240288,-4.043566289213143,2.8158001657344567,-6.04361349117591,-1.1186626455817548,-1.311664411885598,-1.5522909762786703,-3.3299727186496835,6.296354066156054,-2.5817173378524503
-1.0666222046912646,-0.2322704366726969,-4.390526639307916,2.381470692620195,0.0389908392521336,-2.784352878937898,4.602720651632639,-1.8187468446518595,3.436085656810577,1.3085251621050409,2.192395640940568,1.5425462998660937,8.846263227719206,2.0260045421906003
-1.864059988107232,-3.60167711783802,-0.3394133202018068,5.53919147933373,0.6083945277278691,-1.230990777906694,3.225988255973205,3.559814903481773,7.688182496916784,3.425345422902253,7.15338159979786,6.111473573228086,7.509517414004468,4.209352589150892
-2.987847288286212,-7.537107261845112,1.3508502884299491,6.213348647640152,-0.5708114458057186,-0.3970432936721977,2.01241217885563,7.216588383034704,9.34372642161304,5.03324975994838,10.032814907515023,8.086032699927834,4.123114987033505,3.095866000781187
-3.738915501377767,-11.521453917776435,0.2739542478275547,4.170893905317564,-2.794955638707872,-1.156723663725046,-0.1004364765342025,7.819294097536124,7.882501105292946,6.693120534504288,9.249545919082497,7.504960585495769,-3.0796538785316243,0.2731150283667709
-3.7948049508039503,-14.931081607209247,-2.023668235025317,0.626806368466645,-5.036754474189173,-3.57712604920016,-1.073948121955284,6.275261963529297,4.853409053087676,8.631293305997048,6.021974468817229,6.072960226033645,-6.8862650621308905,-1.841583201228952
-3.739530079686888,-15.018832327948816,-3.7809402110162047,-3.330791418315465,-6.715150902875962,-6.711510653609954,-0.4033583902062799,4.497068697394798,2.4510332718175194,10.07507114545935,3.0300906257088127,5.083720025667762,-7.068636699084816,-2.115906994282015
-4.676165534817988,-14.403373518064614,-4.548699604731221,-7.455292997106119,-7.823904686515572,-9.129879859661074,-0.0529413148510747,3.512767190290896,1.6800532230914378,9.583269452607563,1.908099358995888,4.135437392986809,-7.317366817793489,-1.5243193079249773
-7.080471291657562,-13.387558826948306,-5.103579097261568,-11.540722885043849,-8.442092938990726,-9.850470503184624,0.5864393524036206,2.7228073509675887,1.7511231748450715,6.24203954131013,1.84898707349344,1.8762632220527689,-5.938709231896354,-2.0787192500074667
-9.967626346841062,-11.166599754185569,-6.100760305291585,-14.395906067731056,-8.269291642074988,-8.942222710789498,0.820513358209026,0.8924937740072583,1.121229628355472,0.7013285515171823,0.5639182443540776,-2.176907374158361,-6.343085386573292,-4.870382212047325
-11.31576341601191,-9.093126825256006,-7.049820950293698,-14.2113565854736,-6.749478848521747,-7.291813967873789,0.3970067959169238,-2.256093710080385,-0.9594892969018058,-4.973842270513217,-3.335004149078914,-6.790423295503473,-8.941125602610407,-8.908973192999195
-9.540173816263009,-5.536847010020513,-6.712561250910774,-10.253839070216811,-3.7152940292725214,-5.742537212642453,-0.186236207124601,-5.512887118864297,-3.876065323231881,-8.651283103519763,-8.771075498361101,-10.043306006096875,-10.609411184445412,-11.718396788049423
-4.780496819980142,-0.2087230590792134,-4.443357240306055,-4.081009257466409,0.0725575844559358,-4.396818030553614,-1.1887378823175732,-7.229818461074895,-6.414974646408114,-9.571156694524037,-12.924813183535536,-11.063410787985656,-12.140153697217116,-11.18158929562378
1.103002537310907,2.0256940398318406,-1.0227585083908597,1.2714905260067049,3.1060218056353346,-2.754598825818576,-1.804974659993124,-6.85817202928186,-7.898381858113808,-8.650564229720516,-13.574585378697916,-10.56739326064644,-11.95946964300652,-7.144743016703627
5.773617874424147,2.0192156424164622,1.881116425903242,3.599749262999524,4.063045839824465,-0.5609181974703894,-1.971889022386445,-5.419561188931775,-8.522350398372106,-7.469248817024903,-10.909457938150815,-9.701087356307807,-9.49921594406277,-1.5490500434981715
7.8183455066501555,1.9611731294556696,3.061343346923921,3.160393552988106,2.8251157380085594,1.516184889431038,-1.6193201824557992,-4.472444830198137,-8.756253269361755,-6.952885079913331,-7.224018296477187,-8.623451683777047,-6.546742409824129,2.929992278102468
7.250100670033472,-1.187742402212088,2.60411482621724,2.034283330043351,0.6823833708540654,2.177852023086104,-0.4898816376352563,-4.659522100229026,-8.682112851283055,-6.934794556351843,-4.91279837909136,-6.562454317192747,-2.556589810548474,4.60862155096844
4.985577395014882,-1.902495885167026,1.488514242712128,1.8856887098706885,-0.6201290247521705,0.620783039342939,-0.6969057347432541,-5.295166427153264,-8.071807066675758,-6.79039809501001,-4.678281877883606,-3.325057680549932,-0.5153117117520879,3.5905133079736835
2.0187254519131983,-0.6696419497486865,0.4963903249324879,2.3403500465664955,-0.3333607463992418,-2.546177063765626,-2.288527630859097,-5.32328610588365,-7.0057683460221885,-6.268526751893543,-5.464619596290866,-0.4137221423823458,-0.8948629239151108,1.2121571367810855
-0.965859136933494,-2.391533064969007,-0.4201676921204456,1.5315461132875363,0.6168100845936699,-5.5542821561964,-5.026247197433599,-4.544671511837954,-6.138254136258084,-5.605745938596662,-5.851452921842991,-0.1308562869871714,-1.2511397372470603,-1.1667796163043214
-3.440846002789584,-1.7184261854841358,-1.7504370481764546,-1.7842686718280962,0.4816396561984888,-6.769395740576165,-9.494415813559865,-3.777070147680909,-6.127110464654651,-4.955942028730966,-5.3448494631093,-3.2532749015458737,-2.41507857181413,-2.937098494187527
-4.815590534145825,-1.5665119171200803,-3.535557658013664,-6.606400987629982,-1.5440119066499085,-5.875795169276628,-10.800943761601095,-3.807232546503137,-6.790564048663686,-3.975525890561904,-4.405699082262753,-7.674479037071666,-2.6340540167814117,-4.0891264691738805
-4.584521772461244,-2.7949916916886512,-4.967588951434397,-10.1002450606453,-4.272005364924226,-3.897184702907112,-8.710814622317486,-4.332329091319837,-7.011208682833978,-2.171418664927181,-3.554077705271128,-9.73314730860684,-1.5371396100867114,-4.596956789158787
-2.778958578017617,-1.030681018707298,-4.920578225337671,-9.721827379343743,-5.340860165479317,-2.140311241078507,-5.309243894140324,-4.119247713337579,-5.69433392780924,0.3454628780358479,-2.7872303959097184,-7.277157253836865,-1.487781625035802,-4.163657919786008
-0.2465313130697399,-0.7144281414810073,-2.917619486065444,-5.306852346855688,-3.3271552679484966,-1.14808370360727,0.6696744514383606,-2.2939695031897944,-2.9328994803585378,2.6116990307924866,-1.951074014825304,-1.6147092263179417,-2.0639005935770487,-2.623145421323221
1.6316897341053949,-0.8421654440116577,0.36066722797616,0.5231238242408285,0.7951647845994128,-0.6048000059030443,2.930704127277044,0.5723426817640505,-0.1956284551251759,3.464567638250342,-1.4246385103066608,3.5516620326364023,-3.238746236290172,-0.4804394971293053
1.6986233596926823,0.4960347597964396,3.460968958389307,3.9627855468744393,4.328402326487103,-0.0688208329499104,0.973271946819296,2.7426169309821145,0.7545934204688507,2.494996267524792,-2.0622668461911946,5.195788866101523,-5.415279746636469,1.1410267732669332
-0.2474503205900653,0.5705330699716169,5.078868378185986,2.555399780751367,5.140251689928757,0.4038328128894477,-1.1060044164373957,2.72038748810275,-0.7268315960566198,0.3437300170677773,-4.262053799648207,3.145192247658885,-6.212179620289008,1.264532425632115
-3.253169237511365,1.406836436712091,4.792919365526693,-3.008441865446372,3.4490981076136524,0.4275981376378013,-4.880011548881305,0.4351443390450207,-3.67722300182472,-1.925935654022016,-7.1784216748183365,-0.4665825941210126,-5.587229505247922,-0.1171633783794749
-5.676418562475151,2.883648923523718,3.1781332346392244,-9.038277489082056,1.4336110016622303,-0.0248452137405053,-5.524023730258199,-2.824616162763748,-6.320519656219229,-3.6753445600397168,-9.08932427886247,-3.491034061612387,-4.258755263854152,-1.934581702832752
-6.041543369367975,4.1578696350567945,1.399945062881356,-10.997014555098882,1.1043697731269688,-0.2650620931358673,-2.311454507135516,-5.465847962414211,-7.341079197355478,-4.881857897655476,-8.716293282890629,-5.278686368093787,-1.6266327780438032,-2.7734426853069003
-3.823081588912428,6.176899724247668,0.6412706424642955,-6.442047789280606,2.5352577568044774,0.6594648392553495,0.5057842472283822,-6.547329686871485,-6.546991088794852,-5.591625589736957,-6.2473780492642526,-6.152288751911993,0.1211359722146546,-1.839849176935826
0.2385594433660873,8.06618389599647,1.5948857277968056,3.1433423290906024,4.095921880897022,3.089773265922929,4.18655170761465,-5.965068736140076,-4.588897084754994,-5.416230259267133,-3.1126082049989314,-6.039367459102754,0.9018896948919622,0.5717005167051088
4.480652996089303,9.84138367526044,4.0997697570317255,13.028700315838869,4.27205612980606,6.288412957795458,5.7937161957309655,-4.151810026795268,-2.3004029221001367,-3.8126749835319513,-0.8524917866242312,-4.283187953084156,1.6800455988856895,3.3462074842094047
7.220826053047222,10.32980459712579,7.0622227992601445,18.207201629912444,3.1448902370848595,8.844379649332936,4.582683975878326,-1.8856697441793635,-0.3509832359787657,-0.9522618121415284,-0.228402647371201,-0.9612298002390977,1.921084186679575,5.241244886407822
7.757527484054732,10.025142384995936,8.888592857070332,16.704573813462424,2.1275147925629483,9.640515710846266,3.807234395416084,-0.2484335175060188,0.7133636607747995,1.830563949330632,-1.2146146248598493,2.07672736978208,0.2535150054675322,5.536110007628432
6.79567539917535,10.268374833154674,8.413472336278112,10.814890133295837,2.444048390182779,8.616856036431813,2.6109681231511748,-0.2720989725554474,0.4855590450496372,2.763660520420535,-3.4213770007390707,2.1927030108556096,-3.5017419276109143,4.336079003209497
5.880589034343407,9.304876628929328,5.787525303312632,5.279416457744636,4.038198756320359,6.759392417354746,1.945679394005192,-2.163663589384834,-0.98341091249873,1.1163919860937792,-6.190233042407284,-1.5770226755270151,-6.329068631588312,2.447216169140331
6.162256770398319,8.880979037252466,2.542727021419844,3.7735784985518928,5.918126880386907,5.358006628383464,2.300104819487568,-4.795303485021357,-2.9125949624079404,-1.925292998437186,-8.374716456579613,-7.0716179455356,-8.42981221248676,0.8868890596056236
7.462879948997837,8.975766773260203,0.5582273379693605,6.410195657236151,7.277883980281189,5.097868771321089,2.453004867596844,-6.25717082954295,-4.099021520619615,-4.008891543831599,-8.559238549675847,-10.350488398174736,-5.4134965239953,0.2632007790681143
8.469775287564877,7.03615187437143,0.6190572044026137,10.102949727141104,7.99112642969779,5.626573245740346,2.785226066790408,-5.304925190433519,-3.7761805617807376,-3.558908434442466,-6.064363494216728,-8.851386809659672,3.8953149201889703,0.40161635511895
7.897300382894281,5.627905167319007,1.7815251943867696,11.26621565966045,8.020473686555206,5.865786715121061,2.7388869435876675,-2.4555007424483257,-2.2832011098342218,-1.2357853701434092,-1.9103669570283408,-3.4717933413921878,9.22673428386279,0.509381015146388
5.552716105620876,3.316924035141957,2.1839400007188328,8.521105208431845,6.73748679916104,4.812450734232755,2.153409975968001,0.4078011018773,-0.8037984595232732,0.5390923026538275,1.52973345646895,2.342365935126308,11.417357212923354,-0.1937839829039673
2.3620671517977208,-0.8877524729657842,0.6794850405529766,3.343248628496592,3.331287552337062,2.2622624080884464,1.0563043587315284,1.6918686660827729,-0.2692233027661026,-0.2181856358385676,2.3529266786434606,5.5710443675547925,9.156292349250782,-1.8150399982284409
-0.5109549789051355,-3.940349533792906,-2.1134015957873924,-1.4826951718670704,-1.8833805008971307,-1.0153003628980457,-0.7802791260481988,1.4923276783590844,-0.3935180276607934,-2.9943353078344384,0.9407633803808766,5.901587688321147,-0.04330551642351,-3.5614264196845875
-2.43952916386894,-5.740021155615251,-4.261033559010087,-3.995413002192862,-6.789377337936237,-3.7213229464311297,-1.529739861344263,1.3836131298851249,0.2018750970115523,-4.789309236204612,-0.0620973283308572,5.443064400624436,-1.4912455840431391,-4.098493051201162
-3.2599657194436045,-4.26848540830266,-4.06113134251576,-4.069916245979238,-8.592837056751325,-4.764898287562104,-1.1336768298460873,2.7918132142192653,2.781673440608801,-2.417938688297286,2.1298548472610097,6.485080021550472,4.576695300843215,-2.299042484808643
-2.700700882925916,-0.4199198217892562,-1.356850306830523,-2.903215946339317,-6.059919361129667,-3.83381924472954,-1.1077646561121182,5.534978728949798,7.246628483665143,4.724834370477735,7.992366884951748,9.506474674519264,12.026288070824,1.9906028023971756
-0.2855363543928888,3.793618859337888,2.4155222829217493,-1.8317611438637047,-0.7783804806700267,-1.5007601471609178,-1.0723955116284214,7.957149178383639,11.987883845787204,13.8017736953176,15.133489159709894,13.047040722166752,24.101318175456736,7.582399403216461
3.937292601289305,7.282443394082011,5.337857301544798,-1.5105352543596413,3.92986796450134,1.143617371715166,-0.245386526782712,8.52500638213555,15.044089899060332,20.41992530423444,20.17949480634526,15.204425219389275,27.453298003304155,12.326473746411269
8.644275498285221,7.174771703953067,6.270667151487682,-1.7964170608945285,5.591018191899494,3.0988061984397106,1.2474592742345698,7.328930895840493,15.601478950921315,21.802839546460007,21.43431688230629,15.242879929245488,20.825344439586537,14.260189864687089
11.57844236170055,6.351299265315376,5.330916261295803,-2.072257483502953,4.323508277876092,3.963758706294506,4.579612020693589,6.028049487168232,14.556651996689732,18.6897865352348,19.978606545045263,14.009110244615664,16.20977975782325,12.927168355907463
11.069742846727248,6.341485664154474,3.4586275547991328,-1.701895043949885,2.2397220736762677,4.053004891008314,10.037157573238758,6.2829366785965615,13.667101732773393,14.46634031095274,18.35055192224557,13.013812035430508,10.52597050986746,9.83441335532731
7.479200818894228,4.43970328665084,1.647564916648368,-0.4876591881302268,1.278433507108402,4.036505970424301,11.685147711790323,8.15702019004171,14.031037856339935,12.331946736092084,18.125058233749485,13.057899224491528,8.588400472376462,7.436159018224945
3.1262737630876725,2.704264434818864,0.4653732070825791,1.041194588649704,1.633815696228119,4.331568503734836,9.399501300973178,9.97894147525536,15.193001459995768,12.877528869792048,18.589751314070828,13.512951629309017,12.44449790850459,7.249214844804795
0.5543654918219305,1.088497354378288,0.027283275687596,1.820444935810132,2.106788408388073,4.694243469665896,6.062531653015708,9.77610210445113,15.606835239273115,13.988332295825522,17.601739537238835,12.822179303877768,12.795951392764676,8.656655348591983
0.5580836357463905,-3.5727923310070557,0.1644827790495648,1.004949094968964,1.665975273686426,4.3602481161611735,0.2471616679030265,6.968071747242709,14.015728401540525,12.960251636212195,13.725834738141083,9.87684983548204,11.063274557519028,9.528502848388772
1.6992888926933691,-5.26500767316299,0.516970812233283,-1.227441440532278,0.4431644888281347,2.6721663649708702,-2.553324929348209,2.848497115506773,10.55543077348356,8.894696709422865,7.693400602523948,5.201752676280984,9.014082375294036,8.169635818920561
1.7357794271714688,-3.165022617963618,0.5713712043454606,-3.6350662375104825,-0.7319173419837153,-0.2944038295154172,-1.7839456576997887,-0.4653485794712662,6.674678923756856,3.353937185099685,1.9297435449077776,0.8850124183851218,5.124300189121423,4.824945208109569
-0.3292207309763544,-2.6639553521470227,-0.1529723826020728,-4.89340403962707,-1.4740664198405025,-3.634622792416831,-1.8179696221327544,-1.624212338766263,3.999924652881935,-1.0990423764788773,-1.3647548590186176,-0.9080587849886737,1.111637819193119,1.3731975868253503
-3.4007080428455883,1.0904153096528515,-1.737101737638569,-4.82211050477278,-2.260532178584618,-6.161522375484495,-1.312505355465137,-0.8786134816105315,3.1385371046300428,-3.001619181496008,-1.8786848362712936,0.2467032207528605,-3.1547524113541177,-0.4208989030968268
-5.34369545268875,3.897192851068991,-3.6240020837995504,-4.637234931334413,-3.696451789818,-7.171012465157953,-0.5954545230334135,0.3569574640936155,3.4005035088724984,-2.8511272907544427,-1.188273743633106,2.4759877159800947,-5.519651636394798,-0.3892655207219713
-4.898500955564799,1.5471110046975922,-4.875602433421747,-5.785330523106403,-5.545486300337565,-6.814538042175461,-0.1368756263871952,0.6836444891250535,3.5944974703811834,-2.156728101730377,-1.1549963728188537,3.0237203460890143,-5.423732279002289,0.1541024421274848
-2.702953588360428,1.8462137267275336,-4.871721251136616,-8.299707263263539,-6.668507099331103,-5.805488769311904,0.8140277826474958,-0.2892955818116727,3.15212258954722,-1.832075467290383,-2.159732271436283,0.6249246393913053,-3.69064774546305,-0.1686813786703584
-0.5810698248734703,1.1897908627752725,-3.866397556887769,-10.258523377339657,-5.982979628718576,-4.751394959770302,2.0361659532127634,-1.7386878246121764,2.589216113428691,-1.5517716864720343,-2.7477707332449866,-3.218937525947518,0.5128523698767594,-1.55976242825371
0.1090890686517944,-1.8821867522531248,-2.806819637880407,-9.081003836300818,-3.474656738629311,-3.7050605636256666,2.416135020526117,-2.2268784956421257,2.904898901560392,-0.5546922213667127,-1.057333793972516,-5.371420874068766,1.778514103380006,-3.1166738051078724
-0.5068720506724995,-1.351931104194084,-2.4965381776926154,-3.752932147841083,-0.2927668859135242,-2.309489712713823,1.902388330159112,-0.7158803893887713,4.446509725626309,1.1396833675568274,3.1577506939590254,-3.819090184806391,-0.1806115569544512,-3.959968075325394
-1.2588087689280698,-2.104920601304043,-2.902720775600325,3.884091936425442,2.0791582955113856,-0.3741597866883577,2.564968718938887,2.579764662601237,6.266543575562767,2.470278208808767,7.7278412936553265,0.3288836063494562,-1.774987705566191,-4.183971848042873
-1.209183178519436,-5.224220101484019,-3.332784540315627,10.001331885347128,2.7533544807454597,1.6694249953475264,4.264807939936849,6.069918934152532,6.634910301139843,2.289753980695064,9.407570717957745,3.522377368055033,-4.278753421393399,-4.707229696890192
-0.4645949438605035,-4.574248752491949,-3.296297941830047,11.301294416131524,1.7335452914757283,2.893384478177042,4.627233509511508,7.651166559194827,4.39242347983147,0.4803519175536577,6.466201279583984,2.7378222073485423,-5.911067227630058,-6.248759250020653
0.1300242919517424,-4.703559288689604,-3.080519233959368,7.313225186594755,-0.413484302946939,2.5425139840241933,3.9072648910510415,6.140700255383267,0.0294534098354013,-1.949584218742065,0.3947875502354883,-1.82257082740895,-6.220797453959692,-8.485092943323032
-0.1125915123292822,-6.829262918515585,-3.349991891245198,0.7247592036946733,-2.979628119407124,0.7166455754056216,1.7431156970857191,2.259128624901307,-4.506759580176794,-3.851775565912257,-4.9181328776867,-6.7909665105838695,-7.491655716913058,-10.216384428588452
-1.2270754115907447,-5.060411898773335,-4.208845360307247,-4.499853313519355,-5.265606707069142,-1.5296195843817486,-2.430059153154178,-1.7425912120610008,-7.235621369866148,-4.958108675846438,-6.161620291467003,-8.540662545088491,-9.260077782252564,-10.391444735738904
-2.876205716564204,-5.671104240914592,-4.869808328756708,-5.806782260263426,-6.602744621280685,-2.8331114002952558,-4.655845948958603,-3.700320248656833,-7.645742272982877,-5.937693931102294,-3.390371954307684,-6.38830149752574,-10.77059405362815,-9.049055953262354
-4.876935218811473,-8.968557307959857,-4.458332347584188,-3.590038426360347,-6.566652502838696,-2.480705438132855,-4.938990265397504,-3.1487594273629984,-6.976392299037329,-7.55279069463533,-0.1875019967404498,-3.1687710331786807,-12.30142364089398,-7.328806756159739
-7.244804333029608,-8.802852945606647,-3.140120282846188,-0.550902989515901,-5.358478151597181,-0.963841779574036,-5.2969850333619775,-1.5495664841285053,-7.021019007494248,-9.851383568514974,-0.8340629730665525,-2.612427688355556,-13.884233844871233,-6.5518515903027605
-9.685503046655368,-11.515500470225357,-2.218997909319193,0.5210788766262944,-3.921193675838635,0.3299961304757168,-4.855477736441915,-0.9157631287309068,-8.533309310421469,-12.160646721553116,-6.701469113907776,-5.903671738369072,-15.447550670689743,-7.176050967355231
-11.193759008259349,-12.44861422115333,-2.8488572566984054,-1.1500857121013226,-3.424152649423344,0.1262386500378696,-3.6913874106601656,-2.048780200263832,-10.680040322538249,-13.737743570811496,-14.881834995825496,-10.55968017232989,-14.904485213296915,-8.478149086566638
-10.417305766365253,-5.746810565230679,-4.559017225572835,-3.8336476755259374,-4.313823894634867,-1.7169207883467124,-1.8805594385371,-3.9362357572940745,-11.988924959026544,-14.312334877021732,-20.255878623618685,-12.601024070477074,-12.021155160464255,-9.12678847897829
-6.692022192098399,0.1244062567571976,-5.210631226293012,-4.64093923954988,-5.665428622505527,-3.923322493392888,0.8991452878252801,-4.746733624202855,-11.809250482667506,-13.998858006743353,-19.305679186131265,-9.957554328053371,-8.865334461795552,-8.073592274945886
-0.8865733354011418,8.400015707931447,-2.709785636907847,-1.6345124697991702,-5.51496635521668,-4.527112739682188,4.656254303881373,-3.4026646907126032,-10.842964840708206,-12.797469697067449,-12.573878729450508,-4.030017702968184,-4.927319879271677,-5.072041060620474
4.816125003045107,15.28810824329737,2.96254985996424,4.806132484785965,-2.158875649509252,-2.196436061732093,6.705688536349468,-0.3176095819604478,-10.267090288630374,-10.335586250376425,-3.946399469267287,1.807593237005479,-2.2618475845745314,-0.6122359627060305
8.238226202054234,12.971801028056406,9.308387722584246,12.197615685502834,4.411622563775921,2.732052995444469,6.862879310884858,3.164731622970762,-10.396022616053887,-6.227751545085744,2.356304113115549,5.128850617042335,-1.359452882823909,4.440702797410037
8.669854119348699,10.288313293106604,13.011176140591104,17.439017255672066,12.04713725176625,8.275619943724134,7.5136031597730115,5.86798201568797,-10.287518470410271,-0.7634169648584042,4.4999184671554815,6.059018337452741,1.9773581685089392,9.155752029037346
7.2703512544764894,6.437617515705074,12.407496028163395,18.515236264854867,17.483368056592894,11.961906521635278,8.044761414649589,7.372654412138553,-8.721725943202326,4.77789051864871,3.5332107978691587,6.357037176777808,7.347480530373032,12.714559101851206
6.01863577460011,2.292291253201699,8.659379596247756,15.424618751540711,18.34937396844452,12.367706783751249,7.183046053036365,7.823880283148606,-5.571845802732691,8.647488851453064,1.8227173126285257,7.254659131330857,10.25234157706294,14.554121589593445
6.071049607393688,2.3850966462849383,4.695284353458541,9.978734613383557,14.788693020497014,9.95513546862174,5.109005050171193,7.514871837902664,-2.1588246626627656,9.732420260326387,1.1182024074388064,8.321865956293994,11.15595375496743,14.489213176318115
6.937491949554978,1.4440411135086544,2.9017281228722838,4.770111133246953,9.464714716516278,6.605173629688874,2.1148216675754177,6.799826947385748,-0.1757528239243004,8.392335675772632,1.7450230997915206,8.3198864040232,10.77269864826878,12.724230916551909
7.162691350344177,-0.4600790688734891,3.52942504876643,1.8966942754587104,5.809695558117587,4.232436127472745,-2.052122061013049,6.2246614450398345,-0.1841946422291789,6.259713682841983,3.072343272231186,6.883672435845064,8.159390573521828,9.745471014989846
5.809235039729447,-1.7440023580759911,5.010744015513928,2.001521577962591,5.697701669403146,3.552593285300766,-2.856744558786878,6.368660046442633,-1.1266689427534322,5.042029894382026,4.3523482345732125,5.111170549869749,6.8337242996505205,6.217182133335983
3.3128263312718342,-1.6478234366145474,5.651362794677286,4.033887650965774,8.247448508443242,3.887377240481417,0.1140119239983238,7.293278339672704,-1.3267622479930674,5.26722578919894,5.100813697943684,4.415578743842813,6.841748324823383,2.9397677044923016
0.9515973126900414,-0.3524646761658682,5.056723714339185,5.914355300508493,10.678477616682116,4.003095682552786,1.860120648412205,8.18514730063712,-0.0209759244537988,6.062203387269324,4.992687886761379,4.920698174201032,3.848870868373233,0.7302668671810935
-0.4257110249224149,1.008781458789229,4.116605345200102,5.875984547340909,10.573715276416443,3.1828846254137098,3.364039564286214,7.821075548803626,2.0313635254512743,6.187234828468577,3.8041160325460233,5.22664776968242,-1.620656105832626,0.0919003506151394
-1.065270380185039,3.290892199386672,3.8422063990299016,3.7254099509532734,7.773293744262336,1.6896938257069962,3.2850919957218463,5.6699527599494965,3.412664251089889,5.378447622030001,1.7238177505728125,3.9454347311682056,-3.075321655409535,0.8551574722516246
-1.7356051764556506,3.5286982670739624,4.358159197462256,1.0511174417379276,4.40084688566399,0.4097356494769251,0.6609242517032936,2.614702289694208,3.511921813357059,4.694927778466253,-0.2804142978112267,1.4535221714201398,-0.7627020308621574,2.2165511106270817
-2.636964368636015,2.2134630055118776,4.985386868889684,-0.025970325716929,3.029176872162749,0.1206013964195307,0.4565291287823814,0.4335024548073569,3.139186618487772,5.461672694673279,-0.6701704387661778,-0.0930712461772813,5.132065154929911,3.33043260761705
-3.057068037339657,3.1815227773931354,5.117076268395898,1.2303202260973585,4.503262647816529,0.9630612236295466,2.302916371275116,0.3188597695436286,3.667188630247864,7.769672061518975,1.6644445045784655,1.2511988154315148,16.295235341236953,3.9830662719133656
-2.2018410856764783,1.9013458478901664,4.825709291532995,3.224721798171774,7.2030147871978905,2.3740108538970794,2.038914795130508,1.7341519930171323,5.509989917336279,10.012304758197864,6.221148865224093,5.081741094593838,18.94345580236007,4.619882977828762
-0.3217171195591319,-2.301878640706802,4.578881888637831,3.1670259984489952,8.321367242179083,3.382817626181774,0.3753426361208747,2.720504793050072,7.420851625676464,10.03158010521874,10.576675722743644,8.544094022827654,12.556349424574949,5.568531195146292
1.1297017872516495,-4.6181921361296006,4.496710644946102,-0.3878405888685421,6.078133054939535,3.070050445593392,-3.493573133310825,1.460943714392286,7.349804076447445,6.917441349276437,11.54142902744707,8.54529783322937,4.246672019845272,6.223043178321365
0.6176709530820652,-10.022914645474552,4.063989223466972,-5.824556681636928,1.0617658518964035,1.023502998445343,-10.43053066344795,-2.276386876353584,4.1506702809915215,1.8128012752662244,7.203815577615792,4.254509855807374,-9.342145807996715,5.189999926521713
-2.0708607919495083,-14.28490109689946,2.6429996129021536,-9.436803187540429,-4.333194044413439,-2.387159774789737,-14.158976112620206,-7.086461764081559,-1.3683718184167455,-3.064891691025608,-1.6052381004386866,-2.4303606282381622,-15.871707814454522,1.51364421615013
-5.4913571213427845,-9.98804588986059,0.2229661530585431,-8.617758822057588,-7.819600418928834,-6.120717025145488,-14.718391009859284,-11.225155268842718,-6.962491540379762,-6.31932480286342,-11.651018752013195,-8.75554081012579,-14.013501512261564,-4.111675494862887
-7.649590261041839,-6.549376463924598,-2.4061714832904464,-4.53025316373902,-8.867908888532163,-9.013561391281772,-15.141700918721645,-13.978576706301467,-10.549649472560708,-8.435527934748627,-19.31842967092089,-13.36385744302756,-13.924084332774044,-9.455892208300584
-7.588493787314015,-2.1785135789342385,-4.24805759282145,-1.6018837772178625,-8.798596163099003,-10.477584935007414,-14.041240079650091,-15.85351358230468,-11.512402192389986,-11.009542504816666,-22.833233624461013,-16.76739119849872,-12.581768749697243,-12.340893283761616
-6.046897806090312,3.382232269998119,-4.8860254460861725,-3.892567845473821,-9.384933622133024,-10.830376768061244,-13.924586777709417,-17.559691092239742,-10.707690054219173,-14.879890877614878,-23.005991519839377,-19.86141445158873,-12.162480981379954,-12.362729947425288
-4.6513688216014,-0.5465691292912312,-4.75220268510768,-11.357248344658515,-11.252800353850327,-10.937233145202288,-15.111684079091962,-18.93899819079264,-9.398910855621782,-18.953441164686737,-22.031745624003044,-22.31259419334282,-13.957018233408672,-11.129739637147484
-4.4433548943250205,-5.784465385785732,-4.710178921092767,-19.405031138794985,-13.4273667934176,-11.403053135949897,-15.09166887373389,-18.97914488453971,-8.190804433682885,-20.872850203316947,-21.45393930720474,-22.62446903076099,-13.15694199274022,-10.7273905950481
-5.106477312587698,-8.598753075910034,-5.38355818431741,-22.383510376747576,-14.308085440141742,-11.988581291619385,-14.428701708167225,-16.898852445455482,-6.845763663676425,-18.93419246978398,-20.99933751937122,-19.77607714149983,-10.475358437308476,-11.811112683072585
-5.536791493685486,-12.709161885262812,-6.77660182129531,-18.13027019167798,-13.122432624852031,-11.795177154990464,-12.664010481145434,-13.181944357209254,-4.925605106514278,-13.520537321869424,-19.153148436027124,-14.645346152463311,-9.436725593890792,-13.102711710861426
-5.091844188679678,-10.817262412883425,-8.381613007784633,-9.728384779221305,-10.581672073670866,-10.107090663062358,-9.381961611645176,-9.474121321800888,-2.487100660629596,-6.849207406505618,-14.851585565334336,-9.67948805568304,-9.520006822816802,-12.72444438935474
-4.230405443754748,-5.512638341462443,-9.566827406797469,-3.006037849944386,-8.244238491091,-7.164173073822724,-5.852870682440632,-7.375057045426701,-0.1629455096938876,-1.4261261007684602,-8.789009590389051,-7.071300462618373,-8.80192481534273,-10.05778369286839
-3.9138016890535177,-2.999850094989846,-9.918411484476133,-1.950057765484514,-7.231132753149875,-4.1495208018121446,-1.86760147849148,-7.230327333544706,1.358429630497367,1.3695056149800724,-3.2123391835364625,-7.132827028524419,-7.809592635058115,-6.3681677803553445
-4.435006677967232,-0.5004271021943216,-9.358813723968115,-5.851079129392276,-7.424762751381312,-2.357260099130224,0.1424459751083959,-8.017343642894193,1.894514481542272,1.6020410095578796,-0.3230706407489698,-8.275321691635718,-5.542068127074123,-3.677497162439981
-4.962486968736839,1.6454453426486395,-8.071867204563125,-10.341975562451209,-7.7622039962959875,-2.242298601842922,-0.2912220792350947,-8.368239208002766,1.8601031909682115,0.243177760438634,-0.5215367391076855,-8.464137777435376,-1.6330529509066656,-3.030064707856585
-4.370825908664291,1.6663107386646432,-6.36871345466179,-11.15657766842623,-7.251155635028641,-3.154628132185967,-0.4725480673623932,-7.728440337636245,1.8666392235946525,-1.4102231057018333,-1.902298720971098,-6.792958407603243,1.5262055372260834,-3.77038140183377
-2.5555858430238056,2.9085908974835912,-4.594558982679705,-7.349624505069663,-5.780026262244858,-3.917377361182288,-1.0641800884565369,-6.601379064929817,2.2362753848806287,-2.072094326155781,-1.5240114290714626,-3.9344831549983046,4.155237401783616,-4.372780740211157
-0.8050188208693454,5.920847831617642,-3.076756222949288,-1.5010406162507404,-4.081734102089678,-3.658603996691898,-0.5109763273906119,-5.767376199497168,2.843942825625983,-0.9075843789023974,2.3623544009164457,-1.3206749509965423,5.775895839579291,-3.8833054702027434
-0.6487829338063502,6.450860779109784,-2.05645840671766,2.8496300522084064,-2.9958495846859883,-2.188606568367604,1.7045343648454072,-5.345197806383543,3.3514612493385187,1.807817025467926,8.774377621483064,0.112234431637332,5.809711602789603,-2.5810784213562727
-2.166854598128733,6.702644971448534,-1.5839859494471145,4.083010032683007,-2.732737207028679,0.2148640723725847,3.674838917978901,-4.651444696314749,3.551873176227409,4.479329030726003,14.430676849540902,0.628525426185675,5.641438194669988,-1.3713674053837877
-3.459399014925367,8.33983449739048,-1.450732772820667,3.320405393193008,-2.7418618419096905,3.161546241282916,5.904826584284352,-2.974306382313749,3.4963640383966315,5.156522502351025,16.011732443819895,1.4156163575370568,4.959555913783174,-0.6927858000856602
-2.0378649982619645,7.495170243158952,-1.2619851116616072,2.8582258657179893,-2.2115754366632965,6.213756835196408,7.427915549534936,-0.4559753880895592,3.340966183288831,3.239670695721723,12.640423853480282,3.598981412948774,3.885791734941213,-0.10113127014157
2.9184375709336967,7.4891332440757745,-0.6634131815496334,3.93905423520693,-0.729257572864519,8.750476992084323,7.92086630129089,1.8413382515781669,3.138162958814421,0.3369762587514016,6.6653814323660185,7.254754872169755,2.617144981987542,1.1087547462925311
9.467496778804012,9.155776100722536,0.413831111835643,5.876430570734398,1.3976096839005834,10.041505072433369,7.859124255256738,2.820448230336625,2.823405445887756,-0.891661369743229,2.051104375442371,11.12838782528613,1.5348293578919157,2.9874672300164544
14.107217387891566,7.808733600212561,1.668706829522451,7.04113352761918,3.308139476433948,9.656116026121715,6.859144744132995,2.379184592180501,2.395726014430996,0.8745062493383786,1.5354110249093615,13.334769633211414,0.8102821056029798,4.744945130136487
14.385959340459326,7.290010198220211,2.57641731199538,6.488248119099795,4.049740479216233,7.82356459019088,6.499073726803773,1.5939507041022916,2.0462410693331448,4.25437863626071,4.715461622963733,12.629855587139822,1.4639748327148738,5.512461037537089
10.718925268781945,7.790623567939984,2.6703268284776867,4.660562454265848,3.0666917634546067,5.311442959927064,6.841209269631984,1.8302211793759868,2.0359002049933217,6.323463762696322,8.520294685273688,9.331685089201228,3.814804696074893,5.23874218845596
5.870124958692051,5.714764120379553,1.798646534859099,2.758612771345664,0.5461111870309221,2.896088082015101,6.751751172861013,3.5666107742625783,2.4262066869826047,5.320429878107561,9.669830281430496,5.1264425211883005,4.936066720630368,4.743815527091167
2.6296062428829217,5.070469389733259,0.2453896620563203,1.680116234990841,-2.508864524369587,0.9498205961167514,6.574924748713755,6.017906431112857,2.978506656848824,2.286019936172229,7.197475023462067,1.861636752517528,5.002757055861969,4.845595937436279
1.7774200363759771,4.608075490131425,-1.322140006721927,1.588699437975411,-4.6422061423838805,-0.4956926579934428,6.414212544077214,7.907493906248362,3.3895014306040565,0.0079653670337123,3.112058362386552,0.3204466283419656,5.089151669937185,5.482722603858642
2.034987170252803,1.8086302626933852,-2.0895052213397456,2.239099269826113,-4.7592792797850425,-1.423647814682095,6.161157035992159,8.650985493790666,3.648713755434107,0.3298856852511189,0.7604503863510903,0.0145055800662952,4.598672947435396,5.787129200856375
1.7764392557098514,0.2814116072130512,-1.4856796228052571,3.370702475831294,-2.979668871668116,-1.7219272508210004,6.578494250863996,8.8159914287656,4.121379911179517,2.5008420296756526,2.2314168728174213,0.0825120495975753,5.463435449351952,5.0486688445134025
0.6966393054165287,-1.738073505665356,0.4227799842861994,4.667716699171304,-0.7772847060073556,-1.4094921726355736,7.72776245557507,9.430904415517272,5.211404877738856,4.129757142711327,6.83110515735336,0.3221004633212789,7.851703888988185,3.547995262415806
-0.1078380110611121,-3.729220948802497,2.8149563043812407,5.573540591553794,0.03231052014387,-0.8178152013975915,8.839632289128854,10.855946580292084,6.901485964373967,3.657363176572265,11.754236235316814,1.3048564222966093,9.015172106457287,2.365157536193504
0.5208802109094641,-1.89726503188496,4.4957340623573145,5.530681437845782,-1.0922815196596751,-0.3628914846670454,10.079150818366964,12.369435110325298,8.63263335739311,1.8192482027027663,14.307576131678072,3.527595207169675,9.281890185053603,2.36216500500295
2.562181914262972,0.0748454588163316,4.646616716730279,4.602630271321335,-2.584159338973418,-0.0780912163608213,11.337151673281978,12.902541630251989,9.673048877221325,0.7475490540397622,13.846562852106707,6.586329922610691,9.483934741725175,3.391852156917228
4.882261199819251,2.423467167374318,3.427944595680163,3.7220330518184497,-1.7682812263357484,0.5302440950478484,12.48338273082144,12.184607430588953,9.654311270090757,1.8057150940365432,11.918065555751056,9.310992050629055,9.130243690550786,4.501086307112509
6.325769504338091,5.332302568214542,1.8850220371959845,4.003223794851255,2.793411884687,2.0191070428600426,12.484276164821326,11.11638462880299,8.797343208390402,4.407073467070283,10.665612488100344,10.735029707131968,8.631889554304088,4.843215923357821
6.572568380442075,4.292854967808758,1.1245956127718912,5.584322354510729,9.560618944040217,4.324806220648771,11.136103534327264,10.93954562537334,7.653341847478963,6.84869226404636,10.974313737086998,10.87450589076289,7.999799469376573,4.362106241137923
5.989580940253145,2.9378977720105963,1.4102131875968311,7.175843927554322,14.669443402009406,6.557731044567113,9.597025898526178,11.968957200888564,6.627121764639199,8.037947238733906,11.905056860367893,10.522090936083831,6.266745932532553,3.678201512931917
4.940782701039417,2.69800392541388,2.00593432601519,6.976567829508493,14.814934130913157,7.547472508957281,7.573910718220667,13.11354566572897,5.702046982464928,8.206699807396937,11.711014916725688,10.33657288860928,3.432216608279301,3.4521677115129386
3.519932696393898,1.2175591942014783,1.972160236807152,4.291792785471731,10.06707859061973,6.685890253230994,4.856729251395777,12.683010064627023,4.554526769032304,8.02148452018313,9.37066077374682,10.213448836172986,1.827580844652874,3.8864026242746057
1.954100509553367,2.152089633779509,1.1828145223737965,0.3977260880392315,4.088175997502535,4.337184942746049,1.5724451017797718,9.794655667996556,2.902682895641842,7.35931236803048,5.3291668878450125,9.53245770354463,1.421485360480547,4.696516827155733
0.9708917299928892,4.1326879423094685,0.5306528521287355,-2.2154405515116906,1.334180376624694,1.514566555786356,-2.756555616496605,5.180514478508556,0.7912786358572035,5.358496515854881,1.052913710336103,7.896740542408285,1.4544864912819562,5.401245058837798
1.4213821929756951,4.111570254192997,1.0335993716732403,-1.664315446376719,3.501677864257708,-0.808934626744815,-8.17946951718556,0.7586082591632533,-1.358829810016907,1.815409016647628,-1.966120190920428,5.53229561656762,2.48500619674334,5.653408622299509
3.398273283635479,4.540838275607331,2.693395659904901,1.9183444204174869,8.260714049017999,-2.1441080619018003,-10.383892883382222,-1.6353585549793053,-2.918033888826756,-1.704718829717681,-2.926298697275243,3.0258158456499764,2.7056198566856184,5.471173485241081
5.814056578263866,3.503406802597409,4.306740913195849,6.468667046926488,11.372680193019178,-2.430894402847219,-9.082244850925871,-1.38796865800861,-3.333895967880249,-2.601546295096909,-1.893870072275071,0.8611803588031854,2.034128021513446,5.272360679534852
7.026172609467455,0.6403010306699304,4.520404837068384,9.40392823122238,10.328990794935835,-1.7564166255863292,-7.948503786782568,0.6097600843693982,-2.440765196510391,0.5070485701237182,0.3135354084554649,-0.6691903204945078,1.6146813000292422,5.585447567173645
6.029292702227817,-1.1411795423321531,3.1231691764788323,9.227450711778786,6.349308128855434,-0.2535823984328686,-5.988439382725638,2.603270909251542,-0.6712020708729085,6.105762341027671,2.367258886259748,-1.2174713718678731,1.0364470742021872,6.5094672577420525
3.1622567542571893,-2.935781751422836,1.260712382788853,6.238143888427587,3.0997398184087714,1.7505155855999457,-4.801739060952855,3.0825193269018065,1.019016346836768,10.50629430084891,2.9207815921467564,-0.3521589927629414,1.2918441703344168,7.389434801513524
-0.2180059671560705,-3.5916287220719854,0.3368611280215248,2.070980748774222,3.409468990860596,3.644851600920127,-5.004205883640157,1.737192632422328,1.6256013959414588,10.631333474078575,1.3903226626315686,1.974639191514964,2.5661347861912,7.21483301350397
-2.69114859883166,-3.1868813236727607,0.7203360465689528,-1.4142697255126784,6.907940710720759,4.773764941001531,-3.0416484710791702,-0.2809559177064784,0.776005262992328,6.507161812172704,-1.442728468677764,4.946318764852091,3.377720744461144,5.603286102391483
-3.5469040119725683,-3.699324875626587,1.551041032850982,-3.151089927898141,10.489958103841944,4.859595788365997,0.6972043200262354,-1.0557892151795158,-0.9002360308106354,1.2473914623744022,-3.6933161337003,7.118333446870309,3.9394688805056473,3.4380165344104867
-2.9690823672393094,-4.195018792707271,1.746845954484634,-3.3076045472265925,10.93974961299319,4.163477578404606,1.7982175987560378,0.6890263847486082,-2.1582456994674466,-1.5063169365741338,-3.6286096096395006,7.398809206790652,3.0411703935165058,2.279894920008555
-1.795886829800029,-6.391823314567536,1.0635903051392468,-3.0309814505067187,7.328115108476613,3.1561774426027824,0.5547935002335802,4.355872259048894,-2.140725598534708,-0.5030375675983159,-1.0976624483053818,5.863989873218635,0.2722466305276348,2.815958913609755
-1.1434531951572389,-9.567215532430428,0.1220548492851172,-3.641203150083904,1.3401896001326676,2.015350631814385,-1.505294072722552,7.47507648308941,-1.1991438625780582,2.277883439377544,2.06848744447241,3.492079057289466,-1.1879381897249608,3.789085414967001
-1.9390788978914275,-11.758925386260936,-0.4522359674355023,-5.663405298866683,-4.296472929912394,0.5175058064335083,-5.314537839898385,7.290102933560306,-0.7140553767836977,3.461387740453109,3.185657149487969,1.0166283928363704,-1.5762505355817564,2.7099798556682444
-4.354292756764222,-13.066555273608683,-0.6703169940253346,-8.297216806512255,-7.653275705792808,-1.498623849682339,-6.259810474657907,2.9488114981023514,-1.912353645600572,1.1391805542663995,0.6234481593245924,-1.8321493772572133,-2.9104347785207847,-1.945857310426231
-7.43687171293355,-10.477254482511004,-0.8874158531791156,-9.83303155542528,-8.329263002792032,-3.58572820262698,-3.955710467840635,-3.4861740604718925,-4.668766033560166,-3.619930189854056,-4.957482005279292,-5.729100356010406,-4.659599544311353,-8.9547028463097
-9.443620202035817,-5.843223512960281,-1.064416351283132,-8.909433345523892,-7.019931808741326,-4.744772946657996,-1.442248266217674,-8.304246625297052,-7.436169838348135,-7.744989541801715,-10.995946441641657,-10.36144593130584,-8.573480594663756,-14.787432622624628
-8.962367227902593,-1.2238737741912848,-0.626448659719852,-5.69998257155442,-4.79005746064918,-4.194474349132765,2.439644106559156,-8.915112390953212,-8.485251321228002,-8.700513066619436,-14.745495894286904,-13.906453161287082,-15.106744210481336,-16.18464798684479
-6.101994187710853,2.7858020664515197,0.7977551666343832,-1.9381541831703613,-2.678837650141423,-2.169531544824688,4.013245479035114,-5.890791643262759,-7.394178973407318,-6.48690049019684,-15.026340921793652,-14.312595600361067,-16.635812126467325,-12.744334905064555
-2.673495526018158,2.420301949687656,2.6252006295383703,0.4213361293359519,-1.522344227275064,0.0924843682760894,2.725449999767509,-2.489324345870308,-5.43223502729756,-3.54818638451892,-12.782140327962615,-11.32295572168638,-13.102081063491427,-7.232352814182176
-0.9677183024409935,0.8001451894014182,3.56447086976777,0.793393180609911,-1.6514027506213411,1.289329286291431,0.7639803830908691,-1.986738744901959,-4.473532854268422,-2.753235160199667,-10.179772612747518,-7.086465152459713,-9.001012251243198,-3.2983214612019136
-1.9910002102053757,-0.0588878924871996,2.775235108098624,0.2913676684120396,-2.5869269841561806,1.1131309781386207,-2.9403010278638457,-5.071302712187653,-5.422603676464227,-5.122258498270786,-9.050509383990214,-4.414829631585944,-2.6426128975602903,-2.6060320166913424
-4.660999517926742,-2.107263786742022,0.7637700542432888,0.4025242133426472,-3.2281062198159605,0.4525686458767315,-4.328311718882214,-9.491920093079006,-7.5366118412255645,-9.099212723830098,-9.815916851130408,-4.194442854330484,-0.6924657079467297,-3.875301888577999
-6.736037668448478,-2.5164995202167946,-0.990075630904597,1.30160409406529,-2.6694338526384342,0.5358241030177586,-3.0032803791222418,-12.130914588371944,-9.146151012986987,-11.865939700196847,-11.50916232575074,-4.557688910029878,-4.132149929988678,-4.5155756568008325
-6.703442426601045,-2.544293776070189,-1.3792623451623385,1.5816689741715528,-1.0306813217766848,1.787550366550864,-1.840973268274457,-11.576048311030352,-9.024688818937353,-11.539721017381392,-12.63453650280607,-2.8245604813364515,-5.626578978775044,-3.158266069298349
-4.941520151837132,-5.085293698798341,-0.6588526342629848,-0.1851590010246777,0.5290890575036951,3.418076227133236,0.1792423659146089,-8.99091769379446,-7.219062003574168,-8.455523567481801,-12.117950372058758,1.571971088582826,-6.774093974881008,-0.724393190009919
-3.127102822759328,-5.115702365849506,-0.0865506751281994,-3.578986330780488,0.7443623300622186,4.069993519029448,0.5979149290095993,-6.748731766001075,-4.800296936111848,-4.609937646287417,-9.766630503008734,6.087720807222063,-6.919289959177181,0.7590757975768101
-2.5232187543648745,-3.3205077053771888,-0.5872990171481032,-6.1576666773246735,-0.6743044512876786,2.9170275913347616,-1.0450880612810116,-6.259215957699681,-2.9558553375437064,-1.932259220395656,-6.159194198608496,7.125848305055127,-4.892225746735045,0.2153531813000171
-2.8390694996407184,-2.6608819283402525,-1.796700505873428,-5.3932853325097625,-2.774654369663928,0.2935345872466008,-1.47171562549267,-6.918128669290736,-2.2186435680263763,-0.9366385622689356,-2.2410364770730986,3.315046102343972,-3.8736265583311993,-1.5693022410647846
-2.7512795336752376,1.1146134204712144,-2.44763701919424,-1.0219178556718695,-4.1157334035973,-2.5743556429811427,-1.2504878560014854,-6.905672386546371,-2.2800086100707464,-0.769523240564812,1.0918680486621852,-3.051092782968992,-3.413161575694009,-2.858144053321201
-1.494726678733841,3.16609890447139,-1.7160450758191992,4.407729627982292,-3.834826485132915,-4.409463602135098,-0.9898519219155676,-4.92524237885052,-2.3146644725952505,-0.3182092599015327,3.2875223215306875,-7.772624748789759,-2.255348942234798,-2.600610501783024
0.1487358123576037,2.1594111822624438,-0.178922546467632,7.3880423900742755,-2.157188061791331,-4.624391481628294,-0.1775830020594809,-1.3358710354061714,-1.5228569965006464,0.7966859846809449,4.263532099168614,-8.120278690092178,-0.8532464187555276,-1.218888488838651
0.528441669622687,3.503897803427628,0.6120815777621473,6.140121554907957,-0.0828794708895088,-3.523552730799743,-1.0102753253964154,2.159881575039158,0.3618054041541221,2.155604626913398,4.34139235519099,-4.854426195702651,0.229114348207724,-0.0163384544340488
-1.147759016509987,2.763498013388595,-0.3807335927160693,1.8859357614457368,1.334992095400338,-1.9807571918401583,-3.618853556844564,3.865245520278695,2.82665319753783,3.177366991154564,4.039086492686714,-1.2460370363235995,1.0484564762750186,0.0269266097165541
-3.73596742982982,2.6100532056088293,-2.500445541284364,-2.221353840444401,1.5601428823365282,-0.8803685654338054,-4.502197089405268,3.338903362503608,4.815389056748636,3.645132775765319,3.866271167465434,-0.1493025814696302,1.8183301929680324,-1.0075111412457218
-4.846006450412581,5.566221407168864,-3.693775691019219,-3.4659969574252543,0.7437779654529635,-0.6260401588155986,-3.967700488814397,1.6305249562561883,5.436487638232023,3.65419243694258,4.2166660451238585,-1.7555304717575382,2.4138832309483766,-2.1447530395497694
-2.7647820549297606,6.651426193820304,-2.1775179086736927,-1.3290647334713697,-0.4416723015918933,-0.9399647660594824,-1.8965760257158093,0.4236173145998521,4.69086955865945,3.2516706070804133,5.27265264337737,-3.852392171473781,3.568737310905037,-2.2923176781617087
2.054666440997579,8.955617594665824,1.8784140182245963,2.5020953377601955,-1.1793702694232664,-1.0774294009874268,2.524952130273672,0.7819006677717155,3.552586732463197,2.3048037320033927,6.791146301698234,-4.111802374325286,5.349758227614679,-1.0527637387412057
7.210486432945061,10.367917098056475,6.124024139269494,5.544480590277594,-0.9760110247877094,-0.3871607539013197,4.540201645033767,2.409009365224996,3.171242380495208,0.7345126085708245,7.895400545808556,-2.22700205202608,5.339368247042556,0.9124369386452428
10.063302407183636,8.197765224939015,7.600719918182683,6.129490679080568,-0.0010304074117399,1.1232430740215875,4.1428910751667845,3.913781503196482,3.801065942138123,-1.2371148120877749,7.2798107295944305,-0.0240017482445864,3.5270686695257907,2.257960398083
9.532255946900897,6.538740102211589,4.980229287655774,4.183991936230008,0.9848397753877762,2.668368793009691,2.71889723708031,3.857125474070529,4.466334987754884,-3.1545015431903494,4.053712361350698,0.4083401169896206,1.1821355126627675,1.9767851962544896
6.620515995138703,3.2424951838768497,-0.2769005332616672,0.9646216594281612,1.161436162601149,3.1867935760530344,-0.8906475693095643,1.820111835283953,3.7995245061370175,-4.613459461677564,-1.241310209322009,-1.2508225891661056,-2.2463944300772813,0.3875252027059517
3.4231715280118777,0.3300480612241446,-4.831102756345743,-1.818717554284184,0.2668004403437294,2.111289284421275,-3.224452700653878,-1.2632242144285044,1.368260484583189,-5.41622992519865,-6.427516700614525,-3.2556986450044434,-3.0809280902272307,-0.8753231742926033
1.5269103699403743,-0.66579288537824,-5.853667936156413,-2.911290815993027,-1.239362451899865,-0.225442027498218,-4.1984070400979485,-3.737433376974295,-1.7569304643377208,-5.480959920004757,-8.876208929058478,-3.4704038448152943,-0.9013100128522844,-0.1899360100982008
1.0353641133289455,-3.084855734288768,-3.119746303583028,-2.084561064385376,-2.627744475420272,-2.882822552909019,-4.303455964576579,-4.369711439213148,-3.801542369876167,-4.754757300712527,-7.439845780631373,-1.4171408101827296,0.7611526436802516,2.379159481737787
0.8364327218005698,-4.757630679271214,0.8199711906484524,-0.2215016576892949,-3.5248464807171445,-5.007816671267527,-2.62376293906928,-3.188891921195712,-3.774069178744007,-3.364062611139495,-3.5579417861316216,1.243900304898517,2.78969204863129,4.711891533041772
-0.2435649220435394,-5.92981140544198,2.5795266937519443,1.1134083866698106,-4.091913795032163,-6.303130033982633,-2.084329524804518,-1.4182636697187831,-2.277962428257553,-1.8308189766133225,-0.3826156790915291,2.256875167778105,3.215776017088193,4.264187841392477
-2.3564558388039814,-6.315927017402766,0.5254615984726243,0.5152520067968496,-4.62119735291769,-6.930781266385615,-2.5978553493315304,-0.5486447980368894,-0.9001660348509688,-0.9338887912563792,-0.3713611680834603,0.8816697602628594,1.368481157196276,0.4426920219636301
-4.442817902646077,-4.9878564538943895,-4.013957238906627,-2.357073302271502,-5.0578149181056204,-7.100693862615508,-4.7026871239491,-1.2287682279214067,-0.7537019512639773,-1.107061565113746,-3.210136048785841,-1.4004595973919225,0.4161501806050858,-4.538881415995817
-5.0575544891095845,-3.7263232636057335,-7.880363343023951,-6.360246265102262,-5.0380728496424965,-6.845815477899372,-9.183470428059437,-2.7936557619151188,-1.5200703609440254,-1.860404268302688,-5.839616019206908,-2.219522614507362,-0.2097524100666755,-7.370987945714276
-3.5739549099853605,-2.834369828658001,-8.624713067611694,-9.341870870008762,-4.427584841711749,-6.167907714499805,-9.93112740502471,-3.789406657369732,-1.836062513791262,-1.8996331105981523,-4.741307899885257,-0.4193775187640938,-0.3000073858885476,-6.519779478449969
-0.8373109103576795,-4.173969130604148,-6.350772164101912,-9.385839463450113,-3.713489250964152,-5.266917460716677,-6.911468018247546,-3.105427084737947,-0.6185608116618866,-0.069831502707494,1.1930208364236208,2.9835428954090446,0.7012695043361392,-3.5768458929342515
1.2888545842196208,-6.143493215070895,-3.360200577031698,-6.083584855892852,-3.683793969414758,-4.486013611068643,-2.7224925511709333,-0.8590131788564221,1.8958061671720048,3.561541962258993,9.434824331408464,5.748975006466452,1.4916692613179492,-1.7342097309479243
1.2484311310174403,-7.31855198900748,-1.9932618749105016,-0.9215347253482165,-4.5907780780171805,-3.9810690361785888,4.066823565664513,1.6439096121996355,4.29962050099811,7.444225129730782,15.291726237366504,6.283969090089336,2.2867546753268013,-2.774634893347404
-0.928860385840089,-7.174440246246694,-2.596644965462396,3.5975880951045696,-5.630845478265513,-3.4944544208676973,6.852842805175683,2.8543583518567246,5.1765702604060095,9.472209518060772,15.137340514613534,4.771255203823763,2.964497551817122,-5.419249458496132
-3.390837761745253,-1.5622116638900525,-3.357137426644414,5.5770679574305895,-5.371724586549071,-2.534913918400221,5.044225435928706,2.1421626593634078,4.256571645400236,8.48262072974562,9.103930729234072,2.771833949538397,3.2952182798330028,-6.566330541840387
-3.600164387707377,5.846206139343478,-2.033371205398698,4.970276807578795,-2.867610907488846,-0.826726380736325,4.745274223119517,0.3268298801211813,2.619013635533598,5.18406056299262,1.2268298219570823,1.919363388544788,3.258908470420616,-4.174730413017024
-0.1710667219686605,13.473665062159473,2.019121277942027,3.526925052643385,1.4801026139815932,1.412845674923901,4.4590057470747295,-0.8173372446927267,1.8307371800344256,1.757477707103856,-3.205411740882574,2.8883291926273884,2.6981730445992778,0.9550145784728912
5.906581227766448,18.86631581044424,7.252437186686773,3.4306928490362765,6.064823482518602,3.6434994455727328,5.07762475864213,0.2322919173292241,2.7384128228816387,0.3678422699347656,-1.3034057479758552,5.2435646664639854,2.15553073410812,6.044859852287463
11.673712366294357,14.93277532089378,11.117131212685823,5.589306921644408,9.092653775902027,5.433070884079012,7.525680653559,3.630871565731635,4.836916710107467,1.6581552428144448,5.385880978666432,7.898216067272028,1.5808738459822511,8.791075290915309
14.108558002797244,8.503825250598979,11.895922317499403,8.84713481526166,9.64709175528323,6.700100625579015,8.053130335603957,7.903161228324983,6.635072783056632,4.330662896305057,11.979801985168365,9.628052466958104,1.81141212640424,8.982223609439792
12.20466245934202,1.4447891111894018,9.701503632064494,10.756215195150675,8.039994017757802,7.534707876179098,6.982889416844679,10.759721461167556,6.697621834878758,6.124417913686699,13.7263826529934,9.43839505994107,3.0498067953514867,7.966635293877337
7.632775825340209,-4.953730933490919,6.064981588541327,9.386891415807996,5.358176537234373,7.834756070761486,5.930805389491783,10.507319021293693,4.609531994616843,5.460826375261698,9.287640051174217,6.898907556160724,3.7267387317916136,6.9010630961083255
3.432676494898841,-3.066724956101459,2.7082424298085392,4.837887214685732,2.710038715639623,7.224340619265391,4.237128618333193,7.139118249254109,1.232950078293893,2.537960601510745,1.4533373504464606,2.437029156275786,4.028989452154261,5.742839304204111
1.7559451602937122,0.0219321679065782,0.542114229874219,-0.7080599890067623,0.7379723539465441,5.436482149626457,2.399219527307822,2.363474287495534,-1.8544654019655349,-0.909559314880486,-5.096659813084331,-2.694015071824955,3.572134058947468,3.859758071644281
2.4812715120654216,1.4546201655014848,-0.4924652447574615,-4.439088312899148,-0.4071722493265808,2.8135292720310687,0.5604749988330477,-1.4569133199377573,-3.32527678496076,-2.9401762051640565,-7.127974995542071,-6.965471137005688,1.9918897246598777,1.297070013022125
3.780778415175941,4.344822829820226,-0.8770077086065415,-4.769511844413012,-0.8079056565766836,0.3576805507200054,-0.171161565675445,-2.7255237387390348,-2.850006738356146,-2.7750318338990776,-4.756614692539495,-9.3643766292733,1.4210643621081849,-0.8422191020143992
4.020806937157917,4.470164175307532,-0.8647214176331026,-2.2107224060601784,-0.531842038280804,-0.8608587679157713,0.5094142156816419,-1.4387759043889474,-1.1903642873931144,-1.1976146475289906,-0.7317368441600953,-9.832810401384185,1.7720988243741769,-1.3117449433568011
3.2361518843103907,3.698522451456818,-0.2793480522869758,1.289825964869581,0.428526945951714,-0.4875625186482741,1.562307810738678,1.050571319124146,0.3723586021514142,0.2182535452347132,1.9755786815387903,-9.020883711712756,1.8468296455891,0.101951406715429
2.875980936513669,5.927275670570164,1.117950571595557,3.856472429999079,2.0255948874499747,0.8466631679438907,3.372127670267449,3.0235219516477567,0.8768371552158234,0.3572846763597042,2.2171635209759417,-7.633027310987054,2.053987935690961,2.363487963956982
4.16354886560897,5.940413009959071,3.0646497188419435,4.776715065542882,3.972886081173092,2.037726616990353,3.181498705487981,3.3784348482773785,0.2384621603576509,-0.6896489617289543,0.9199195297642468,-5.981770245313934,1.636028990754267,4.052731453625588
6.684145908141119,3.0547332464482944,4.608472291501602,4.438668853543058,5.70555594438722,2.346026556268665,0.6480546649433869,2.0230543263405067,-0.8309905111816711,-1.8811926194007016,-0.2384335323648869,-4.085775406416385,0.4076957608731856,4.374877982450224
8.533600730855401,1.1278129608446028,4.59086558990882,3.4634900669393733,6.613786414281497,1.8250652856035143,-2.202042291257363,-0.3735274198024534,-1.4528039716849008,-2.18219817764898,-0.3441402501738899,-2.071527608717997,0.3827607517394541,3.4575314680392406
7.846443553899226,-3.434225755150909,2.506692996672665,2.019620707648807,6.454679407940132,1.0469462294568377,-6.111899930065387,-2.9121991475834896,-1.2720316747094549,-1.4098056466890565,0.2700343593103849,-0.3600934681355561,1.4689783790814748,1.9583577696892345
4.271335170160096,-6.613568724586752,-0.9693686557503156,-0.0454570722746137,5.619543318712013,0.5114988165316028,-7.671286382839926,-4.899186072468305,-0.6697150051445107,-0.29683308022285,0.6862150604635104,0.5973973502846697,2.774630068381937,0.5855576106130762
-0.8607929097822886,-4.724659316190463,-4.30634439652831,-2.548795954159353,4.947062123486219,0.3318462996516622,-6.399933633756562,-6.030899891409703,-0.336605571794454,0.2409419514154116,0.3672123310616797,0.7593536340952376,4.712134673446712,-0.1102916426709583
-5.621365379124777,-3.7495958366611153,-6.10442377318893,-4.648025675707391,5.12490517240424,0.3736002176111235,-4.95411542724491,-6.369705879026746,-0.5911027342090627,-0.0262491536700864,-0.4472279066682993,0.6208494311614281,5.383077685284508,0.1716338420025138
-8.69020663344967,-1.4178658318230104,-5.971213615908392,-5.347388037128891,6.131536574423258,0.5244149835527772,-2.4101433616333368,-6.198725816893546,-1.0615281619704715,-0.4306195117045206,-1.084923209919932,0.8465731435415229,4.5726882369007305,1.3115786714609392
-9.706630709183646,1.1243992198844115,-4.602520149075108,-4.411671053248934,7.217019016279941,0.7460798992580671,-1.1228338497302397,-5.82738794735014,-1.0484890638646007,-0.0769624595913818,-1.0347857327344163,1.7302385871219066,3.3130874190179616,2.7064779610682663
-8.84022485265661,0.5405643275335936,-3.079012646065351,-2.733685993896671,7.472374827724106,0.9460592301262948,-1.531379494476935,-5.421788532263204,-0.2573424642076531,1.2103543634214624,-0.2487397094625052,2.995256899289071,1.0740411542167767,3.618121123365732
-6.392777006221184,1.0871098140200193,-2.03869803896896,-1.6536477117130275,6.499531865236488,0.9571435653094688,-1.1339053445131708,-4.944676556764662,0.7958496732087177,2.5901156857632444,0.9601647131698954,4.120944573786286,-0.1384014956730647,3.7790217436179887
-2.9364133663804424,1.871811875274454,-1.3932176483624303,-1.7750811622118157,4.614170788941351,0.7207901902464755,-0.5419663860266422,-4.243463876476486,1.154073844181756,2.91675945228382,2.1693065271304306,4.854156556074642,-0.1402914105772518,3.633616493259357
0.3796017224210644,1.4268744446533652,-0.6785703102328782,-2.413979951289921,2.486315524623951,0.4335319451901185,0.0537347857130723,-3.2196040892712894,0.3057873146445651,1.843962528656867,3.015872544999084,5.379555470200447,-0.9197161629316648,3.821543491328345
2.081153772058485,0.6842272241106038,0.4191314628282576,-2.28967232502335,0.6494507758392594,0.4034153963689633,0.9669409594227818,-1.9461963997196816,-1.2214515466832123,0.259095683389944,3.2811110625441167,5.977865347904011,-2.037622062397938,4.330965297311721
1.295846714912955,-1.0120266961018252,1.834810144816835,-0.8621670785339752,-0.6783129847069596,0.7072404708302003,1.3235479502283185,-0.6490980767232735,-2.203905959861977,-0.4318119612204647,2.956051217112826,6.538040371211896,-4.250491754165861,4.240934461489349
-1.4370139819695602,-3.574748638784573,3.2312630355567364,0.9698459252551004,-1.4852075982014377,0.998289233405103,1.1308522080635306,0.4109943813096848,-1.8284341104065331,0.4218843374153458,2.2143422650320232,6.446143632037995,-7.935449287123018,2.4652074554540064
-4.403371437335352,-6.281514079589496,4.144935875263464,1.528528408285812,-1.9323916407616613,0.6748470536357338,0.1496506928925778,1.0447423328164192,-0.616697484602625,1.9961573938337975,1.1656381352257164,4.995203808036692,-11.334914062657754,-1.1501641640004578
-6.02426026949129,-8.539238303166545,3.997467247597797,-0.2144572563857281,-2.5226001968322365,-0.7322882401795745,-1.8714765386997532,1.16260463645542,-0.2363396622883886,2.447942600426259,-0.4891327847612849,1.9421550621262789,-14.675236956055418,-5.491904714697999
-6.170866987418066,-11.118152312852317,2.171594757291384,-3.7753819336234606,-4.102703447099128,-3.2418772714224424,-4.244951246234806,0.7677994124875767,-2.179101662002948,0.1817473725992862,-3.47756348119718,-2.278110648444464,-19.1787476815376,-9.02340980894702
-6.269501596451132,-14.51280345643403,-1.5808933379029178,-7.634510937114712,-7.306075109363526,-6.320967176675215,-7.110210197890447,-0.0100773202966308,-6.342014144714328,-5.000087681097526,-8.344107863847498,-6.811526866910935,-24.6242903994731,-11.032943517589526
-8.012854868584068,-15.880229737432035,-6.56323795598378,-10.517899963697326,-11.71328340067564,-8.993725687978287,-7.930264928309592,-0.8551993420785635,-10.76857334132617,-11.577186497224318,-14.51599877616792,-10.822499009131896,-25.70396813267916,-12.067300936725005
-11.766984686627952,-15.24295178886442,-11.029310432363882,-12.235500416409469,-15.638525424238876,-10.169340783547444,-6.342042593413527,-1.303566043908546,-12.891158483646358,-16.930678104043718,-19.922156317378885,-13.747479289183534,-22.09886212412423,-13.131999126497371
-16.06240767721473,-14.24889812104342,-13.021842748762408,-13.37239168176328,-17.127898604937123,-9.194796197526482,-4.271437967213425,-0.9608590791951171,-11.321232234939473,-18.55577214089489,-21.849931929619142,-15.277409752001985,-15.65502969082062,-14.473727714289694
-18.595565735039248,-10.933897901176476,-11.756843983538367,-14.312617504338029,-15.55266334577572,-6.391969948280149,-1.0038053738475672,0.2200370742223789,-6.741575564499097,-15.32761359767547,-18.723169365090268,-15.253078175981464,-4.88031038261188,-15.175446849971934
-17.861668618742872,-7.7468681676141,-8.39099526202283,-14.658785238392912,-12.308783476658158,-3.071838664859481,1.978828786732736,1.868000768552449,-1.2402057199632992,-8.217581303188513,-11.497207476556,-13.667124883950358,1.819060869774081,-13.9703196409415
-14.090968812361972,-5.129328042117706,-5.2853290235316095,-13.578699798441988,-9.721180640751308,-0.7225049660912646,4.40753779759469,3.467961334308974,3.229779641377693,0.0350513239242822,-3.3860298464227228,-10.77635303575058,3.92526270367152,-10.467647775545082
-8.899661966619416,-0.3208747387778616,-4.173867308460284,-10.632249417742146,-8.9593251124081,0.1798675768157416,7.009887806357487,4.773033326419974,5.929094103305619,6.3071810426406,2.138357090896232,-7.173195002786464,5.838347057075298,-5.609136296933887
-4.181131082793382,4.576527109203778,-4.784331251112144,-6.245840174612889,-8.928857884734262,0.6812303863162761,9.324206938321138,5.933420835992621,7.208221603616504,8.795949635304947,3.65369780266326,-3.669176977202431,5.424598669835966,-0.9754799274129802
-1.196937569708048,7.372636929470367,-5.210605035929861,-1.49045717262665,-7.3693373971541245,2.4758859524442567,9.253883275508864,7.135511623386439,7.616090277752214,7.901045444133985,2.5663164915499834,-0.9893507487643304,4.716006530865609,2.319206209656828
-0.3281663101648444,7.568245550868876,-3.766172134365359,2.4907297397897032,-3.283747118438191,6.181782533564181,6.511685691979969,8.064702446737947,7.260785368459739,5.626008195559345,1.6830108729534636,0.5532867128941135,3.9162288000485135,4.115087149589888
-1.2265203971200087,6.023784888781888,-0.6274679659892861,4.904627305707605,1.6185041131691182,10.303252369882388,3.8405965498995953,7.805818416909505,5.959920886999679,3.96680809938087,2.745931442219634,1.161212798369995,3.789363592531212,4.810170423332947
-2.9572654054341214,2.935881298361091,2.267061750942826,5.459860580641328,4.020123341626187,12.064039725656672,0.7493074940194444,5.486364785100397,3.8047025411365247,3.570246216928433,5.033654592966407,1.3250359871953474,5.002513842829344,4.740496783065714
-4.147065684029526,1.4918017424465049,2.9620825977965914,4.431027073331846,1.8266418354642104,9.674605258591818,-0.8272706720814897,1.2359859785690848,1.402439821231498,3.675160829263117,6.241459096500545,1.4460831245200811,6.2535907887381486,4.081869120768886
-3.447708453656185,3.05983850798594,1.256837793704829,2.68559489181904,-3.799938467012826,4.145670366467268,-0.2133443573541849,-3.4267389805560304,-0.4627002890101543,3.214497429852983,4.839873007643719,1.6790818911625929,8.012917017717081,3.237205666382513
-0.3100534037678617,4.098927057560743,-1.0690137435870044,1.467116104125882,-9.09998222319671,-1.079413260196378,-0.1292151605382238,-6.3188214416648005,-1.3360550698035487,1.9904632764417665,1.7603207610124525,2.175840073055109,7.657426863347098,3.002920667076128
4.507660702737848,5.637220793933434,-1.674734227368872,1.8285582554136115,-10.54237645574582,-2.604463191387495,0.0511374086020992,-6.015331169525896,-1.2311609383679318,0.8843927779599574,-0.1592410514044582,3.441544910459907,4.85050909701142,4.066185595089732
9.302492668979475,6.718565617867673,0.5808067244879789,4.026349784459656,-7.375957430260806,0.2831103542759932,1.3094179995861548,-2.854319659005645,-0.3538391090460822,1.0148645268276102,1.493810982596373,6.260060692705364,4.81355329823282,6.279761370104112
12.529014289273368,6.122217586493173,4.921299268643595,7.365345701782121,-1.830013480921754,5.021653435180237,3.371116561655462,1.3318079580879305,1.172174108354907,2.6941665932533705,6.662509973512062,11.000240936046216,7.177271758741979,8.588059273193696
13.728573579684248,6.194325707334934,9.29845715160619,10.616942912151488,2.9280534047926268,7.747231827169949,4.865637406340749,4.552934283303228,3.24522796704351,5.13572748344073,12.817097742162556,16.826723495506684,9.772626704921215,9.850999916658802
13.45661136169446,6.056053566855826,11.67807749581084,12.616508912398771,5.10385243328757,6.203907408104278,5.799737239843352,5.95139341485426,5.533621524400557,7.109729588298244,16.863673549379648,21.655512084085853,13.616083855416576,9.785141062552976
