AF3,F7,F3,FC5,T7,P7,O1,O2,P8,T8,FC6,F4,F8,AF4
-4.314906247503108,4.034334375819063,1.82148592890532,1.8963860050849264,1.5148151443714388,0.6085355545729861,-0.9758086845044368,1.386768266550828,3.834053578284109,2.805593867022964,5.734479907746278,1.995542412535547,3.141429323719867,-5.930088862902746
-4.332249847098484,0.342840754932752,1.4640630217491664,2.2220149804803366,1.4975056677947596,0.8596226365757987,2.0454995002479954,1.833510927924324,3.790313841510845,0.4316007697903599,5.664205124132632,0.5895698584206168,3.8257628425979617,-5.354688946809826
-4.007307749783872,-4.859163293795266,-0.3445684081338114,1.1985781832738187,1.4267211530114023,1.2551267026688255,4.238425903094907,1.762747620948859,3.911477536116822,-0.9208413318386208,5.179991567187127,-0.7149197707499324,5.641275786927131,-2.1701812881915514
-3.138463454719002,-6.649486161496528,-2.651300828965093,-0.3590837569801346,1.139384789492393,1.539960329397496,4.314470534760888,1.1637166715024798,4.144578883850442,-0.831984599721546,5.471416910236165,-1.215492427136729,5.638755960939263,0.9969017466492084
-1.8014986555429016,-3.7680104520370494,-3.6313361746184727,-1.4177551398354948,0.1396245226666637,0.8151400758361398,2.337479708093286,0.6443004752951129,4.8635983219639245,0.7696732673208984,6.793892688293228,-0.6657152997954565,4.332145034010462,2.256578648270379
0.8762898789238589,-2.613280690645676,-1.70804393010904,-1.3617933214018303,-1.76713165158032,-0.0647129533722444,-0.1891847575244432,1.1032953883215812,5.426147399302469,3.848669276217093,7.654841544490818,0.5969708694704376,4.210091249593443,1.8519955927732297
5.019313271406738,-1.8368664755556867,3.0268160130383457,-0.2859190881932543,-4.039188144340203,-1.0795299584379712,-1.3755644965930198,2.885778503800088,5.948068095234326,7.957654631644919,8.36081240162792,1.913294092610501,4.9706045234964025,1.533353710553985
6.6209972959017085,-1.998112943179316,8.334202082459038,1.147496709914523,-5.638854295887424,-1.5982617968827788,-0.4099868968437734,5.215298205879051,5.946958576521225,11.859226333847014,8.584515820288516,2.721630143785689,5.894211707674038,2.8448875636733906
5.581407841335743,-4.123872692115519,11.061779003819115,2.121396050415471,-5.768492249344559,-0.8465104788457667,1.7601559007584928,6.575746366069863,5.276094937829566,13.796794643836986,8.059827964482958,2.821738740806519,7.456914587423375,5.914166194685549
4.179023682212837,-5.950143731260112,9.43347214050794,2.113044627915129,-4.4590438966679935,0.0719042543706462,3.184911959851541,5.862423559724672,4.543790155364258,12.524616460692885,7.367252888479089,2.357369534731887,6.278235056261712,9.518733369341737
1.472311846633501,-7.924536944372461,4.591987957109956,1.1838558156951977,-2.523623105628227,1.402319153195053,2.541883327641906,3.344571421444899,3.5988787569268856,8.353783942371606,6.336983072841972,1.6375970252555847,2.0658218099517,12.03595066386161
0.6720601896157459,-7.533066602093532,-0.0551355538690261,-0.0355027716598521,-0.9699504532707304,1.5978648764742716,0.2513449915386707,0.5582802912081677,2.5238975973887325,3.2563851695692008,5.547872650906699,0.983634601059448,0.258432194656631,12.412578344908948
2.20682533868624,-4.183901387180209,-1.366806104437412,-0.715908857152604,-0.3886422670257932,-0.2649250659559463,-1.919483328486415,-0.852021036089349,1.4051533619887435,-0.2503869759406218,5.11338345017804,0.6543407955734886,0.3220241119407542,10.599588883298876
3.1501560072075403,0.9811759377562148,1.1308198454675225,-0.3951500336961413,-0.7488120583458608,-2.2233757473975597,-2.410270808990605,-0.3978432149281938,-0.3802906144926831,-0.7189643371665229,5.0875371333175625,0.7779074611350647,1.5856671480576563,7.41074221074353
4.303319529189396,8.867355641280014,4.9856837597104064,0.6426254842403774,-1.6170132887511972,-5.17875899597956,-1.1671870798873982,0.9443096608055264,-2.8311131859893788,1.2793401845013603,5.695298960103956,1.2576621685946927,5.1891233731333815,4.038226331720385
4.959691192858852,12.254020510047122,6.904136071559831,1.5198570854106803,-2.5141844550414345,-6.686507169846082,0.4701794484488335,1.6300741530741245,-3.730172958496333,3.5480328947226827,6.557802758906674,1.7600760089734413,5.644085996734666,1.4916016895256885
4.701681303796268,10.620886956068263,5.354941877720853,1.4150389493440034,-3.148662448824873,-5.345401121092541,1.1036694757417935,0.8701291930918016,-3.01941306440471,3.7064166557889218,7.784741428237872,1.900578338316809,2.822759405657101,0.1945026999082664
4.010922004051566,8.211154876681555,1.5022582727327691,0.2261713976343529,-3.458784833132841,-4.22796616508216,0.5124281881422208,-0.7553057052147749,-2.803538301547288,0.7134245537986112,8.387287458790412,1.5457666654597064,0.2365456038911573,-0.0847868855348998
2.5373070075306483,3.179403937263762,-2.1112503365759228,-1.297808496560151,-3.527847003828592,-1.7957760529953428,-0.3435402303953929,-1.8896714207423655,-2.643586376004545,-4.436576260638496,8.23020810507325,0.9516330765551456,-3.314340696738125,0.0555039872792342
1.1681612928677676,1.0351857934943725,-3.7022494603692944,-2.0794932115784155,-3.4498148583755466,-0.0227028080435193,-0.4215465363299078,-1.6401149706653788,-2.7396426502950426,-9.196378796048124,7.138770557064508,0.5392329662650162,-4.575896887574171,0.1079336766527845
-0.0888565762322721,2.4603862110517865,-3.2821890128864366,-1.4803855337413347,-3.2188502095018854,-0.3098134451433305,0.374634806982745,-0.3552196552703859,-3.45014214472304,-10.861053716576093,4.745308569872211,0.4626644936270954,-2.9175643796178163,-0.0415168444614422
0.4468131380365068,2.3378857612232005,-2.008630064762303,0.2473014293366837,-2.722088741749588,0.5392663371871347,1.218573220934378,0.7233294464070577,-1.827866897314058,-8.182384865253908,2.9072877122052434,0.3964714418559507,-2.017541007180258,-0.1853420275241577
3.18551952399359,1.9917105754005424,-0.9182277546549537,2.086434382306785,-1.860292952074031,0.7975119720177657,1.2892223514787906,0.5766031811171674,2.190138559640532,-2.30410037960364,1.5509330793859284,-0.1802658575930291,-1.0364771642282675,-0.1596962848614551
4.239873138654542,0.5806306337578185,-0.3815298107870033,2.814883329361931,-0.7061080155489776,0.687147437180024,0.5881976107724469,-0.732009029823899,3.495045951247429,3.6934341206415455,0.3298902929482563,-1.414260805395419,-0.3676647947568117,-0.1468243424970576
3.915919801243114,-2.6319973238792933,-0.4648430154583725,1.6782761616004225,0.4464384838986232,1.1242988476718825,-0.1441803773526881,-2.1912802803259672,2.4078020601898573,6.599749655201039,-0.3290239461948575,-2.776759905881876,-0.5764719990584729,-0.5775673837154549
1.0063487985007529,-4.738149108946281,-1.2939900797617212,-1.1116077857853883,1.1931097356242404,0.3123352820402217,-0.2330669081727689,-2.7772277344057663,-0.0721584176291233,5.151311774046747,-1.7018097824915743,-3.3862323361856705,-0.0967883989046487,-1.6573379260992198
-5.511014024074418,-6.033887163726309,-2.7486970013384684,-4.291026301618837,1.201448782194412,-0.585554058516522,0.2670634136691729,-2.297970808396121,-5.090248851509754,0.8400365389222963,-3.777007769449121,-2.7201958137698545,0.8383391787584883,-2.958981591408204
-7.604775057193589,-5.345016847992331,-3.958353617317873,-6.048256776093712,0.3558872274697147,-0.6745945964460957,0.6720952642004727,-1.416126066229961,-6.629396668017623,-3.2733881093045403,-4.618078326307054,-1.0811854479605092,0.4103723410869492,-3.57174073144624
-5.356087419059043,-1.9370309449821357,-3.5935702906970293,-5.040371838776492,-1.1467972051425015,-0.6332786544482443,0.3562747783006808,-0.927294935284658,-4.428182339212856,-4.848053537183491,-4.357739710036898,0.6125884108300093,-1.287132360890144,-2.8248838132705165
-1.8054556142726104,1.4062045766526394,-1.0820923085595917,-1.391951886054125,-2.743633209953885,-0.1686070907489792,-0.6754805639958279,-1.0419884735901528,-3.033292934860543,-3.7855566207429048,-3.897005976479952,1.5236230415190837,-2.9526268995731555,-1.0001744455288404
4.895549128005171,5.1330750923357735,2.4086456900319253,3.104868165455401,-3.5967684306684315,0.6063177767745159,-1.839472429988125,-1.3344292070485406,-1.127113136924191,-1.8165946711933,-2.860131010707496,1.4629280273367542,-4.920030970837319,0.6712827504530067
6.140558794520603,6.264530325913072,4.497223754755602,5.982060661363773,-2.977604880853418,0.2495831228089778,-2.533556419989381,-1.3216799933016363,-1.426294711547648,-0.7435272700428401,-3.5883361839140706,0.8823161266912002,-5.57342219249322,0.8595204304182241
1.2406165955551791,4.00191873450261,3.484461827132227,5.747077369158563,-0.8484153599657783,-0.8117910459605283,-2.6567519115806704,-1.0269688037551237,-4.723378071975829,-1.0433975767473862,-6.367358121583358,0.3933317058101785,-4.567222416679948,-0.8152035991984359
-2.234839442872015,1.3729362422233249,-0.0375790676585688,2.9605272806638983,1.8137667193706264,-1.7988163152008727,-2.6406431267982478,-0.948025642006918,-6.490900414083125,-1.9510441938035676,-8.608922770861076,0.2933204871037506,-3.886879419069072,-3.4177286014718504
-6.230695210952093,-2.581968444378422,-3.480600877433054,-0.213447147468853,3.4262071193190384,-3.684426177336448,-3.004898140737051,-1.496984195272177,-7.416905196005251,-2.585090031188064,-10.849559714130566,0.4635020707864528,-3.1013773315381226,-5.344258608250131
-6.552241094047913,-4.639673821821705,-4.355875768151643,-1.728538903989384,2.874337983185734,-4.006212334150683,-3.838068056555231,-2.5304441709252616,-6.986994259028707,-2.7978316096580427,-10.983735918201036,0.6037583900834473,-2.2939653821013297,-5.468380764389808
-1.7836245133613526,-4.20243944756909,-2.334761031861988,-1.248711211714023,0.4846067832489029,-2.3089149386878147,-4.629757086595305,-3.47591656335514,-4.306071378411184,-2.991372466353488,-8.38724990774421,0.514400521425004,-1.7688789032875196,-3.905079390685911
0.1044824584635901,-2.1082393768037786,0.5854711055675867,-0.2236779672385092,-1.9889754960680213,-0.7777270325466463,-4.587070322770106,-3.898524052289645,-2.5138683463761624,-3.344411337280391,-6.498636881351051,0.2061706868128241,-1.1327550383402114,-1.8655597831613893
0.1872928306286523,2.7582885454507786,1.9286915046471749,-0.3554273134040389,-2.527994630762357,2.307485074934418,-3.2043028726269767,-3.852856867089374,-1.3102997996592107,-3.422986591198968,-4.74941035925122,-0.1683730859145724,-0.5221640435078396,-0.77646879018369
-0.1198247445708271,5.507019131120058,0.8921085787617273,-1.8503742337169304,-0.3273440649091477,4.210841565132983,-0.6858811268631415,-3.60348015814509,-0.3297792479257823,-2.593331413327334,-3.5925834744452643,-0.4545734568664212,-0.3844628501016448,-1.3076493600274262
-2.230475616824558,6.0629794483516815,-1.1086486325649485,-3.1211186616650792,3.590867881642411,3.895739895033668,2.073880106230805,-3.0508331779196274,-0.2037872283647134,-0.7668738891318116,-3.6871643229533193,-0.6130269445613608,-0.7471530522078228,-2.935659783201249
-1.446253143121336,4.417716041424092,-1.88054143815493,-2.2976205257241373,7.129188578967033,4.394232894654149,3.965463093788728,-1.630287401772779,0.6345973719149844,1.296716339329281,-2.1011850639713097,-0.748764290498976,-0.5553085199253779,-4.300335094711714
2.357034952979152,-0.793925435670548,-0.4924927747414291,0.8200895652923523,8.606200128124296,3.712349097280196,4.313941207755061,1.0008038038991558,2.1029429376129496,2.445880949074902,0.9902656517245176,-1.0117586463676138,0.1520996042785187,-4.146899686116318
2.5791933506412734,-3.759355848502429,1.8822814220193085,4.242430666473055,7.788230486644604,3.1938906247851,3.2946583242312606,4.118154452033688,1.909588696972429,1.9873268236963055,0.886513899041328,-1.4194850333473403,-0.1351615010861503,-2.28551561808064
-0.1343316329736177,-4.664691248607318,2.941194024979994,5.303848343735421,5.731143212582632,3.153834488862815,1.8176068909994831,5.95445227721423,0.1824792569100081,0.2401658737510663,-2.203353656351461,-1.7800061793614836,-1.2998787956177948,0.086886164973793
-5.26558810872421,-5.346815761401228,1.1097570483650818,2.917607194811483,3.745537183841551,1.5446976918111688,0.9071636258142736,4.899035415265022,-1.932689153417572,-1.670149938622501,-6.76909102554072,-1.861315617613848,-3.1947271351451665,1.0474241490335443
-14.240339087620615,-4.531948179099697,-3.2312269913153537,-1.4330402073860826,2.4689300799543097,0.393256474331482,0.973128164005719,0.965859305235048,-4.892159550155714,-2.659246517299537,-13.863697187063057,-1.6941671678820247,-6.163460215049373,-0.7119398440978115
-16.04849073487272,-3.575921838415752,-7.965232727724256,-4.828238919485045,1.7622644443687507,-0.504652019610538,1.5171497467510666,-3.840802946671588,-5.195054443666988,-2.515365282071815,-14.813335685212452,-1.661676871005676,-6.762258213123031,-4.751279845788375
-10.194819348815695,-2.4160550836991703,-10.571241775099375,-5.145197539235532,1.2880058431340022,-0.6668233152899214,1.568316263786263,-6.7628120877268,-2.413710748905155,-1.9923128623665212,-8.89215810625542,-2.163936176894787,-4.785946505677326,-8.85977946209986
-3.0371142753133498,0.766631233310673,-9.592987552021356,-2.501817930719104,1.03474887744422,0.6500530039840813,0.5893169993850305,-6.196519769368628,-0.017949355874462,-2.009935667862841,-2.8528935685327794,-3.110212050531598,-3.666226236640631,-10.332867359572322
8.077988500728884,5.873080343766686,-5.420851821473341,1.1302583029169757,1.2576507290585344,1.4277244447286237,-0.8569622064171496,-2.726468109098604,2.8408194386684347,-2.629061790344537,5.409980019860143,-3.786588814467352,-2.688320076715142,-7.758700629457472
11.616950774412484,7.746911656441344,-0.0897845685827252,3.566125287639632,2.0111776541875277,2.4584443238297022,-1.323885293354633,1.481269505333772,3.972866984008994,-2.793666103241147,8.760748169941323,-3.3636256564606324,-1.7604662721747444,-2.050179019841206
6.143832859045721,6.314411189453457,3.7393932751114862,3.849105217931795,2.881105398840649,4.1839292228547205,0.4198965814580419,4.29899009984164,2.6823507930465618,-1.230135522517272,5.80342857801842,-1.6589656837544549,-1.4195206494479342,4.0590335769558665
1.41147941794784,3.1891489999857963,4.152178465195485,2.5097644487399178,3.254798956707423,5.194131579195537,4.184413994966207,4.931010281329149,2.335301365123514,2.1928668353365164,3.6590228673464975,0.5590090704848365,2.551089173268517,7.72932125964838
-5.511016443702897,-2.9569646635134306,1.044516897810758,0.7825953547875599,2.846687137525364,7.20667244228082,8.067976981073691,4.035696506928167,2.3056280746431383,5.8928495099079,0.3579378404549497,2.0538718434767214,10.337835278123409,7.733469092345047
-8.501428467557089,-5.891776634120576,-3.769958349749043,-0.3787015947040036,1.9181849841148184,7.8750273267593505,9.518206715019192,2.8865988442233856,2.2131501895337,7.45912225788096,-1.5414671974740397,1.9895474140593143,12.668936024474714,5.0083097398283485
-5.929263877254192,-5.281660055572252,-7.614333284691805,-0.786748238772593,0.9811587092881168,4.290197350130375,7.117682686031641,2.4008172526702665,2.5746102471590318,5.421041850574901,-0.9642782620310326,0.4586818725726549,9.855430216390742,1.765511899600848
-5.735626861115743,-4.820422477877,-8.59250828611934,-0.8841804986518083,0.3199911827118784,0.2729205105115316,1.75855739859799,2.679666486548104,1.7577754342161709,0.5218512535049367,-0.4944794535813682,-1.6832405259530856,2.403367272462724,-0.0764341281271405
-6.224079387932543,-3.009500592396112,-6.708570483289769,-1.2767408513976966,-0.1812698105936085,-5.202092717041673,-3.8098423786980473,3.155256303195277,-0.2461775238812661,-4.535166036414389,0.8426354462531829,-3.408933009970684,-12.052108676068563,0.008512218454869
-5.207400886736332,-1.8990490999414624,-3.622738598684011,-2.272301938277203,-0.7884828855202635,-9.21486685809159,-6.853946619573893,3.0824016535721555,-0.3172664910084347,-6.73795917476208,2.298718636064716,-4.019253576893008,-16.59852973277981,1.1874553833939714
-3.6472695038237584,-1.8670492222982755,-1.230134593940641,-3.633404202431033,-1.5582781295086328,-7.256848801168901,-6.551522636865832,2.076127558627997,1.4261653336172195,-4.66245466005544,3.6766788946672126,-3.3014112711258847,-10.687451911640572,2.201203081367573
0.2706637648155056,-1.2860487121359896,-0.2140217603868843,-4.643553702163355,-2.236351643360575,-4.777439918894848,-4.3942541477779296,0.4453839839114613,4.525024510887984,0.6609676305576975,3.785127638419627,-1.466246468194759,-2.155505113625344,2.367173915020939
6.876742444616698,-0.7107236730001224,0.2519292147155951,-4.500127178970209,-2.468178428907523,-1.452139363777083,-2.7661782156242207,-0.9016532181419166,9.740044531472382,6.422403222125697,2.223774678111317,0.9417268444610576,13.142615926527288,1.9203471753979808
9.30064866874718,-0.1948141080586007,1.4794555901158368,-2.8785077546735005,-2.0909035500191258,1.2997574710617754,-2.9087119144769917,-1.0428452709195497,11.165350459079756,9.72299780335937,1.0233070224226537,3.153154701241112,18.10764810303345,1.5764609030308083
7.488730996716379,0.3792947229420115,3.900954491200252,-0.3240884581771057,-1.2657888706934934,0.2959728289713061,-4.019638727917344,0.1954312444555546,8.49258560933028,9.168007852961932,-0.1790836072520044,4.410998333457757,11.168951871500228,1.8064914735279745
5.579304942027222,1.599583010794135,6.604814273189207,1.8753898072528528,-0.3936248809814275,-0.3608451546499196,-4.215362640623949,1.9153045635666637,4.721150123815045,5.438322171381006,-0.65407040164319,4.322133710226043,5.176919052817219,2.4524743226008128
2.0541884015065106,3.553050116888526,8.13877940811803,2.38218523168798,0.0993532689981311,-0.9190336399855809,-2.402303189922129,2.682031319121841,-1.6390838602140434,0.6574253616730199,0.0181682315101431,3.106307442845076,-4.051212679481365,2.9412235185291933
1.2903492391427125,4.820020688664329,7.773691385692787,0.6804901003249466,-0.0145916690406517,-0.992552930899719,0.6902679759613968,1.6394051143365416,-3.868180953517998,-2.892423509330107,0.8541950612787667,1.513961200260782,-6.464798447450746,2.827317349521418
4.031749802870019,5.474461205031254,6.056269524982728,-2.4640365805840725,-0.6402827602758379,-0.1448560487918579,3.216575179178604,-0.6793041437038969,-1.2964637962848176,-3.897024566702008,2.1802801977812205,0.4154399304858591,0.1204331177072541,2.1634599425831262
4.840825492821747,5.0195645542174985,4.2361474677199045,-5.311645527979276,-1.417030014885824,-0.0318559218888899,3.8980248622301255,-2.6055038513134816,0.9244579852978536,-2.4433676939178435,4.389959213820129,0.3283151042558159,3.011689995392353,1.4148049668198537
4.741119444861167,3.051827956936855,3.239624380503681,-6.068307850851066,-1.944003422302248,0.6692403361461003,3.058351794159957,-2.550648007355629,4.464238638361621,0.2927369387877381,7.453048062791612,1.2016019673498244,4.7774109830039775,1.061891171553217
4.483904426763636,1.5936560757803655,3.183187708171174,-3.880067378210224,-2.017046855989053,0.5837274548843137,2.118814151229818,-0.2188197020997928,5.218026624140283,2.8055994582524013,8.722037681358639,2.564758987745039,4.472380082903506,1.263271310254486
3.237975707749037,0.4870181882568841,3.7176883464969626,0.6381430307711242,-1.6864190751214485,0.3655058905873345,2.19071866831027,3.17951235616016,2.3001281735216037,4.045681152698377,8.032688910095795,3.859793827575622,0.0013302804137532,1.8054353946429984
3.821298254323164,0.8403090172610971,4.584167494066392,5.59915708682677,-1.1111738875852573,1.331211568919046,3.184352436753058,5.845678272534733,0.7944702561547838,3.85242359589734,6.183841541833941,4.664312546504532,-0.9348408111418286,2.2706633127007008
6.307857895153865,3.226686644099231,5.654217289754444,8.706215802388076,-0.3990853632402498,0.9167781379370022,4.171211499771218,6.607739863225984,-0.3563643838805181,2.8196090834985728,2.419412241220189,4.682832355896471,1.1143245738955645,2.2392326336726853
6.10002458917307,3.544043434012257,6.487768921275345,8.454108559752699,0.3772634675559503,0.4331334357493144,4.40266947891101,5.428146278811113,-1.956577656892692,1.6935036641803607,-0.9932518472278664,3.661537718434201,0.6737929438702116,1.4578209154954769
3.5196211421367205,2.0009305601471508,6.156477576912428,5.088669353203167,1.0345124962686754,-0.0091397746423544,3.8240676546241055,2.9594163752234053,-3.305530710309876,0.7341981147801926,-4.035280947542828,1.4665630041629765,-1.0678786898251056,-0.0010839109780653
0.045873199921932,-2.2017694226064224,3.8578199261301416,0.6429780247389604,1.2403005057263528,-2.124579765388733,2.6477785491433043,-0.1990967815201756,-6.277678743600766,-0.4587461492063653,-7.2441708610642515,-1.6542200068309851,-4.32925252039228,-1.6699996650842897
-5.272728527256194,-10.152608917573726,-0.1190707396623193,-2.245557166093599,0.7159211047743272,-3.7779678656586895,0.6938065767226818,-3.738834590451605,-10.94077404808746,-2.4986710531634326,-10.062739980042144,-4.906740890319638,-10.017267159701165,-2.9019992178605576
-6.2248175551144405,-12.439823284908917,-4.127767654130132,-2.130062828477742,-0.4865716879655326,-3.786866813711126,-2.520685369290669,-7.26058608146293,-11.7300975131443,-5.502346338418445,-9.873246119061234,-7.179959816979164,-10.70364009664329,-3.3617992068566824
-2.2836508829592246,-8.930230151866725,-6.127349126639443,0.1956154021008544,-1.9259000455893065,-2.8303959819948297,-6.86683362354418,-9.905531062135584,-8.605502250276764,-8.71269396218688,-6.238488250231511,-7.623540609207479,-6.147708588517179,-3.3619270269226664
0.4806847377630545,-3.809673052102336,-5.188649679110483,2.4122694840911705,-3.010769635574688,-0.8152297315624764,-10.881147800893403,-10.61970804955083,-5.420866315353464,-10.78218348764873,-2.8603935619370926,-6.155584212565811,-3.2530727860836954,-3.534878732607647
3.443786351405404,5.159093599756642,-2.21361347361434,2.713443355658653,-3.312524745220479,2.329617639726516,-12.291809830084697,-8.930995134464883,-0.990880746748488,-10.534536354384972,0.8898666582292574,-3.488410599962278,-0.5494097095684866,-3.942539746810873
4.017652848123223,8.28699349679155,0.8114183793356875,1.3735848573398777,-2.7040851348642008,3.245576656071528,-9.684602868081932,-5.477291218397911,1.5745889332123135,-7.695815126849778,2.892208843339513,-0.6659178445570122,0.51591936819248,-3.5355602164080184
1.0405875324190703,4.683702322810678,2.3566207751197306,0.3112673062103894,-1.3347093522392766,1.8128829814903609,-3.946877694466218,-1.7000822031890976,1.5513870382726398,-3.1380691632525446,2.267900520585592,1.5021682473128697,-1.2945056418300658,-0.8648169350932262
0.6565817453462892,2.3009661486301907,2.307415812904561,1.003824714068474,0.3751780895663397,0.8538298171234477,1.920890487508426,1.0743835695877415,4.026501907474499,1.513465779261716,3.5467567927441617,2.7135698673449014,1.1230317914738654,4.229091216003242
2.1722256756613434,-1.1676649005917887,1.5994833527929844,2.842328579301792,1.6991507446151446,-1.856121367248381,4.73007832193197,2.367133878889926,8.292009799706207,4.708877568056382,6.12761173919393,3.0846587438033817,7.455295678198118,9.531064890238651
2.3527618157768906,-1.8145905405451448,1.090234661532318,3.6990341232131465,1.7815149835451272,-2.864714974297139,3.3501072162029377,2.534864536500395,9.275841061857854,5.777841832875169,6.691902404198944,2.9131396893944306,9.494202863934396,11.466373620505848
2.1411552458685525,1.638341846002093,0.8670930268266077,2.2337648529246383,0.1962222127448051,-0.1017919489611496,-0.4962224870597167,2.207111300777041,7.446954457196655,5.205903563851001,5.786437284870935,2.501663831923493,8.153577888483586,7.887827215801323
0.5475607058326701,3.608097378410799,0.569692711692277,-0.4543553293805773,-2.4374479926702928,1.5100778563862045,-3.5270080382315507,1.7995004189428934,4.825441133084313,4.164195750768903,4.600611271546952,2.0774256229426693,4.8604758173416425,0.338705244025041
-2.9321119613919184,5.239883537921334,0.1492271473129265,-1.7017334187277144,-4.470598636666154,4.605530864080479,-3.283719266278704,1.4589564023648864,0.4302204480951143,3.609072299398436,2.609421539319814,1.7496497335188494,-2.035738912179031,-6.508131740116068
-3.443176194830452,4.759352639746036,0.067114409026219,0.0315090551932168,-4.211184600788632,6.8159292824613855,0.1951174020943598,1.247427197828976,-0.8699043721030227,3.646860301918208,2.5343712509847847,1.4985416062339394,-2.9407696329460764,-8.202541768633063
-1.007939293365519,1.128457416290521,0.6747166687394165,3.382958306041536,-1.2990992759276268,4.144209771121741,4.5782450190634,1.20137420065692,1.455360508596477,3.6668323748345353,4.715220890291108,1.2350501210377458,2.6341879244360293,-3.984028490141364
1.1181841930383731,-2.2918506402248617,1.5533862708843338,5.180566167244124,2.716812314951823,2.124038228694353,7.045405930283177,1.2286414537385033,1.0027330951657043,3.0657339537822086,5.030558661758636,0.9146062312528496,6.390755647965789,2.660803001811289
3.927081396164676,-6.193099010759558,1.7206217765769805,3.4836226745206518,5.311576483662337,-0.7116144691124602,6.294633625686787,1.1096369999275408,-1.2627260645684737,1.8510231391911915,3.989810343126488,0.613396836345419,10.371080052260549,6.897462255389098
4.406715983092523,-7.384032433640195,0.631794054868554,-0.4332455918322764,4.847055832693284,-3.660818320869815,3.3310876557518467,0.73007339219329,-2.520273844324903,0.5741032482223116,3.1309247576745443,0.5013145140632456,10.496172943127156,6.377250976737064
1.8978241411296288,-5.034783265019747,-1.08539034757999,-3.219573568641028,1.8447565638290235,-2.323051332868159,0.5759626026456206,0.291989922730742,-3.702395735613747,-0.2503307964460992,1.7613502399880194,0.743558856039658,5.203717709002726,2.7089479071065035
0.3539684124177966,-3.801657258099666,-2.0733988749706755,-2.6816778822415,-1.4589356304716854,-1.2609279385224534,0.0279303931937644,0.1756025986844798,-2.8428398434637447,-0.5889427194926387,1.5521434324021877,1.398778807392012,2.161797460419172,-0.4918056498301408
-0.9938634724619168,-2.826545877477454,-1.5510536436170193,0.0692369668022259,-2.9289668545396554,-0.5626048459729027,1.8288897093097507,0.5229261963465037,0.5652312802152896,-0.7685460332770577,2.735514002058004,2.3367908317670927,0.2174810911943314,-0.9511253524367798
-2.716279901007878,-2.0058395997536325,-0.1862228329133337,1.7068575803990695,-2.1563535692812894,0.6659885710256401,4.25309740108382,1.004137786311024,1.1726222198591094,-1.0108632341676935,2.5272660953345003,3.177608263433404,-1.1713660815758018,0.5773360552894755
-4.231028574104767,-2.108482204959241,0.392509454185431,-0.0319054219918699,-0.5191707674791406,-0.7732274171635515,5.093752681718262,1.0843742615006131,-0.7730993767827441,-1.1798312731309295,1.2105225063006155,3.320656961087833,-0.6372654372559817,1.525651687298895
-7.323645784941044,0.349616808213713,-0.9919730814703964,-4.108289126222742,0.2472096911849348,-2.509738451842353,3.3816647963621027,0.5432319758521116,-2.3213228273413025,-0.9938097544054392,-0.5920280498447056,2.170672990422224,-1.6040310321543307,0.1179149204484764
-12.041406387017396,5.357085998576938,-4.084947519918131,-7.1716773655892005,-0.4295330968162765,-3.4163069611577583,0.1025709594541366,-0.3262596556974251,-4.50553555915861,-0.4081201342906277,-3.425757816345669,-0.4656245469834701,-3.8493943450814343,-3.159100053595973
-13.76258015129991,7.01769427505775,-7.516496581748891,-6.769356680067941,-1.711480647280614,-4.467431098764634,-2.649910499313209,-1.07321610943089,-4.749786071400834,0.2818914968612858,-4.537460533800965,-4.072905073353232,-5.050497473500608,-6.316465629579168
-12.512887582529396,5.660784497664379,-9.954025539728551,-3.627467494086539,-2.427550264392727,-4.12527323023254,-3.3770208709213048,-1.5877596965364076,-2.5386306817324757,0.7127029578430615,-3.766953898559964,-7.521949258802127,-5.73975993470514,-7.748660651454166
-10.5146949315476,3.116257211597313,-10.905145851365466,-0.8616497215157692,-2.267032392704635,-3.061737650658023,-2.302938164764164,-2.137137989680433,-1.6802039360812424,0.7802930200706513,-3.0059677341002358,-9.60256293057519,-6.15900245688974,-7.356687565052709
-6.71611408432338,-1.8955022307698104,-10.557306205405087,-1.0265843148823637,-1.9028071626630825,-2.360243289659033,-0.9891414188594738,-2.85743224203944,-1.5968878935525723,0.6827652167671203,-1.6100279546748932,-9.64639542026925,-5.974439503434279,-6.1489410846999295
-3.854841224768605,-3.4044045814598007,-9.147600664501915,-3.908810442808465,-2.055883989567886,-1.9500619105691797,-0.8340557616402315,-3.290238662585978,-1.9758338263562456,0.6698087659187419,-1.1606236496232427,-7.792093610235199,-6.049646280296486,-5.129456067358222
-2.23782512558977,-0.996878373653333,-6.744122179027163,-7.025691838525697,-2.60650182974052,-2.0966764175830908,-1.8501783401713932,-2.59623289027559,-3.500773062659344,0.7773070617273607,-1.976682222211787,-4.758956890174743,-6.375521966375794,-4.66775460882867
0.6717237535460248,0.3495148727179049,-3.6382047674189497,-8.05858897963926,-2.726749773176966,-2.500962956108327,-2.8173136402789942,-0.3819595836477694,-3.3946500472711216,0.7897020213480528,-2.1993762137227297,-1.4088340654735363,-6.962038061667818,-4.647795471260398
4.239676532047966,1.975454040009192,-0.6873919648015105,-6.73581343528931,-1.8552658360409504,-2.935006889484243,-2.585173584579084,2.6381968797783943,-1.6471746419134936,0.4320167848102541,-2.233602733413488,1.5330688201122329,-8.03211244830523,-4.792073414333533
6.849024985024784,2.4759991465977977,1.0658441314777347,-4.532106729053723,-0.4163115509245036,-2.47676929659188,-1.2060369080169742,4.887449908089508,-0.1467876178248016,-0.3803982702658501,-1.409963117479642,3.521222906227432,-6.864163106388981,-4.661282690060265
8.669710498679681,1.0928174086462286,1.3177029253283528,-2.8318426263077,0.5264384483072742,-1.132853979698378,0.2131390072060641,5.022937158467897,1.6661660242440504,-1.3980978774961643,0.6166867147423218,4.225772502650788,-3.3075716887230904,-3.5712645540737338
10.382001705914169,0.9020830501209524,1.0334945216069258,-1.542753379986726,0.3399737023927631,0.2728398669401834,0.741921622364746,3.015181681993393,1.921283127246025,-2.0801614000366837,2.644224895019684,3.730280717023444,2.599435560299824,-0.939391683685523
11.669721337171476,1.4551839745709287,1.855164121079245,0.57278177978381,-0.4970984771697138,2.439237105422032,0.6410392441456911,0.2857766413321494,0.215551110989043,-1.8478461551984624,4.915060906748767,2.703812300081424,11.692616851168374,3.016689655423548
10.650203965468467,1.2094374144976114,4.682550373753871,4.348920191056116,-0.8122673881402109,3.4213333682892424,1.0698401743684154,-1.2750538327119716,-0.8319208406166231,-0.505657598908448,5.163739765125661,2.174480395619101,13.675493913490389,6.966474592792915
7.148130552928745,0.578902214165829,8.594693376004567,8.98562972990794,0.1500527106192777,2.619533002791057,2.722599799686315,-0.6887310482131337,-1.680739562833388,1.3782490168385249,2.97372739294819,2.833577533343645,7.9610924045231215,9.082584975564815
2.8485676869022307,-0.0207566259618132,11.14777124240254,12.230762808233685,1.9950408955820496,1.9820308578625403,4.768081997426696,1.3709228366030135,-0.9292081520863952,2.491844591411692,0.933347888007148,4.353005925591591,0.6358284523986831,8.207037972648259
-2.7181035477337296,-0.7643246039808708,10.0186510273062,11.83652261747844,3.483252347177068,0.2071875535244638,5.269113139523134,3.03355236451036,2.021561356450432,1.4460330125398602,-1.5533844688776666,5.400416442683543,-10.860726320598358,4.591951731242937
-5.228744364492589,-1.6954145472374385,4.834949080930713,7.2272294821395215,3.5524973722200786,-0.5700902542696555,2.87496334094505,2.5798018876961617,3.6632435178443976,-2.14405674070734,-2.394841064715577,4.558863308188135,-13.999158883120796,-0.3467018227762133
-4.041213599300764,-2.782462877875724,-2.2196836143980274,0.210405697974527,2.1473573522161216,0.667761778219838,-1.698209617357778,-0.2441706917392414,4.348650775914363,-6.931777050691352,-1.008164068345616,1.5439800248496276,-7.268423032606569,-4.891062006181524
-4.496986673445132,-4.682597808990263,-7.584181579198065,-5.841518354252687,0.2201339377608171,1.2659676916816476,-5.833001755043071,-3.857044651383199,4.515719767758996,-10.255010661683356,-0.6082247113826367,-2.2855655976331573,-1.6409972816310536,-7.717545302961411
-5.58757954928532,-7.4657405908491965,-8.522067527087039,-7.970151448858168,-0.9931554776315672,2.825144398987113,-6.8628551273987055,-5.727262947940725,3.453386146690762,-9.727502750876033,-0.6337325448303345,-4.674024989383295,6.015174670025558,-8.096299123136413
-4.083178480849712,-7.124836108534524,-4.811991055510476,-5.550086140254222,-0.814314435263884,4.019150780182342,-4.1413178206164165,-4.015364249936161,4.5476508115632,-4.983371294146621,0.5919862675641857,-4.024730825047696,10.282643357226773,-5.879982047756212
-0.5461651400664227,-3.470337871084528,1.2405616614715211,-0.7478925373087502,0.4964378882348894,4.011481470819384,0.4124866912316411,1.0596641800386877,7.880670162560095,1.8354450022544984,2.6859199309967208,-0.5997316017306701,9.379242325584944,-1.5840920565675198
4.620516706512383,-0.7384791155741764,6.421765273433957,3.0047477455943365,2.0106747931076168,5.124209158185368,3.791635923837789,7.094828058789236,9.741335096975636,7.429025355494969,5.353482426870596,3.607107373322744,10.12733928864222,3.609723150097957
12.007760195753844,1.8645089914696973,8.665558582697846,3.5245187430910647,2.824953116939025,5.674779181640557,4.199689693870605,10.858000323368758,10.712373571661962,9.60285645298367,8.842428505843571,6.288854258864831,10.835947223464178,8.272837379977632
14.09049995959134,2.7811278695203585,8.117651640463476,1.4315073891706995,2.702528509346505,5.2175305358749045,2.2739578572902865,10.34684362213831,9.09171578100688,8.65507047572638,8.662475092129606,6.457382121490905,9.473743032474744,11.452760011889591
10.2921854724482,1.1232327674680034,6.563001822004142,-0.5642442755164376,2.2038341185678227,4.325575799641992,0.2602959850984851,6.140117250770993,3.9984534725183702,6.760106797259741,4.392414065599402,4.995987300641154,6.700514528756784,13.055051408755384
8.299619205481905,4.101101276872948,5.7708242687752,-0.0754367493882695,2.1745424289611943,1.9819870200627423,-0.0864832314927355,0.9665713034157772,1.7662606566060135,5.919475827128238,1.1932611365086765,3.695382569016081,4.345070562460164,13.444586386848842
6.489817978068815,11.5496281369613,6.05947074477006,2.916470071807129,2.965208401857143,-0.9973477932040506,0.963648602921026,-2.312675437715418,2.09363500974289,6.27593696162373,-1.8931664173990943,3.606854403026289,2.3239019398743306,12.672569438640078
4.821344680208436,14.189351620970069,6.175278919653338,6.140891047497013,4.055893891043522,-2.1683053461349786,1.4612218265308363,-2.804300246178082,2.0545148568906924,6.213481536964283,-3.80758282741582,4.152988501896029,1.2797101345037258,10.255262539541937
4.495729802809613,12.954283685713795,4.556763481203524,7.105046021495985,4.488598541549026,-2.1585504466815366,-0.333088566278183,-2.061340294323509,2.913324506219962,4.047052786811429,-3.5579330318790805,3.7840634297379134,1.7747830795638504,5.896234633528964
1.1303403668354688,7.038923039994967,0.9350993568681484,5.247891731267004,3.784394545949991,-1.966785779279853,-4.192339109330192,-2.510284463133164,0.1529453111878737,-0.2697778300531031,-6.432667034828271,1.5662230738742862,-0.2434178582438281,0.428843245456493
-5.126952340699248,-5.71961258033584,-3.126404329837917,2.267541639996108,2.4876351785292226,-0.3959633785836205,-7.857014040698636,-5.170489403243847,-6.805751934499963,-4.911547560339633,-12.15702857804076,-1.8001779467829842,-4.694747500901204,-4.18676745055777
-7.937350917388707,-10.689406106136842,-5.343272866085826,0.4264694677268081,1.728433692136929,-0.3117866749560398,-8.759732487594702,-8.676669879084011,-9.469884971606453,-7.559681888993374,-14.287508563088556,-4.520072735530823,-6.615201123711095,-6.12686667297802
-7.739147539995618,-7.781103770960976,-4.627466102087625,0.4674824940585065,2.110608418782582,-1.273287464597199,-6.110863333024933,-10.469399404015856,-8.505516948376778,-7.167943095872076,-13.443185185128709,-5.306430924600964,-6.559942827762133,-5.192068184295874
-7.705691194971756,-4.229693216187657,-2.128725465716177,1.0537744765019497,2.970040752397745,-0.7680927716684216,-1.5962561184982715,-9.044963706341946,-6.327690010085108,-4.668090916581054,-10.234342897337957,-4.516862513408858,-5.812802452718388,-3.0691779566624584
-6.627264712186289,3.279283827107442,-0.3465352908033363,0.1858326169013286,2.8248263520550867,-1.6224587162276114,1.9167928067683888,-5.210987304861915,-1.2072527637435404,-2.142171340298201,-3.255319711630437,-3.7281305995578258,-3.4252961638684662,-1.980054460900071
-6.125111550612254,4.834544838881849,-0.9648537949493932,-2.7607389652431022,0.7576419031764843,-1.0403635099251525,2.6337581826201246,-1.2737167274462848,0.5166809497227068,-1.2289128163931848,-0.5279627372897929,-4.154708033800539,-3.0309621688750146,-2.872439434979258
-6.587200124519578,-0.7207555330900873,-3.3190068659495173,-6.249276237292993,-2.488952930699893,2.1074825984122345,1.2298942171582763,0.9773816662986876,-1.5308181074683067,-2.0379679144865888,-2.2760833636351867,-5.420423070011381,-4.848808484913476,-4.776046199785843
-5.250499002844536,-5.411244913320761,-4.940396090040071,-7.743441887362636,-4.802784463337325,4.023818621162709,0.2607481503977071,1.5939956650654343,-1.6045379570906373,-3.3215408656949155,-4.05419755204619,-5.845805570052961,-5.444794548071981,-5.852464768841883
-2.451369825468249,-11.705776292847752,-3.758016186615917,-5.777415257613587,-4.29165319273115,7.779947028834715,2.042273011095181,2.0058421530707777,-1.0270226896499248,-3.6171220988369783,-7.71972823904641,-3.997176371017151,-5.566789557624138,-5.089664423999652
-1.2696804789855858,-12.107370446696992,0.0120952286773432,-1.1641495569530944,-0.8776639823231847,9.58815318512382,6.6669006921949086,3.40831844323127,-0.3691867804535892,-2.3756889361280846,-7.960527741017352,-0.1107844623869196,-5.355641228546443,-3.0760258102540767
-1.4564502135828017,-5.066665755120814,3.988055639176224,3.598871789744281,3.491493326722664,5.674157623562589,11.70880717523463,5.602556165438696,1.1515520253570115,-0.2286239993275636,-4.051448778549594,3.847588413429151,-4.298399189363965,-1.2779546255979417
-1.353447858230534,1.907201213198148,5.6084487969464085,6.134182738613426,6.239760854408372,2.0640140143031465,13.856028802226234,7.27558257150192,1.3225862088380946,1.6618352289380098,0.3268689248042303,5.5407153447966175,-3.3697608108126444,-0.6819100124987569
-1.5280880201771396,10.91605618922375,4.176628065390553,5.73556844454429,6.002513676340046,-3.74396124075285,11.241611291935447,7.269171265680235,0.141388173291818,2.4881680580463925,6.61501354671698,3.94285215430912,-2.4514436307553304,-1.1219428321985416
-1.971099711754396,13.19952400501268,1.2060134581190711,3.5984801337801837,3.399969001786147,-8.530581558204075,4.764977129137769,5.555218390122749,-0.6783363661549356,2.1767476913542776,7.9715976239390205,0.0460440254765285,-2.2930127999591137,-1.7641672342959756
-2.5281665202263417,7.017816770964519,-1.0757779825523637,1.768822277631621,0.2354875865565084,-7.128163105859278,-2.4943710789477263,3.0861116444866505,-1.5467931936422792,1.1177282306566054,3.5141127515632573,-3.919912173898204,-3.154198113815315,-2.0519693771895406
-4.040428949923168,1.7024165451808582,-1.607379684538069,1.6804220948574602,-2.010891766880397,-6.532342898071361,-7.261130506847836,0.8355060138333004,-2.654486581484116,-0.2782475622909233,-1.4420224298650566,-6.129591051394774,-4.1586950568881536,-2.115126285216342
-6.52995353604724,-5.141095362427178,-1.1325568164841378,3.2290076026468086,-3.055704169557002,-5.300491285793624,-8.022782476081975,-0.9545054837929628,-3.7739976431067217,-1.6952255956350029,-8.707360357463196,-6.3944825271678525,-5.569425268966776,-2.376980271408412
-7.846969756731626,-8.338927980632853,-1.226250020093659,4.870548477212479,-3.50054841235312,-3.256169102550942,-5.710852442390236,-2.6339854986676454,-4.520103510361771,-2.721062731346466,-10.30921065276168,-6.028738860293908,-5.453433146687481,-2.951482346400813
-8.011823191135583,-6.184503935633028,-2.749279848401136,4.648170612154937,-3.939265990053454,-4.408856211662112,-2.832315134697044,-4.368294952035464,-4.795798937482788,-2.808020920191244,-5.007919284790328,-6.478348692139952,-3.527647440231944,-3.512113526892047
-8.921060003897244,-5.122674966747328,-5.120652778113263,1.5581203388446363,-4.4506192616004245,-4.524829198532782,-1.7726173111039183,-5.607583596113816,-5.280144299338086,-1.662042730841983,-1.0366914787463677,-7.893027739367073,-2.2719128308236693,-3.679493899899468
-10.178996551598813,-3.5011788892218885,-6.92536021344322,-3.610003107237021,-4.79985338694277,-3.511834555031662,-3.365994549781022,-5.422123669582889,-5.869103996121765,0.2597152171776624,3.61896345275797,-8.918801732372057,-1.249483824960133,-3.4108676538575136
-9.834775573096325,-2.741200436569045,-7.176799033691029,-8.629196090547286,-4.867812192301988,-3.6923230529600937,-6.514773646454303,-3.442435014039072,-6.049162584907469,1.7724010918751123,5.364787378633994,-7.941229170240858,-0.6931708637127553,-2.9674861097393768
-7.995284624515662,-3.777480226501735,-6.074034076774471,-11.282071317092246,-4.745363907500559,-3.236279107822239,-8.974235681135813,-0.4882172686590087,-5.894302288004475,1.7310614000844544,2.725420143762689,-4.67453652844484,-1.0610060999010975,-2.5773216035860047
-4.733030283322084,-6.154132193633198,-4.658982327127519,-10.887325585645808,-4.513580212469114,-2.6629408954339686,-8.796450478904749,1.813910544095477,-4.940036534597143,0.0019640823196487,1.9817506487843284,-0.6170130245056455,-0.6340058812468979,-2.229803420568497
0.44943900235909,-10.680317408186434,-3.7993340351184006,-8.688692802226704,-4.149335037329491,-3.042873771254448,-5.586233266546164,2.2013875776724774,-3.031801900787643,-2.237827490896666,2.022464698252263,2.0936924036401576,0.4582686861276119,-1.8122918267221428
3.1579419217440914,-11.424126073849438,-3.475733518467612,-6.758122801280859,-3.729790648398993,-2.2255964912869635,-0.7987314218318222,0.7408397884175231,-1.8152051194897705,-3.2501568727189616,2.214149224031754,2.408444614799929,1.662074604111743,-1.356663701680458
3.198619883552904,-8.151483926310025,-2.990862708234507,-6.334331964647473,-3.570623949507366,-0.5405147999265821,3.165429664655228,-1.277989629214918,-1.244483666379765,-1.996481579514282,3.5531883506321296,1.1313062753270184,3.308031422139008,-1.046241560270464
3.723937696376455,-2.6057796995522358,-1.8189652772457456,-6.998909252837296,-3.91696940842857,0.8743265870741843,4.527896586314922,-2.434720063888454,-0.7585281496557227,1.1095225915830964,4.533231359362223,0.0920990050354446,5.7990815872169215,-0.9447993315617716
3.7370996911577774,6.795113110420713,-0.2324093635606847,-7.293985186864805,-4.421779742251543,3.3858938409063235,3.2851526073863697,-2.2881373335196264,-0.7283530686298527,4.557008376995444,5.33855599761551,0.5532071806608001,9.203848687427875,-0.7762879746870466
4.173659170053023,9.970653314029166,0.8991837626205808,-6.08560211217206,-4.118535264688738,4.57512332894647,1.0719811161811164,-1.550269637503369,-0.952229670711043,6.841689495606493,5.7291187099110505,2.283131012831323,10.05827732268925,-0.0700914905794802
5.437499668436963,6.306911179908491,0.923525287032258,-3.4284279219602745,-2.210458612752214,4.154313614286486,-0.1905521267600464,-1.2642626718895,-1.4613671460680997,7.347974037079368,5.4082588656430906,3.997349817526055,8.173274175839571,1.3931432376440331
5.9590440612815545,3.700851534827022,0.0413445832786485,-0.3239437803739289,0.9494414114267776,4.204509202935587,0.205395804880702,-1.825479887322567,-2.4544747379799943,6.336577047867898,4.33509464091096,4.600026769904172,4.739931257760095,3.244830039782447
6.023871812987553,-0.1420108726246304,-0.8320050813314874,2.173775588397059,3.7500892347587262,2.738787914586852,1.3299217562983574,-2.74757427999556,-3.930239807086587,4.275741233067326,2.2773107293754915,4.049801039671397,-1.1963231442002569,4.659724779821051
6.657934727371658,-0.5663142732080716,-0.831092211577225,3.615620856770042,4.44052746490596,1.4954342802142866,1.5841092812000086,-3.281848509003196,-3.814035145815581,1.3646299661027317,1.8343119366723517,3.1721931359174027,-3.01720292770354,4.90643910651812
7.707653689244839,3.7872211113243424,0.1786830581815364,4.148024556047288,2.597576814024996,0.7700745002295862,0.1755653613364949,-3.171002704774799,-1.9487880044614745,-2.214214689304907,3.116038386998171,2.7618603849093484,-0.2602183662698639,3.89254125035479
8.486127529314041,5.372754770196845,1.5890802459702864,4.113059746099431,-0.4131272618591575,-1.597735230773804,-2.196398065522938,-2.759517094037605,0.6819173193742152,-5.686053545239666,4.246181236441775,2.8987879161549523,1.891691298241619,2.269011759081792
9.136218970996689,5.39020270401668,2.651711128061333,3.7672633279352064,-2.4833796010026137,-3.5607064980322987,-3.980438889658709,-2.4095979506069134,4.648904566914895,-7.606326606749793,5.81337023390589,3.086750918840213,4.982888647082359,1.0110635309350915
9.50978298998254,6.000983642511625,3.108255308185945,3.3037771931341364,-2.4206955773659797,-3.8651104141492985,-4.069275874501279,-1.9181026533206704,6.91580852620561,-6.703318525341017,6.374663870842657,2.9746034011009077,6.089282512651218,0.7949285483487278
9.473147964094496,6.05606942873786,3.299472830543481,2.971978091507966,-0.755305826848713,-2.2024436118565527,-2.568389288214343,-0.6357772194698548,7.226749607742319,-2.9993608011477244,5.595563855873479,2.8554981326076225,4.356932591849697,1.6193733908400327
9.381929470870135,7.383010904507484,3.722015058608157,3.042747258350404,0.9511517245783274,1.0281236913542542,-0.4568728778876254,1.7510788669066275,7.369202745226453,1.877440387415402,6.3079601717220255,3.379691666564362,4.553760871458079,2.902747467757213
9.16147635641839,10.17657503799813,4.49888855548887,3.617829050206387,1.5581060973239902,5.363995134597867,1.3807617157722314,4.554786311071048,6.555061442315581,5.60450525880384,8.234560260854838,4.742199946872754,5.933651136658494,3.9313357612222193
8.537362118175984,10.282399556714154,5.258138487780798,4.484770388176546,1.1969338400312153,7.3115640787981935,2.778615451442331,6.297964337060655,5.877007084969985,6.582441377779295,8.10623786723899,6.202546814517645,5.234332637490638,4.312689185694885
7.532448602114728,7.844154688632396,5.486859428032447,5.173938905182045,0.8379820117870227,5.211912973859682,4.062439665574035,5.767953812204453,5.488064946169586,4.727884514276862,6.207972807757197,6.529795101188721,2.993723662088588,4.134472017452277
6.754374192006211,5.017436743766179,4.977846490742338,5.175811412776817,1.1453223310072405,2.9076842941895467,5.343884727958881,3.0552473659173587,4.713063152755828,1.183978219286432,2.3467890574876398,5.045558768881548,-0.5418776109809477,3.772938688795725
6.198247668634973,0.9487468965403644,3.9408456643092906,4.166355870225018,1.8014598797837111,-0.8752724190546664,6.1399940537742825,-0.3390755215641423,3.840282035401661,-2.5270967414878687,-4.265158391309186,2.290915727538777,-5.9904832421880165,3.54649678400277
5.376841699905287,-0.989478232067716,2.7369682228630268,2.154762267620594,1.926152991660647,-2.961122336174326,5.751764894681182,-2.462855444634049,3.872316203396271,-5.124938546978861,-6.351326527217737,-0.3331260857870062,-6.853663160810025,3.490891449942435
4.408852905763745,-0.3251261298128586,1.5916131373345372,-0.4234413190620985,1.103383115491372,-0.2128091469428305,4.068543318121413,-2.1777749954917494,4.894274492320383,-5.748532998297303,-3.6531300644903535,-1.6049260359846726,-2.721108040495201,3.4015885476227057
2.356740493461722,-0.1381875544338478,0.6144844347118852,-2.6696814069756147,-0.0447385320220772,1.964765019441935,2.0090990541499885,0.2365235328308701,5.714825848269344,-4.053157855577896,-0.8617542036710005,-1.235454727157948,1.2960022524213295,3.065353254641226
-0.9453083838414056,0.4310722564233925,0.0368756775616665,-3.393100232746508,-0.3302914222063275,5.140861697031783,1.073167507337546,3.481216152129714,6.554609934249022,-0.4821330600933595,3.693952672415392,0.2443531158549702,6.701490336230141,2.462723595096116
-2.447836673490062,0.5250966475778888,0.2584631948547624,-1.6612743611833825,0.9111120846543947,7.1929990965769655,2.2355031289009712,6.160256882671199,6.279168550148354,3.5836552999107654,4.937860943942477,2.1204770515249782,8.549589019105943,1.779739289912497
-2.1892686363694907,-0.2969942183836138,1.491399517986265,2.406336182834348,3.126865801485593,4.338258499943478,5.040314401630228,7.463922513587384,4.567034469324631,6.288877042618633,1.9955029241361653,3.9027734079328185,5.772887699647948,1.2516514932553773
-1.1826550553473327,0.2520466358400281,3.3220162984732684,7.19300668547299,4.900120901580304,1.8081123154594827,7.702952601233797,7.266836773945446,2.7134891486524744,6.344840842295286,1.5803315349350644,5.225261913422985,4.065295648980602,1.001922693763507
1.2942778877244343,1.9550019671028436,4.753590531042724,10.14481539412754,5.056855863518689,-1.53258774631367,8.276149153074272,5.881602630760979,0.3601812957801674,3.920393499215238,2.5364583515573207,5.660491092052771,2.084839796291711,1.0151438498004244
1.5986464197964834,2.767278136304271,4.8851313052313285,9.328819579541188,3.589258981845646,-4.107636521458323,6.062352723877611,3.872869464344916,-1.100106062821694,0.5909354284729353,2.632814740811258,4.907767474130654,-0.0556233879344628,1.233279388983774
-0.5187471004294391,2.976366699097836,3.682341187356717,4.981441000413487,1.644801269365037,-2.410857398681464,2.178086663111051,2.0001424790213167,-1.379547372424777,-1.7267283605575203,2.824990776369236,3.194872728643228,-1.560467775660738,1.6410238739619818
-1.8144260374898973,0.9343953840249196,2.070238431430443,-0.3194628174232589,0.6232555858338902,-1.073797205982948,-1.2135767812460845,1.013169350142321,-0.7988549982406433,-2.077185199620068,0.2613673580427337,1.296004420500095,-3.4319145581701744,2.2212182052716707
-3.0861220712810185,-3.9482697470284833,1.1474139436085853,-3.3279532599577184,1.122503485526932,0.8118373587497443,-2.4480641611188503,1.149840095600318,1.147635427602737,-1.022983738964343,-5.48608339108456,-0.0708974240265014,-5.349400114969619,2.7958822457683272
-3.3172609594567626,-5.816938214040395,1.173665292891866,-2.5325406258694945,2.5357334255573534,2.3722940681227804,-1.5089825624996034,1.6866761435615918,2.068543030334125,-0.0701162698912858,-8.290191438002589,-0.9324545277225584,-5.5361643756691485,2.911759539053464
-1.959082159846243,-4.854657214922259,1.2709594107392412,0.6702847444075661,3.559989815136593,0.785125392967372,0.0747351528299646,1.1572331921538308,1.9293211633062248,-0.4463807425730155,-8.520989789685972,-2.055597783396255,-3.8712549115624673,1.961435150528444
-2.0083194491093885,-1.9996687439060836,0.1758233906747355,3.125718941236978,3.1950126531012835,-0.279013461563388,0.4599781941325944,-1.5865384223155323,0.1754429113790934,-2.172987205802314,-8.935870743117695,-4.117767338289189,-4.0559145062742585,-0.4139168193147222
-3.211762170856467,4.163550598905129,-2.568856724179575,2.518735512342713,1.486851800670915,-1.4996327455792886,-1.1223386049187858,-6.161919515024263,-3.917957851062877,-4.096266296835318,-8.329274352981598,-6.804166293083767,-5.888588940686011,-3.8638015551754754
-4.338077991647898,4.4899804913841,-6.024969788998103,-0.7756502520298421,-0.5220264042430731,-3.264104563850166,-3.858980539941796,-10.413764222533018,-5.25229277133184,-4.801417430002515,-8.230209588750624,-8.759421586794758,-6.186967063049304,-7.225515485190083
-5.932155997829663,-1.4261878917933932,-8.432950820792165,-4.181840888668034,-1.600700561893201,-3.5361245349466506,-6.050160256264946,-11.658352415212365,-3.873436136477225,-3.681107333906135,-8.899608320940946,-8.574304492724652,-5.542042042261174,-9.062591343975363
-6.402413422439781,-5.97734730715538,-8.532940181976315,-5.284273872790198,-1.3083133383045782,-4.428410168872758,-6.430571626692386,-8.658847631869838,-0.6321575048889704,-1.3532578226783514,-6.646989697194766,-6.020310492218796,-2.1374763345050245,-8.6349894271142
-5.5384681602112735,-11.114098692034258,-6.573092180206516,-3.935450195697465,-0.399778582738985,-5.889721411050589,-5.110279981338664,-2.7758388517497687,5.755819067666303,0.8422008985992879,-1.6150962230209105,-2.459549542347865,4.7792845278679,-6.5924269966397455
-5.042543261250212,-11.477238573186831,-4.164360424014615,-2.249838824433229,-0.309367173097165,-5.865342029251712,-3.4572606471853278,2.762201276584981,7.926052766413548,1.8192787545833964,0.8472323533388475,-0.0063301936045734,6.954498987673265,-4.698603785344657
-4.548114481992713,-5.510570482597611,-3.0524446678835115,-2.556760411698352,-2.047212168548396,-5.64038874354399,-3.04377246262387,5.033145998894858,5.612024288449328,1.4245535879454794,1.1320671294612694,-0.0322867814680996,4.450528370182866,-4.59370842274531
-4.841201045267255,-4.893901214542981,-3.755393179450357,-5.208694425755783,-5.319652481846328,-5.167462169105916,-4.45040659988334,3.4028689183459253,3.202242524663761,0.3588661103331865,-1.0298376683911217,-2.159438555769641,1.2053974820476163,-6.468509071695877
-6.26186495637666,-8.527109955613447,-5.149382751170512,-8.213879711904493,-8.55192717444281,-3.230880517013919,-6.790923119778309,-0.1867602019655208,-1.011964253315281,-0.4756765896577759,-6.950759886687451,-4.531327523977245,-4.622480409499026,-8.751650851236109
-6.109753618221362,-9.584493785786616,-5.347007316756486,-8.959797798902152,-9.832748475532838,-2.1580284967396888,-8.270512844040283,-2.766449072017356,-2.6014672733782325,-0.6153690873770685,-8.628883723282296,-5.171331453480144,-6.327648931835649,-9.177937764743138
-4.5046676036127655,-9.943388307008592,-3.1867666744319894,-6.433180586811356,-8.138375624191326,-1.0748164440170318,-7.368115473175674,-2.4606068924070112,-0.865131496858668,-0.2014547603587497,-6.046557240344661,-3.396069599855495,-3.161811381383338,-6.4811718018398095
-1.5488943742020036,-4.979127360235399,0.8186497583578598,-1.9955405585035653,-4.024982303527027,1.2863553224616386,-3.856134501527619,0.4001417007307646,-0.5403295230999691,0.3145231268532877,-2.463171000763818,-0.2243034632357181,-0.8650634503615041,-1.4133119912338743
3.421153044386179,6.68042879671453,4.7661402356369695,1.8282396932878944,0.6314626243918359,2.77798726788523,0.9653970071776408,3.834537370576968,-0.5499913657210643,0.5705303875634824,3.98187694401022,2.462213081588831,2.196282652230273,3.694305416947657
4.887495431781281,9.80755505800664,6.603140817393807,3.33207889328879,3.672519271283592,4.058606409869121,4.944103734013736,5.795408387276122,-0.7618262346955244,0.4788636167857656,6.395740390351132,3.274896013978074,3.0269918200882424,6.488531708506423
2.626397968357437,4.829365669124498,5.395943630149061,2.659129138776664,3.8765333885848823,4.394154060422556,6.284592685173785,5.51766220204099,-1.8456248178370829,0.1663207259949546,4.215876627144303,2.146027665813097,0.6734794983954328,6.120769846629042
-0.7064250869964471,0.1327457304078676,1.8094145418531624,1.221984263310492,1.6733985197687469,3.170991483814718,4.625303258134424,3.76301741902632,-2.4454213484614518,-0.1536670893795282,2.597740412716232,0.1388052845872045,-0.9767421128205188,3.674392237079065
-6.483787729934117,-7.387276436575304,-2.369007924879885,0.3220962412418433,-1.10165322176372,2.1945322969943506,1.324315061066824,2.026651627908384,-2.716963934512321,-0.2477755361298328,-0.098324641683353,-1.4062087896374365,-2.833105175179178,1.2615834553397915
-8.486201167934867,-8.232651544100461,-5.244638797421301,0.2707094276174322,-2.3696434688194605,1.482130263476878,-1.33549734130305,1.4465518833650353,-2.9216847408540008,0.0811514826052937,-0.1165425930975017,-1.6566080496037154,-2.634037698079128,0.4981057921462266
-6.121183979874746,-0.8224558200812871,-5.768563984685278,0.5627579454737752,-1.2155084947515455,1.4183681029110553,-1.635018833037006,2.15764143586245,-2.825464439732025,0.8495301345341428,3.4159658947985325,-0.5652249457285912,0.3820656023960812,1.4764650988479833
-4.19071849957404,2.4243613872758587,-4.165488021287096,0.613079784963884,1.4562422562150217,1.9518038637100696,0.3923257929264883,3.3590393544837,-2.3447886122923465,1.723835420092101,6.263533035248479,1.2976572563569273,2.7495387869857155,2.973825029756777
-1.168286859421243,3.654762185858916,-1.6452447925262637,0.2555140571060237,3.61563013922669,1.9349959300541104,3.022895066635847,3.8937608785070106,-1.4180927245624568,2.059643679081745,9.46696218170676,3.086188156482716,5.139093761748316,3.6846332117642335
-0.3355818703721469,3.574099339684305,0.4413310539137209,-0.292451047621773,3.715399809405225,1.751101524336216,4.217250157521614,2.955230866248165,-1.3267604584882091,1.289680806742882,9.800208967313925,4.032327064811566,4.818217544731338,3.4255807114077523
-2.480601996479606,0.0657425698855789,1.4810771678134935,-0.7085498253329845,1.9228328460547777,1.6383560010668434,3.2480465780571297,0.5774723517667771,-2.13335928747063,-0.5503487400133946,6.375866796152145,3.7564542763296416,0.9502762932043404,3.2305337781305257
-3.2624267208719124,-1.3649919687853074,1.880834600953655,-0.7291937772568683,-0.0949179582731478,1.20163894222557,1.2139285472724384,-2.328621522920741,-2.3729533985444435,-2.632498366673936,2.455452705599687,2.427924946227316,-1.3564649201254415,4.1927405590252
-3.5347276624281614,-1.061839965904805,2.516183365258096,-0.1665168520593741,-0.6495141435351479,0.9944838555142416,-0.0014512646234245,-4.462214406017306,-2.2873369036767786,-3.777982892527597,-2.989225687190213,0.6420128587924443,-2.7896250749662936,6.103249497052063
-2.7866925677660395,-1.868631483927407,3.80992313007209,1.0371808777547835,0.5729436595714308,0.947767965388035,0.6145227775549742,-4.920564297892955,-1.987566382560915,-3.275385367868642,-5.0413744368970335,-0.9428093730249588,-3.1653674037778226,7.263409929883448
-0.2702176177164702,-2.825957815118869,5.273679501069952,2.663818506461649,2.4493905380000065,0.5687332995522856,2.40173077862088,-3.785160730040901,-1.214594917744073,-1.4161343357369538,-2.9065100245330933,-1.937198730792712,-1.4613552839432356,5.852967065300299
1.298457171264146,-2.493868968224472,5.940665792892236,4.152811796770022,3.6306966237774585,0.0368950962210903,3.709648278803965,-2.0457460309517512,-1.6379807483332116,0.7197469673462202,-1.2437326694909858,-2.2825625421154663,-2.12129081298777,1.7240878544072604
2.170547581839028,-0.9911420895036102,5.270029894028545,4.792065118021307,3.748769259803502,-0.3896111394659144,3.3252103770440757,-0.8856200013678988,-3.324131055709061,2.044565653417293,1.2535310370205115,-2.090841077202869,-4.999519605748036,-3.08382108713931
2.525966105257134,0.9117045072659924,3.655521701264211,4.131181156276535,3.451074091568521,-0.4803455268443796,1.339953869469298,-0.8984538448455406,-3.776121639125458,2.1415196754721224,2.046586032446612,-1.5193101311520727,-6.175011958363435,-5.768067360797739
1.798376055892005,3.515995593456563,2.0807497601624023,2.359854757442176,3.380302711383634,-0.7535724437846825,-1.1550895522247029,-1.8519035185935435,-3.231602571196448,1.335820205412946,0.3478743267135426,-0.805802890334812,-6.361576042686541,-5.002053220583609
1.1118520887547845,3.933708571477184,1.2937266717316975,0.3525275039578637,3.3078517259771014,-0.5360729991111438,-3.02451000266859,-3.0700054105080103,-2.545809351820629,0.2551373169432762,0.4155712442930873,-0.3072509113093864,-6.00662875014784,-2.0235698010370617
0.3211601538983109,1.8176548789536924,1.2684788021079192,-0.7594815863623547,2.397199247640165,0.1235268026965964,-3.7450899415329193,-3.9464398212949536,-1.244391934990157,-0.6202107242077939,1.5862076316564626,-0.3432516107312324,-4.455859586078773,0.4197391950202371
-0.9835819615200084,0.7671688674367577,1.3523403363507067,-0.3237006169020744,0.3069638620125658,-0.8761595877207549,-3.3749002475989194,-4.136385964165571,-1.3106614703113866,-1.0802479187476444,0.904867824375584,-0.9196301668602118,-4.82147095577228,0.3385431428569214
-2.637879759126755,0.1578129548250378,0.8357322654647417,1.251452163660311,-2.097044631491204,-1.2501643523885686,-2.2271662983591454,-3.4975076743771725,-2.929252489523281,-1.0856349093447295,-1.151807390568484,-1.641382378274096,-7.209072648903027,-2.024174702742246
-3.825521556386305,1.0571498163377877,-0.5851752266843175,2.577140201526092,-3.2834620362850044,-1.306089425576208,-0.7803107993291675,-2.1490206380831824,-3.1557630117585376,-0.7236938355617922,-4.67532147236817,-1.989525381488088,-7.680061809432206,-4.737313592044108
-4.490426079458746,4.213417928808077,-2.7121292119288065,2.14834239134572,-2.4247202151321945,-3.340004908005577,0.1840587110297235,-0.6884458102076028,-2.327390110305203,-0.2596503573123172,-10.26331824724598,-1.7519666630637818,-6.732872107452784,-6.082560793782546
-4.535342548528538,4.867479607913703,-4.988534659303234,-0.5261200970831696,-0.2751288487419399,-2.6660242416309803,-0.299585785531816,-0.1156094824422742,-1.6855032098835796,-0.0664510955983934,-11.930121909506852,-1.2037171831577391,-4.808895536006308,-5.963194750422223
-3.681569486954672,3.227193306841285,-6.684397247258878,-4.393371134516593,1.3619325520279737,-1.880283836066249,-2.733622716251691,-1.1507850679661815,-0.7320881378923035,-0.3303441986175632,-9.40423667826914,-0.8599505547474593,-1.136991037948549,-5.58944942185099
-3.6590670638015097,0.5034811333794172,-7.108802403411553,-7.428756189770999,1.1756824529211634,-3.0985249380147204,-6.422363540278864,-3.4067069159563586,-1.4108470979996064,-0.7877790755956706,-7.127269403213007,-1.0287999743668328,0.7092638082795016,-5.961316225474297
-4.4570685224971625,-4.362105944611208,-5.929026990921285,-7.956822278473943,-0.4864267504519599,-0.9115610735907737,-9.481141160433848,-5.35589472298159,-4.001821831920328,-0.8563621494311433,-3.748658617050313,-1.5595195820021537,0.6550001537968421,-6.797382400837277
-3.946242771515194,-5.5869477661343705,-3.5052499710566334,-5.746977386226404,-1.918750163721616,-0.9773888842663536,-9.935538331269017,-5.440085159525061,-4.56441083487262,-0.1530906581003615,-2.3809257890970907,-1.9767923025709424,0.9655925354108248,-6.968086414989278
-2.374114797492318,-2.8299887714895355,-0.9373650619668727,-2.098669314834356,-1.591576162655686,-2.994280482431633,-7.232536160609559,-3.455939180023374,-3.3754765739367376,1.075004135689215,-3.808605263446984,-1.857558890796744,0.8637618327525348,-5.85608581058476
-0.2481861259119932,1.2527811977056202,0.4087116370397083,1.0557019869948956,0.4456733980069083,-1.814155859964512,-2.8967353410674432,-0.8589258161840783,-1.616566014720591,2.0844840955558848,-3.568387473942773,-1.1459394148161908,2.6073716393710065,-4.114326667765436
2.836407669796494,8.157190055978452,-0.273823935891712,2.294623021777796,2.550222265287581,-3.864387093731346,0.4013657336855099,0.4408335093843103,1.526183217268393,2.264380259539239,-2.4599722712238865,-0.1896117704165855,6.618046241189722,-3.010667368104168
3.7022892231083793,9.993613793211043,-2.624692475986448,1.3217725030376384,2.8628997566094894,-5.0931841741929,0.7860326788167962,-0.2767393441539205,2.504404542599137,1.656195541750075,-1.801657067671926,0.5068544050973509,8.04098155198754,-3.11577889849066
2.0994540559361434,6.073139782836776,-5.2621416344617575,-1.1894943120984611,0.8348425167481528,-2.601186682121216,-1.400521256398274,-2.004589988531396,1.0725940582456626,0.8425249678595788,-0.968310846977262,0.6328836326725433,7.215039024203568,-3.7885779664447576
0.961921194477734,0.4106751607602851,-6.671988115543495,-4.188892809566549,-2.4157537125472377,-2.7273698143728,-3.879977266709957,-3.042200833999848,0.4515805940983864,0.328039936617875,-0.6503760886822415,0.2869647839232834,4.7156483772119975,-3.984697583530215
-0.4242708548142142,-9.119518151265993,-6.188607707187218,-6.777067665366045,-5.118954546662816,-1.003281642968374,-4.215215836382382,-2.533362414770182,-0.125844632754342,0.072301313911387,-0.9692673064075412,-0.1013943653315871,-0.5482175004965771,-3.418538513412229
0.1123236382050245,-12.52573125902857,-4.286881116180933,-8.405110702476556,-6.224615735964594,1.7278088350224237,-1.6326034964860776,-1.0364714966336264,0.5446661536813414,-0.3359967465727713,-0.3722916884607377,-0.0947320565274392,-1.9573103424093696,-2.7336205669442544
3.2002019205843824,-8.89644456673163,-1.986642488513044,-8.819832353302626,-5.937027674346574,1.4000742168093483,2.545390854583305,0.2739494397257709,3.0424213897018904,-1.070113455026564,1.0660494558783773,0.4288463420727311,0.7245813469589709,-2.4940802677655505
5.972865828888739,-5.063624538827619,0.0334215627098943,-7.974187222353756,-5.142291339841309,2.6453366790707045,6.074517098811001,0.8192283900505388,4.556756829547817,-1.7113506928414175,2.164761581140348,1.2085788518375111,3.601675256038473,-2.191629410127484
9.070474630040795,1.4966166941252268,1.7871970807562865,-6.021049947061024,-4.477857657139346,4.1494368707561575,7.493546230099664,1.0263878472962409,5.431576756267528,-1.5744466912998378,3.190103432415132,1.8369672118084088,8.215762156503152,-0.491852556410195
11.104906528389655,4.612292572676456,3.564609174249143,-3.327794671887052,-3.93579204903264,4.01487146812982,7.010610050378443,1.6853031889227077,6.161257939952963,-0.4032667607136906,4.397901023142354,2.083762560682314,10.060671344107975,3.422034126217669
11.52256733311722,3.211522700927647,5.314793693457656,-0.3974603117338695,-3.1763034146544715,4.779893461615828,6.057918608149191,3.0668375793850275,6.230422447046354,1.2843598383793555,5.631368955445564,2.030968936171022,8.469091678430978,8.789837760506849
13.022674487555005,4.384088407880032,6.5490341700745365,2.296615694905212,-2.0225322017359257,5.208790515028584,6.073107669493304,4.708059921830633,7.120201647947367,2.5729798542167712,7.257595778977016,1.9300749234092291,7.839000540407364,13.62821137324988
15.207081835308214,6.6318264021189695,6.845594467180869,4.433622917254778,-0.6029712266058258,4.499591719416765,7.488353495495584,5.942626422131187,8.843722275698784,2.8877305504708426,9.30901393785562,1.944082907385603,7.048379433078093,16.179632057675235
15.803772744901677,8.575897967598824,6.342436664601252,5.84063243381282,0.8554351266169853,4.551986350810526,9.5370214002747,6.502523633209713,8.986813116054849,2.39510683192406,9.864249888068034,2.013301722039282,7.108196421879939,16.075281139841803
15.0841098991973,11.160971543862724,5.646095495054261,6.4407477768062735,2.2041158562874568,4.785253050185408,10.837425203985593,6.585210454136879,7.700565181100288,1.7453758405728586,8.839873710622332,1.9438812250376876,8.686559545783906,14.233498997034244
11.878951999057472,12.575776950075014,5.272587783813571,6.2876144052185,3.3020764711486503,4.431479973455012,10.293902634038528,6.448992611767489,5.744016464805316,1.483778699490073,7.809166835236789,1.6147102354149716,9.534508375824704,11.838731964208378
5.566574326998862,12.716648465815933,5.234474345968562,5.655745083078483,3.87697356265516,4.4939431710117,7.7850924019867165,6.0643577242474285,2.604328472713428,1.694735285386482,6.3485808694361054,1.1123714347977538,10.033799725541504,9.523665123994537
1.8885658087888328,12.04652500252013,5.14948203833031,4.992448310566868,3.607905264889314,4.214958747018788,4.2634267571093325,5.16697524886127,0.9523859968441664,2.100137148533926,5.011305594190735,0.6769687570937268,9.319021042296756,7.390921987623344
0.765589926719032,10.088900678274555,4.635250701438164,4.64954380359233,2.432511334529753,3.4393940816792608,1.1909114968412986,3.569232967934795,0.990657539778464,2.369044652316834,4.050556112085009,0.5031915291278377,6.918192762573879,5.482388717473908
0.2785217564234195,6.0226806177461,3.5447228568469638,4.631948591947934,0.7700943362244619,2.907284805595152,-0.3651463325646116,1.3919180725340912,0.0358004561206589,2.3129442975650534,1.4904284759574689,0.564034597049007,3.1677187509288145,3.9533685759452055
1.767842787578964,-0.3832239860542727,1.9558984310702157,4.6899800047411855,-0.6199996639257002,1.9464086303713928,-0.3652380030627569,-0.9037956083009338,-1.346689836511551,1.9041160901518523,-2.592226410352736,0.6275255813504401,-2.3923510762441844,2.817293060144632
2.096576065229188,-3.8514245714535056,0.1673847432087249,4.7169310446158885,-1.0885173785707265,0.845181483263871,0.3130503516974432,-2.5853114687753944,-2.10139587633745,1.2514549527829733,-3.87933334858114,0.4888539130502867,-5.188769992301506,1.8100980037418888
1.163932818157213,-4.2229390083065415,-1.222874438771541,4.970066605278257,-0.5155321649316811,-0.3620350962564829,0.6299132030426637,-2.8137431036082834,-2.5411571015843406,0.5798627645756245,-2.4256541846698725,0.2332195251171374,-4.940402235086893,0.7644296562253583
1.5679214982404133,-3.7494376313521096,-1.4592282933056158,5.731254265701094,0.6243840852412248,-2.112693324348417,0.1381126093410962,-1.0598002609732315,-1.3944687664402204,0.115818820737747,0.6164184216766936,0.2565265979531155,-2.305415482797581,0.0844948214558733
2.6994774855551924,-1.1010955645555314,-0.2031755232501737,6.698238454094007,1.5974957195607669,-3.816803329746008,-0.8804874349248202,2.286475274501969,1.6134302847265831,-0.1235919381780235,6.312806389378308,0.9425363135502368,4.071499771638739,0.5477658576005471
3.3054679456774245,-0.180401698009364,1.8615569934371037,6.88785783477842,1.9084073190617656,-4.597846506571539,-1.902328448941612,5.648923861467402,2.3444966181346247,-0.4153508563165395,7.15170892605073,2.222550318631104,5.514671296894561,2.348651298801075
3.634253172007612,-1.2554125035050605,3.1593240149154145,5.418997209832936,1.6128695727822002,-4.182859168875523,-2.6982159215618378,6.939276922032215,0.8720664233468153,-1.0940994835586757,2.6418191233146646,3.432878324931929,1.7322382431843255,4.347337578970217
1.667437679171056,-1.2613273752016056,2.3097253706243155,2.5288511130777707,1.2191837244244468,-3.1767400524887743,-3.3880049100022878,5.005938467973051,-1.3930058972830413,-2.1642287384340677,-2.6658166794181057,3.7003970005309297,-4.06069653352629,4.590273264466646
-3.0409027444749777,-1.0699581444876525,-0.6400137622476834,-0.2974051662106269,1.2354213598731256,-1.4015509103099977,-4.071698827741516,0.7212771566969636,-5.412729365115438,-3.202991624804678,-10.64275724811922,2.627340800241999,-14.072879887342204,1.9646970006998323
-5.17354529853012,-0.6720083758291261,-4.020998081078529,-1.4422271866137848,1.7015592696583646,-0.460127725725003,-4.555045925937144,-3.441305933532968,-6.761224364772519,-3.7445831305159647,-13.43305700953049,0.7172470140806961,-16.370020537808756,-2.49732978319061
-4.992716171505639,0.2843233163692503,-5.719557462803248,-0.5641409825385697,2.110594012932117,-1.1618453816660022,-4.5154358478122365,-5.22162546353116,-5.132143694745112,-3.7604599496959015,-10.040463658273358,-0.8780932527252059,-10.094257626910508,-6.09832639128369
-2.303262298051933,0.5363132584654219,-4.760357007940836,1.0838431108932909,1.8424176210718797,-1.481262143017278,-3.8975601173748746,-4.26259725344257,-3.450554204633668,-3.658675417539948,-6.909712708242803,-1.1695683142145388,-4.007989812903821,-6.56149293961607
4.237567805193292,0.1171377677767736,-1.9210186323713856,1.7943240421388342,0.7745110779556814,-2.271413865341996,-3.0522407246494936,-2.1543284464813333,-0.6445687029374368,-3.74432978658637,-2.0166243592618787,-0.0852113572126196,4.7248984832237175,-3.920710277040049
6.233696250155149,-0.8087281193727326,1.0766629771373315,0.9182407263552436,-0.5027625106865763,-3.2376709851992067,-2.442007361409514,-0.8532380081009858,0.3967669292482884,-3.770437604000815,0.5479212822247265,1.4538779894669993,7.421614362915304,-0.4645384266016279
3.629441665971658,-2.543741584835868,2.946244340412991,-0.6930472205516578,-1.1428900718840185,-2.981007484041405,-2.2375207602417344,-1.045471709157443,-0.819666412389532,-3.188228355725593,-0.2461376260383934,2.235044798879006,2.385501121505215,1.240754697298411
0.2008100555926235,-3.828002795894596,3.538894353409283,-1.6446643299661776,-0.8105683094181373,-3.133199054866439,-2.223484260579742,-1.9508545756742244,-1.4287582438169344,-1.89466866333452,0.544626987700725,1.6923861874014232,1.293223133454452,0.4510889016768367
-5.990595524717993,-4.656629609738493,3.438609672191964,-1.2963128618808115,-0.0264457736012779,-3.69448258317296,-2.060341427423115,-2.4837646885167626,-2.178591226816121,-0.5863693719915872,1.7862287204883005,0.3241749831899785,2.0719114430354604,-1.3833533315925504
-8.745512883255014,-5.00066953731378,3.110289697358008,-0.1291105018540914,0.298765934594849,-3.084497422445767,-1.5802886419517996,-2.3476894819156,-2.195427999313348,-0.166032958246161,2.054573424688999,-0.7555837184307759,2.389223001786037,-2.1602413190329752
-7.473877087129524,-4.514572533415333,2.5232710776155827,0.9932577435700108,-0.2671741644806751,-1.9984331812076657,-0.849342638211894,-1.9547879924953016,-1.0343351585757214,-0.7383213893894585,1.8967396488826669,-0.7512960813015717,4.022867903528139,-1.053044958648523
-6.932072369360971,-4.697969359679797,1.4766469079376554,1.6945630275326735,-1.274311394790793,-1.1421547581815292,-0.0507495057876985,-1.5423382018699865,0.2228619804237951,-1.3389476482984932,1.758658948875348,0.1912620764209851,2.057925605175947,0.892067392242307
-5.621960779236113,-5.499788084123768,0.0682505063655503,2.127507338975774,-1.8941526579441132,0.88640791308711,0.6042569057839726,-0.7386095433892512,1.9294468909138829,-0.850517087528142,1.5462914757560886,1.190892590707188,-3.7477408067858695,1.8543425208854067
-5.240736946058765,-5.983750336376556,-1.2835794851732971,2.298150778661647,-1.8247428533062071,2.2432381379293176,0.8980011989138874,0.8500178351060748,3.00355212904996,0.758699479267249,1.9499562517497724,1.4383663832413776,-5.79318647380324,0.888003303027503
-6.41680073996811,-6.429459753273971,-2.222769886179436,1.652459849501597,-1.606803298366854,1.276559564046543,0.6931553443686309,2.8049751068939117,3.2520689588558573,2.216461474056118,3.1374292709668192,0.8503525161022605,-4.732151063682036,-1.3514315565970438
-7.678850298833166,-6.506733137808799,-2.7160320391590025,-0.4074578805896904,-1.9303964868656884,0.9422173473774452,0.104988911580425,3.963236697270683,2.5679342042519835,2.095907243868414,2.2658084486173315,0.0059497526326981,-3.977696817020301,-3.315366320247904
-9.641387695496055,-6.075855582160957,-2.886161862706201,-3.546537492021685,-2.62968110487219,0.1269651640047079,-0.4622322936252132,3.4884015956562107,0.5425239534570981,0.2278374675864718,-0.6723709959579219,-0.4860940724807427,-2.1312683062110875,-3.9497079369680073
-9.863957454756177,-5.337325394471971,-2.711339109499563,-6.210205749360464,-2.5399931777559432,-1.507097717044473,-0.5986095655638324,1.8142049857477305,-0.5465583330216809,-2.063184786563056,-2.130595054105642,-0.5237527043406867,-2.2653008911129686,-3.516537271697597
-8.061690542331997,-4.152263813348985,-2.0737810097204914,-6.600050302374852,-0.6001104436539679,-0.4650235102656985,-0.3005958808911586,0.357560852052019,-0.73686668710773,-3.1480647059765783,-2.538458838513291,-0.4687584218524816,-4.88664225083813,-3.1946728063410696
-5.190492054200543,-2.795607286993985,-1.153564901251208,-4.185642975953099,2.780677165872609,0.5844853436378641,-0.0528077374702329,0.1890293549184898,-0.1049180134920636,-2.5013271166376496,-1.6664955639002974,-0.6806155220915553,-5.753194730260016,-3.8863469571237736
-0.5294293289935637,-1.266308376870205,-0.6016043166903389,-0.3491720813613246,5.581438162416127,0.4148325191974802,-0.3789769167443033,0.9842448070744484,1.9406006586905629,-0.9470919763223932,1.259190661476641,-1.1784550938343497,-5.5155926702082345,-5.323261254830702
0.2020402172270305,-1.016642978279069,-1.066499386941583,2.539970452708713,5.707166577199136,1.7350230016923596,-1.246170003198408,1.3315561683743482,2.237919127857306,0.3760010116751058,1.93506224174742,-1.7413730943276189,-4.982869564602104,-6.281395313509174
-3.428876430699987,-2.2662945867508903,-2.434229455913834,2.887601879151318,2.955545085690539,1.6756435075517004,-1.9615253224406564,0.1139054900775704,0.7756284796433642,1.1383025149522314,0.404186047180558,-2.222988520498875,-3.441786539339039,-5.720704780259386
-6.105632722923164,-2.5901867559536407,-3.653943261343116,0.9630391371065592,-0.497823672182859,0.2912995555194804,-1.7573856910934786,-2.3657893570686603,-1.169942408859767,1.8652887029162637,-1.0396301673792068,-2.657996312376365,-2.9470140671765166,-3.82233362709529
-9.100316179619094,-2.2716526374902988,-3.5352680698842214,-1.565792864567376,-1.7960380108742644,0.8640573489794888,-0.534439235751508,-4.554723473953503,-4.334346487890564,3.002347339480723,-3.308275144004496,-3.063225322389222,-3.5603124006654,-1.958055682038978
-8.950103517327394,-2.659924931917147,-1.8366477499681704,-3.1182360582451345,0.0842192860461601,0.6428412885319339,0.995300312797955,-4.90079620436636,-4.717139299382927,4.1669284688614425,-2.376960951365725,-3.2374266570879358,-3.7165445247359945,-1.5730931329346838
-4.551440131780102,-3.384776961838348,0.4808916195747592,-3.346230331959779,3.2940260396725147,0.0657138331428222,1.9578557118438875,-3.026933963982975,-1.9682733153858765,4.483560222881271,2.2944438042892976,-2.8521796024155286,-3.833842233397305,-2.9523415925490166
-3.3437648194431926,-7.239792612349689,2.1585145300862294,-3.057421582974463,4.621003419318932,1.211233459306794,2.140040997223375,0.1188991881482,0.0783387643348855,3.6266069931022535,6.58422818955894,-1.753484494384061,-3.3607854476040697,-4.954417129405041
-4.549815415502846,-14.693177930539166,2.776109187067465,-3.234053049363485,2.2905989119991954,1.021340223396035,2.1468961258847834,3.074116274687851,2.3169412895122043,2.3512008926006693,11.4641467633998,-0.1457841630550511,-2.042541577174924,-5.937638618071588
-5.27027208366962,-15.956962503141034,2.9034194706936773,-4.185876895333013,-2.4301227140490376,0.2580942598730678,2.6832280617911977,4.794166798198635,2.236890004883728,1.811381816865808,10.952645978258078,1.5038095982166553,-2.576373778947214,-5.072257672156376
-6.80115579423595,-11.057916881398794,3.124837703439958,-5.5212648660337855,-6.25400279238697,0.3310944725597154,3.6368966804702296,4.980795234509046,-0.9704353442031264,2.2938638446420043,3.8559950693826273,2.679450528676554,-4.959006871831194,-2.963861976256961
-5.628315640246196,-2.147110582432771,3.086682253429672,-6.714396250033577,-6.57807891203705,-0.713555436272861,3.912733834575612,3.796593810716717,-2.1095457555976016,2.706509385302013,-2.528991245182543,2.932077050351438,-6.665084901793472,-1.1570491581271298
-1.2795023764151232,13.265068151166256,1.74948129303991,-7.55252059920304,-3.4792710144769075,-1.8182554396507171,2.3168102668769137,1.5069382663714777,-1.7705361183381552,1.4862789230030735,-9.766598273434374,1.936572620074518,-8.178296322461302,-0.990075893954149
0.3382456622476064,19.03826909851205,-1.30958048095059,-8.049596185641821,0.6134970747188753,-1.4736943389342296,-1.2118318208631962,-1.5165008411531034,-1.1311563218649838,-1.8147447248111668,-11.959723921400265,-0.3124046382635796,-7.518956226267099,-2.665383652887215
-0.1868228252418575,14.32593681478152,-4.956588532491114,-8.058994088535936,3.045543882153929,-0.8696946276328644,-5.148522763779962,-4.533651768921587,0.7721767996877028,-5.736154507076442,-7.399971436667178,-3.200994541416719,-4.050048603273415,-5.122529313822554
-0.621194457847633,8.47957487074049,-7.08577257220928,-7.114082044258431,2.885477766272473,-0.0325318473493022,-7.242835646652427,-6.397659858332709,0.5900176584136372,-7.734704541317612,-4.729280332662886,-5.487761024660927,-3.007365871034134,-6.719222651115331
-2.0360642544796104,-2.4377170175171408,-6.336570699656541,-4.754242118995702,1.1800346089983833,1.887215293350536,-6.101659517623233,-6.056644354720124,-1.8306144589520728,-6.043496383172155,-2.279254998867659,-5.920429180793892,-4.033006686080835,-6.274099921116807
-1.455223330753909,-6.0467684948823965,-3.324827676726077,-1.0974912106785162,-0.3244976220735687,2.536636660251633,-2.2476147613664,-3.3581637994226803,-2.4291054343603324,-1.0926789268811632,-1.2908914933078983,-4.203139862610961,-4.67130578858585,-3.852280547486089
1.4708219342446902,-0.732360372076874,-0.1877038882236945,2.844770830899513,-0.623448620227073,1.688785847684984,2.1886880573549945,0.5100159950925693,-1.770723333837683,4.615947523266989,-3.287898634514768,-1.470509780135675,-5.905944661455383,-0.7904983147985121
2.1852310640892734,2.2312627694869835,1.1328328638370024,5.476177173281435,0.0907539220749953,1.2576016839172366,4.871744795893953,3.48369444168204,0.1103761708076168,8.06711479727782,-3.695915190591457,0.3728008211736338,-4.736164124546647,1.133221625165589
1.2045416736172905,5.89901300439219,0.2778141645877028,5.4858118680207575,0.9902382831208528,-0.2107092984495132,4.655650565003686,3.8560945182724,4.021207534779717,7.573478431513788,-3.184761963843266,0.0987966483056581,-0.7082617981501119,0.8870882734384153
-1.2873153578946857,5.825115526669534,-1.632406368301126,2.7664676225003757,1.4071259184256952,-1.490288394804592,2.004380250055497,1.4388217345212055,4.445523066555892,3.644659601053071,-5.6363457146235385,-1.8333875439669107,0.0499568222831469,-1.141809040600144
-6.239999196987813,0.2034974396359098,-3.2737576159201005,-1.3071714233287608,1.1851736856145791,-1.688667129351745,-1.648617899968734,-2.29529723641166,1.240203057453381,-1.5881304844261308,-10.618163200987643,-3.7139510862954026,-2.036320951211444,-3.5740611757628216
-9.249206240180524,-3.7597234306151206,-4.237039789827698,-4.602661264413928,0.5337581751844453,-2.750234634760527,-4.916461035664813,-5.306290364309849,-2.17172319186247,-5.851288264852592,-15.924497401761547,-4.190073961385412,-4.337717407554443,-5.249895506394736
-10.327820215227591,-7.460433898021185,-5.026601341902666,-5.579847264510356,-0.2582747507130882,-3.655451979045925,-7.100585595326864,-6.496076454660784,-7.031027563996666,-8.029660303345782,-22.202240353862187,-3.5792733272960326,-8.04051027185768,-6.151992418043655
-9.669343874150348,-7.84657045514518,-6.18701298245427,-4.279628446190447,-0.968705037442792,-3.5938607676191703,-8.209517660730597,-6.387255786994416,-8.19862616793015,-8.451535559266908,-23.153785276428508,-3.569578145460806,-7.592885685464952,-7.1503478877962365
-6.108283056865331,-3.46016681375233,-7.579354005185001,-2.125912065308114,-1.4498354840567202,-2.8910749327846537,-8.590347404803861,-6.403675601804261,-4.898816463460742,-8.12886164634184,-17.860735875064258,-5.480542927821482,-2.342242335219851,-8.787444519316612
-4.3087361449938095,1.6117680526224485,-8.497040105655746,-0.6817741937224184,-1.6292438943600764,-1.2678898429936356,-8.524087879974346,-7.431372696373858,-2.656572714982361,-7.698666533308064,-13.919688444283407,-8.711486592004658,1.3795535410449773,-10.327682315040196
-4.1409816953066345,8.572689955651752,-8.371825427581957,-0.4578618570315775,-1.5513763517019612,1.0636670596046245,-8.002750926049503,-8.985874362669179,-0.2125326389129077,-6.964519810366294,-9.850575915657556,-10.936918547985078,4.796975614033652,-10.131012290487774
-1.7113385734364763,12.41578695981666,-7.278649990661879,-0.8281060015088038,-1.393419882539483,1.9015413324241628,-6.774533107162963,-9.710011405221817,0.6361668147904194,-5.350116079103046,-6.221918812776484,-9.98725853814692,6.2703662929517785,-7.118490380307648
2.1991951502902123,12.231769332092863,-5.762187960131337,-0.9962206103826858,-1.3863599476430757,0.9973447813833723,-4.646839302601208,-8.648586667104977,-1.0925741858743874,-2.7365241787271515,-4.338492234311824,-5.72333851534929,4.581751361388023,-1.9211543821100392
8.264078742017617,11.56084460469966,-4.243307909077716,-0.8804514606594669,-1.6643964253290129,-0.196357994503189,-1.873279301059496,-6.066378116596157,-1.1327180489060056,0.1788129200330761,1.2991554489365131,-0.1889914736594438,5.247719069288535,3.503578000819431
17.206264900395123,8.898583206920033,-2.646213674882093,-0.9262935247814196,-2.1526268030589506,-2.4609955842327853,0.7143368521487403,-3.1329781310446023,-0.0518683531807853,2.366384552070306,10.42141406829999,4.04947584429193,7.737465093242799,7.522546494819053
20.80182143756198,7.226972749097862,-0.5987761903410442,-1.1378570764767453,-2.601113878761589,-2.9257883808940868,2.08043918284732,-0.9302203977710874,0.6640804934748236,3.2986273262610686,14.644499850650666,5.806313797169929,9.946268088079568,10.151532773137834
18.769708455216687,6.946962159261199,2.035486215362522,-0.6257336638689281,-2.774116918133344,-1.4219705573794714,1.7186752651695398,0.2439828805620791,1.6909113907114572,3.292903473433449,14.43556110275512,5.762901208715595,12.847425652097394,12.700235216411471
18.28213898699224,5.843781043523009,4.84726666361732,1.5305041864594575,-2.6585033057995657,-0.34344197958464,0.1960408922016512,0.8171169518901755,1.907003538475149,3.0532236837886817,12.947588023924329,5.352450774859697,14.262115772549372,16.04620778032518
17.641579920162837,4.686079890398251,7.108258337862157,4.887263909163357,-2.49726557979837,2.3696752275643247,-1.0067937862723124,1.476236616010534,1.1390750719343334,2.957926693462564,8.405525335261812,5.339899186526576,13.90588585260236,19.300013890074677
17.410949113738834,2.60867784198699,8.329243624564647,7.383123857727191,-2.5742627966798315,3.151405743977363,-0.3674528728317421,2.815346116033873,0.9011272213341858,2.881086203728985,6.679857338555087,5.450239259221416,13.283634337417636,20.331619482729888
18.680595953781303,-0.6424135859598165,8.62527819437884,6.914420031136317,-2.9134979924930224,2.0762016126553684,2.653428678049065,5.148730225478161,0.9663773902351804,2.672673023532834,8.269114107336732,5.143082685325956,11.821129189263043,17.78503371954062
15.451738611385794,-3.1569973643041083,8.526301147614017,3.43164014963852,-3.183660673233412,2.256762659322229,7.142710707306041,8.242288633334155,1.1142336940074125,2.6045672686561403,8.74278835243757,4.479228038255796,11.204189482145248,12.633978645840685
7.808720075366753,-5.090841015299227,8.381937108979185,-0.5956452842815185,-2.950390481515054,0.2169386027780879,11.162201569221171,11.050609872176372,1.609711509542766,3.1072603777776298,9.495569800371516,4.112884886015371,11.688229092806395,7.667139042970336
4.096742226023056,-4.369848943179726,7.922131757085161,-2.084094792902027,-2.0905960146829567,-0.4330915525447824,12.83245626355681,12.000741508100171,2.1366604038089942,4.033082359265583,10.205483377158735,4.518298978221729,12.173861708315028,5.280827465271159
3.588978195550566,-0.3447942505725831,6.46311103592919,0.0187820459071943,-0.9813290212023222,0.2189671205233356,11.428875772495516,10.076191993395089,2.741325570105904,4.436900062301472,10.41395726639257,5.387924138275967,13.14045125015237,5.63040329607926
3.89811515426862,2.642224977903417,3.6917515931926665,3.852299868453116,-0.2341982368834401,-1.395107883391441,7.826766540084217,5.987594073912938,3.3250365346606303,3.447961154756257,9.557982828418211,5.885710493503177,12.010020615986448,6.855804258714539
6.710563830904623,5.089652463932657,0.3590065588575015,6.387015611483186,-0.1552387270689621,-0.9520279826516692,3.9932279108662776,2.1765420722317046,3.827448259547375,1.505124659450548,7.291836167116283,5.476503339498688,8.493724205891533,7.067221836567057
6.844331333296066,5.8376638203521845,-1.854928854946941,6.122125855206647,-0.400719052797065,-0.6063618601627208,1.7974895463364255,1.1985627096609264,3.8884960621276257,0.4906562108301209,5.980045624323481,4.444964491862564,6.454557072789274,6.095533227609398
4.02420565659922,3.862039170420683,-1.4099004503050914,4.191901153162686,-0.1795470568049246,-0.5065420181703726,1.885634119909369,3.630169778340836,3.411128168965448,2.177161231630123,5.489667050151069,3.5749117435224207,5.423726114774067,5.34300574672978
2.527367792634849,2.7720110988101987,1.8505203873644973,2.988303290188931,1.1076908173669366,2.3006394899075344,3.385792000651868,7.401485202808779,2.996385238439643,6.220915419679088,6.222742207635192,3.346510848748558,5.4365703113133454,6.023593651484582
1.2599178516103997,2.052261556517609,6.3461134670691735,3.8322481780873474,3.306842111836872,3.996067863944664,4.660995120085026,9.362852044624766,2.5469226567053105,9.778155338687824,8.792734994229475,3.4875461131618266,7.300551685339076,7.65605124890736
0.9724049297845768,0.9336836630477964,9.72740223252893,5.981426256426225,5.5249677509803945,4.705718603025985,4.549277343992415,7.838269830053953,2.298259356494244,9.552642877430316,8.841625827273978,3.3186303162774067,6.160293784259824,8.334654197818082
2.306293494341854,0.009334515570383,10.48776053414695,7.723231572975074,6.757854498367173,4.996500522654745,3.1460818513801314,3.916310851833309,2.383387831481112,4.720593089355724,6.377467894020515,2.5075453869280864,1.964904089886237,6.492235557503278
3.43631159647986,0.7962606657544056,8.94652888401722,8.193914681260779,6.636762428170513,3.393699649413977,1.5554581428998802,0.3594710607162952,2.2641019230445343,-1.947778831671528,3.943885567154757,1.4475048150139005,-1.8586477248769728,2.437826548318448
4.700815851437452,3.5492337488295145,6.821919535332306,8.028544581120613,5.6719983543207135,1.9810887801048256,0.8784724473594707,-0.7876276261039905,2.022493926061851,-6.054564255871625,0.612059730319951,0.8892388113918415,-6.312577179358254,-1.7672479213253212
4.805369182757702,5.037213075064209,5.7895613100114645,8.342526641164739,4.785002780918532,1.8265156002364424,1.3101313299344923,0.3058969100890465,2.311953146605228,-5.13799321333056,0.2733905801598299,1.225198686305376,-6.824924340336826,-3.944929570140623
3.3267980964197124,5.526096907219481,6.243101935793519,9.27992926768252,4.533819937372009,1.991533728331949,2.0729521929623616,1.8452483765834489,3.101577983941216,-0.7703447844846139,3.5131455075194262,2.149504958664181,-2.536956356760836,-3.477832527118636
1.3475252853248136,2.272170244131966,7.218385648628242,9.689493411483738,4.696980499501336,2.682699942397029,2.174923734034209,2.243008657534453,3.5325240490112995,2.718180259152738,5.447415505776236,2.992710614820289,0.5418146665265774,-1.6402308437244812
-1.6102135990523785,-5.750679141486945,7.38696478359833,8.241126111069832,4.551411552489185,3.730871955171298,1.293696466409969,1.3556872162986622,3.68597079938138,1.8945106067844577,6.95701803787536,3.3362958615587104,3.51999355900496,-0.4300292780007595
-3.125026909872177,-8.88533492193613,6.157949383114072,4.848865769512642,3.562841228153516,3.100299472100508,0.0204684257747942,0.156345052653549,3.3044391354895186,-2.809240062714345,6.2348809466534965,3.2786505325071715,3.91692845540032,-0.9617943979571066
-2.9357535796349827,-7.481028100092637,3.98308235605748,1.0129451094493618,1.874570374932688,1.5514351274125515,-0.7183862554261111,-0.4800868520325139,2.165196137702976,-7.323273796305514,2.253194862857824,3.154507720505024,0.4619748284627666,-2.7109721095892496
-2.0997302831664624,-3.5861942679209635,1.7839796241223098,-1.2657055295346993,0.2029243094430768,0.0434391199233823,-0.5286127038333603,-0.5220571409325174,2.2450753327144666,-7.206655324124981,1.4043197963888914,3.087766845513883,-0.455444016399026,-4.110510876247929
0.0809517588654229,5.053033647478422,0.1739513235690424,-1.06984794458711,-0.7224680300855653,-2.861058556647193,0.0748005873048782,-0.4929020042645788,3.551973958112854,-1.3037124332597756,3.293245774497968,2.8614797414498554,0.4522433149231148,-3.9161385547693897
0.710624404643879,8.379500733152256,-0.8216353800429061,0.6739747725691672,-0.6908452237158826,-4.022769681716421,0.1301048440097076,-0.7517902222269299,3.406837945898012,7.142357651279795,3.962993050696728,2.182896947960515,0.3896406248668838,-2.2001706912657117
-0.3955458222804591,6.0523306765720895,-1.4455643075177562,1.883542166976369,-0.1150743728556591,-3.413509173774439,-0.8626116357807234,-1.2060502968846123,2.083133831266726,12.786163140215097,4.528259282741963,1.023583491972687,0.3979799002273444,-0.1914101099993104
-1.872204130249664,3.247122562251592,-1.76646251795259,0.9414831364624944,0.3284116365663863,-3.5983634911681133,-2.3939364173383098,-1.591890104740159,-0.5788922816158533,12.062513483903928,1.1671734842202328,-0.2684099556961996,-2.079153515112193,0.84490430126624
-4.4650419498007095,-2.417526223489442,-1.6125126925090283,-1.9798231556463008,0.2332567178290645,-1.9674102958480693,-3.2749001612327646,-1.785346832112552,-5.191459267371059,5.657495313199107,-7.006941323003235,-1.0956453652746203,-7.5285848117641665,0.6701878138548949
-5.962345032972947,-5.349920218745349,-0.9124683321054192,-4.922698146385898,-0.2258793987012808,-0.548572302737029,-2.594209459457943,-1.7564500309492814,-6.907739697120036,-2.228364876794217,-10.311746005674474,-0.8481887825693946,-9.72711887457067,0.1176423558844987
-6.186949637041365,-4.895396593005472,-0.0310171909824816,-5.559153385016899,-0.4521899970851137,0.0986540577187976,-0.4857901409261274,-1.3904747526913468,-5.610280128015541,-7.084196326976773,-9.277982566620006,0.7765292172311717,-8.981624866906412,0.0989888252795481
-6.605364726342791,-4.039768098050891,0.3092387884365024,-3.0261533403374585,0.0237971966371617,2.7286684656542115,1.9545219538918344,-0.585396650045169,-4.568803494478735,-7.19099430886326,-6.530314223207619,3.3730076541060328,-7.350818181464951,0.5572006900725768
-6.680893226321964,-1.2567507363228094,-0.4833302540611868,1.2213641873309484,1.02428324797431,4.934590509762229,3.51279417315196,0.4434863193974507,-2.72036555665892,-4.33288410218767,0.0357873934627809,5.604509139182767,-3.496945636512147,0.4341349716642781
-7.698566941906592,-0.6363320860932343,-2.3829764598635137,4.294062749882158,1.7288436930651372,5.326771185162718,3.707566462443907,1.142030059163588,-2.5488868965145475,-1.870085014770176,0.6140507127486238,5.616348538751588,-3.493096196596385,-1.2726360885125914
-9.888111557862622,-2.537119457142997,-4.707781578740629,3.914172537329385,1.3235189368560327,4.17853881795272,2.940214469664923,1.08863578960883,-4.6163332388175,-1.9751555927506248,-5.365866610347116,2.198435332818157,-7.793487564120933,-4.413729147153369
-12.024176027535454,-5.677681525713679,-6.600879137794081,0.0597931816825365,-0.2010795320720362,1.3062552375283107,1.9254774580076912,0.4840434281568946,-5.170176994818753,-4.253388978446019,-10.018237516769217,-3.9957800213690433,-11.895166791327616,-7.688975019585015
-14.447719133431818,-11.208639490344284,-7.650477141530686,-5.102388655362866,-1.8745650966609944,-2.7582988863263465,1.0317500430944977,0.0110030041957429,-4.793101510216811,-6.581393151870017,-15.512816915320276,-10.313329453170397,-17.237088107240552,-9.786476514827882
-14.996880351805856,-13.47698633127276,-8.129403373477757,-8.908980160437714,-2.499212884710623,-4.969272844764264,0.1405611862062272,0.0873396919201141,-4.671393425725404,-7.132291050664215,-16.63017683377273,-13.561947070778343,-18.68570814754954,-10.519441482719811
-13.310164141234129,-12.213839632245085,-8.648626354542621,-10.069866390365677,-1.7479287598377482,-5.134691695087967,-0.976762408958976,0.3048668361221018,-4.231865504849555,-5.782537421907264,-11.882989309667783,-12.211336242250646,-15.29006229070947,-10.801268915563234
-11.645278588828951,-11.23083142676831,-9.53073953721686,-9.198030567124462,-0.5819976944933103,-5.662152117517095,-2.2996855991914984,-0.2496454718495755,-4.6347457650309805,-3.890885056561977,-10.002886627408133,-7.617630215181855,-12.771737741212092,-11.496924545250408
-9.437213384141318,-9.232875422878507,-10.469830616798856,-7.780315182928376,-0.5050912741370723,-5.1465604589472616,-3.642389934237997,-2.040314705713236,-6.032386811348762,-2.918316991384941,-9.674887011417596,-3.154217706837983,-9.802323962486346,-12.366200794639276
-8.569243433018926,-8.058975257138703,-10.79888634687434,-6.79018423175274,-2.250541853365742,-5.214396117071534,-5.015124196524145,-4.485763264435516,-6.514582274712408,-3.2168756088749006,-10.114812287715475,-1.8196653920983932,-8.704658101679517,-12.234175147569502
-9.530162853436067,-8.217483469896681,-10.129843945482126,-6.28696365658654,-5.069127647832925,-6.38287321992991,-6.723079924279595,-6.382504247675325,-6.270953945594552,-3.96454510459396,-12.874829771743627,-4.182875520349285,-10.522704745262706,-10.255256723569047
-9.370590432247106,-5.5328722149861695,-8.780883470135851,-6.126678702135912,-7.254501607763068,-6.119590780910117,-8.964493883839747,-6.948744097438759,-6.037998439781764,-4.142454585590521,-13.132543723708284,-8.242849129255454,-10.787732091475636,-6.996544794496566
-8.568428864989809,-0.3219778260433907,-7.590339472800228,-6.672660444967694,-7.426674839671733,-6.224206176576772,-11.335328149179356,-6.453293396200474,-5.470417615476269,-3.599082245716016,-10.996194094265986,-11.174322817157188,-10.226170062905693,-4.211042593591625
-6.752828473591374,3.107585425984226,-7.269365769461844,-8.48440224336499,-5.472576595410429,-6.099366020957192,-12.871624376881426,-5.8485950275683845,-4.784104671078117,-3.243977750234454,-9.4268283276296,-11.428064957200927,-8.701447722530444,-3.443190442605732
-3.3526695575328804,5.280560579916956,-7.838722113617493,-11.268188837739192,-2.4525939560208503,-4.4719641997758295,-12.738687694413334,-5.830835267892418,-4.019830220474798,-4.1686622421191215,-7.508546702458996,-9.526844933706744,-5.407305639669477,-4.722710184697608
-0.4321857807196172,6.200349225283441,-8.588107965714643,-13.409813238827596,0.2592104296236357,-3.351254129945932,-10.949933492063636,-6.238725891904162,-2.976008331688616,-6.398129713215523,-5.611437285262707,-7.144487341470235,-2.0350150317388613,-6.503140052176409
2.204003694710185,4.942705257484148,-8.548250499435113,-12.952591310473856,1.7817525340335931,-1.6001163729782393,-8.393826476233574,-6.269414345329729,-1.69986741498324,-8.366089061385939,-4.087475985193056,-5.496776723257646,1.706099837713162,-6.867346228710055
4.040993279357551,4.257933296064906,-7.107343465890352,-9.336421608490994,1.9342399221301176,0.0445372453736504,-6.127653705205699,-5.205806936910847,-0.9902190335624382,-7.755818088723355,-1.733362578256127,-4.486226245274693,4.310539441823734,-4.9626717334779045
4.583983124228418,3.9270914280641738,-4.385103937272376,-4.224611879946714,0.9737574422806574,-0.5757363184137037,-4.62799892078381,-3.004937119863982,-0.9015051049836444,-3.285757266310036,1.312251587304443,-3.1920277447555563,5.351410676198704,-1.546396942486865
5.204449807091165,2.3082062504759304,-1.180379421901094,-0.4256214454890639,-0.653993959727643,-1.011280717912873,-3.6710208198499856,-0.3619517962562568,-0.4954109373152299,3.897501136341404,4.324190911674662,-1.046543269468934,5.934804664152002,1.6633932287331987
5.625796069250173,-0.1630102218039605,1.4863104439091614,0.3262426391788935,-2.312594850388578,-1.6685223087412782,-2.7967991199417384,1.7020193028469066,0.0671683460464201,10.523550330477129,7.470352649871575,1.5008345894611068,5.521825832260427,3.2327539526989995
6.058452702748166,-1.2861554973278893,3.03789178126528,-1.1515710330943705,-3.1496540248674165,-2.009914559535632,-1.730924768857065,2.450171059379784,0.8504842509272462,13.308450378476792,9.1992787988551,3.4447158312690007,5.251626697725372,2.9429479222495445
6.728588364773526,-1.0572694247851524,3.821782663022958,-2.0551311420383627,-2.392668142281096,0.7245632694745103,-0.3424120911377173,1.9218842549398687,2.030300341100307,11.42580985648722,9.237072354970024,4.303657883200927,5.224993860630615,1.8380889564958949
8.313618999492773,0.9972642957014596,4.953766499230255,0.2056341149370411,0.0691541447250188,3.686381667350093,1.5990671377679035,0.9956920032825708,3.554953462686234,7.302724963738655,9.471005904977666,4.697587468015314,5.572060693926856,1.4353305172205495
11.0586153603512,5.5662280573464695,7.412225273765131,5.889098070883591,3.3208199130311584,6.690333327956454,4.318090440521644,0.8454928330240534,5.53000609042101,4.830236763470069,9.511300770497826,5.761547263405603,6.658715176219464,2.636848446542345
11.547866628746425,7.089773708550592,10.956673634256733,12.49043076802505,5.782733942216382,9.26877611059948,7.5346311656535505,2.021791407451176,6.6387887736972,6.207724878881493,9.417517779981807,7.870716405677683,7.409153977571282,5.0494083984805656
9.770138991142112,5.521596178405563,13.871154914980082,16.310129556343753,6.220729673272842,8.171163174117353,10.194989168696251,3.8516080880520462,6.799561992702999,9.995083998584732,9.490708997581333,9.915355841352849,7.962490285741148,7.191576117773309
4.822922874222457,1.865478271781637,14.058935575744272,14.930187594105432,4.659747457214252,6.445551269483391,11.010153533463708,4.816924582514744,5.32135396139463,12.169922532064902,7.769711373385173,9.986224137823982,6.762263532416752,7.514031754146174
-4.340723192298916,-5.330830830565147,10.807800277805256,8.915483480528962,2.3879293933404995,4.740880410336137,9.526814796976891,3.8067034416924335,1.7216432887607958,9.515794809757466,4.22315037878259,7.052051416069816,3.442420517305232,5.559715650576152
-8.658004294698976,-8.030056104226983,5.692915877890499,1.562299794678779,0.9516751200688418,2.40667509962301,6.714320036787029,1.2284093751947296,-0.2589826798596387,2.5541097863409448,1.890389707468738,2.1710213591873355,1.7321134140488426,2.397219743073549
-8.04706191081873,-5.953508049932667,1.600432800090232,-3.2167909016349654,0.94173881479162,2.4081680786929454,4.328847123213336,-1.126808280344363,-0.7084378870074802,-4.5672860666998645,0.5296621025850746,-1.9894718116662773,1.3758627617205537,-0.0710380025094536
-5.750562020827281,-3.206155111803835,0.5010803973297016,-3.4931291695702957,1.6008746847055877,2.5734103751539283,3.4683382318540623,-1.5411408749190798,0.0256859800805846,-7.295673417741028,0.0660593069597228,-3.113656574278423,2.0577356225684,-0.4637219795008889
0.440497880176401,2.137962290339896,1.88366612742999,-0.5652758337096202,1.5719748917742322,1.3777906198278196,3.620905577158908,0.0706328943992389,2.8853899793387314,-4.343533479777506,1.205796938898276,-1.0688755893629889,4.629570885983745,1.0916024962365611
2.6811567377082093,2.892865721891236,3.310495923824305,2.150127530401818,0.0917523018156885,1.3062243745407482,3.167043586287548,1.9755578019274085,4.27572924639604,1.3302267848176823,1.5471815684883097,2.01990153145897,4.764460596272852,3.126933333851412
0.5172222627478191,-1.722260378023882,2.645919989161456,1.8293759260238005,-2.420592879585257,0.7146527049884209,0.9629937625222452,2.1083698069412264,4.26229967617053,5.057741994775483,1.2136306578782432,3.579323943237341,2.402415844760944,4.030798094310683
-1.3943782871580477,-5.433292102316977,-0.0820997081997632,-1.5413506058970938,-4.820259210754955,-0.7502616395883995,-2.435525508187709,-0.0635922530231312,3.997582105925161,4.258842256860703,0.2638906801430126,2.689571068276024,0.2239438753597201,3.309673793352914
-4.934085581592375,-9.96851391483486,-2.904509763878991,-5.262327344364849,-6.219279873413825,-0.5874154123263102,-5.093496339704217,-3.035405423748415,2.671718310773859,0.172753241751252,-1.8673569317080492,0.5883127511721398,-2.7047921129365595,1.8987592678566612
-5.418693046338361,-10.038747630048134,-3.935325261993313,-6.282234176165929,-6.581638941459175,-1.4179164909855613,-5.352663867906557,-4.637275273323041,1.8115945662959785,-3.84284328994832,-3.3117803940794635,-0.8289057018864128,-3.10521632407467,1.289029114037021
-2.1521569555162503,-4.359816549703372,-3.1768529426758505,-3.8318240587422,-6.486724033507556,-3.323790473067975,-3.353869120992016,-4.020369857518517,1.4390463276306176,-5.641073518194361,-4.177319928906111,-1.0008616261750944,-0.4227041141318501,2.2089308115190533
1.0396125220752486,0.1258145493559733,-2.336786747775335,-0.0589790670396155,-6.411230364580945,-3.9435823694547696,-1.0150620998684303,-2.3781682910187385,0.1963921417604978,-6.032991373270988,-5.004096978796753,-1.1857238547007969,1.1008571819008994,3.960744719927334
5.388027067351069,4.8413142877940505,-2.897439129011275,1.871838849501103,-6.24323095355885,-5.8679993257826935,-0.4148742937502447,-1.7210204966098956,-1.6522651454657138,-7.410472397846405,-5.41076667610677,-2.9216443523667976,2.222620360166118,4.970683259433002
6.849142083721676,6.81135437206069,-4.435913108920914,0.5218780084202592,-5.433327301182402,-6.425688928621723,-1.9798367124191716,-2.8924803035356774,-2.305304985249146,-10.790106193520812,-5.56859965943647,-6.008865476301224,2.4071366051544096,4.108354552422668
4.666972534356431,4.651436176772042,-4.943121450237896,-2.6491703867151277,-3.5829941628438178,-3.6067466205253695,-4.081596783061173,-4.734210152218566,-1.8068022039788536,-14.314377003585378,-5.434328008929324,-8.150875199705212,0.8657852579388378,1.683856550634573
3.497211465005167,4.824471794965565,-2.869231612483418,-4.650158345645593,-0.9188548527275486,-1.2181270558730142,-4.419022934293793,-5.166537877034813,0.1058236360387249,-14.729578065590204,-3.3530913170845675,-6.83942841390035,0.9637843590827894,-0.7237138014717175
2.309279569644941,6.436258943915331,1.125573330743265,-3.574005013307186,1.757754328998061,2.925186602957844,-1.9827280668804972,-3.0998050177535106,3.9523904983902254,-10.400857598725196,0.839584940865061,-1.822416298617867,2.482254077063895,-1.4974108304677998
1.7903575367554203,6.921171244085112,4.477966540190892,-0.1433066957773121,3.6026189787233136,6.245373252257323,2.0961701793459326,0.6354206396053428,5.6071726252263785,-2.9660597918345104,3.571126788360285,4.225693321096344,2.1979325997381074,-0.2778771894387262
2.6956471883715976,7.255813316600375,4.857950378085064,3.069857623114615,4.304798383928159,5.443590039790232,5.500383340421138,4.093624151519464,5.013660449015769,3.880412449586032,5.034177417799609,7.617390414258722,0.5626697577291829,1.746244224921469
1.9741870786518652,5.951101815034308,2.163920892024521,3.914959902256811,4.233963927619911,5.366374949208426,6.588319424230377,5.823146301766556,4.170795764222502,7.244515454339847,4.796032071425982,6.529142982254044,-0.9175568737120192,2.796509656023403
-0.1118370590865489,2.649357352969962,-1.414901962702814,2.388120218046211,4.041564484928173,4.500548836732922,5.549372093566234,5.740377500963405,2.1177775866353024,6.927796997408137,1.9266402840313224,2.317394963399323,-2.7449822464037346,1.918866266149763
-0.2915391923991682,1.7926242796946037,-3.2274467120295185,0.4345040259189403,4.071104590165746,2.83914615327524,3.9664846165120338,4.686013810735346,1.0675239463192412,4.921378862638562,0.4331725617368793,-1.7899109311330363,-1.9007885892252527,-0.3040954931289121
1.0995173576699424,3.261017908713735,-2.1826826212696773,0.2093706030096882,4.115267044266886,3.231728098066267,3.3332422640989563,3.4360777895690973,1.2584116600945934,3.368636659368022,0.085040513589186,-3.311977910602309,2.08288075657386,-2.287207336399291
3.068275705761126,3.0519260206084,0.7122783826337056,2.392941427288875,3.740925135849203,2.4537638545073914,3.887126386154876,2.2648619317561725,0.3986445591948307,3.0141048801208257,0.1306392976299578,-2.114437009273331,3.824575596826522,-2.710988898099451
6.25145040567461,1.915565595350037,3.489777736781001,5.862577297468718,2.8506926560264745,0.7210839048717336,4.670404774408873,1.276884450112135,-1.034673601351988,3.268197594043322,1.443265315054701,0.1567062036516233,3.86159562946325,-1.4445510503157948
7.344577456021656,0.9756562307030312,4.814077655122487,8.718201073793768,1.8979884158647025,0.1749245933335809,4.562172265024225,0.8025782835527213,-1.0520474427055464,3.306356809523648,2.0189993153071577,1.8929030332534056,3.80545581664134,0.5692193058587325
6.076440565584221,-0.353452276523054,4.693733899609133,9.620759518849988,1.5047428939402003,-0.9000751989031375,3.2597801793661905,1.2294109945499263,0.1909897035514177,2.873869360483603,1.928035442730493,2.7628329134445018,2.639229181707528,2.213298608493253
5.084949033567333,1.3640426364835665,4.007685721692866,8.44270237030209,1.8448668422665868,-1.9345200957962572,1.4255672117997165,2.491256883358986,2.01160136653702,2.17921720532928,2.331714371009284,3.4473779060346814,3.572721565451799,3.003886193457202
3.588551961626964,6.497755580039256,3.5644082227223066,6.031920518070329,2.4217545764728925,-2.0349302781117293,0.0691590753643822,3.945999823470736,4.831265067515378,1.3808761511738157,2.867209221160964,4.509008061613343,6.833461265201462,3.1557340522354167
2.624503253865126,8.930884231585912,3.559100500273445,3.566862158519399,2.5048698778461755,-2.3686786860773976,-0.1642284432102343,4.913881881782274,5.6001804412210445,0.4516093014192819,3.2805303756452,5.669976813333122,6.076333351223268,3.0388309138454304
2.581903400810173,9.182232021748716,3.6895518330313735,2.015398667234436,1.845516104175516,-1.092915066620718,0.7425321135257548,5.309701200955246,4.04595858744372,-0.4795035736635071,3.667860595735611,6.084447452107028,1.63232012562239,2.7044599205661086
2.169035238442033,7.702547482338266,3.584270216365809,1.8481808844211969,0.9952936668657912,1.1985179938420716,2.346527317636003,5.620983051233509,3.929918795343117,-0.906240310986476,2.869246028801756,5.139516539040443,-2.588896575080554,1.964863685344824
1.730099755534747,3.1339166443035005,3.102063918184541,2.9316482524203598,0.8842457317386732,3.241920627843879,3.984097103700634,6.199658422998141,4.647067832263057,-0.3209381976481893,0.732153142812508,2.9810814294973795,-7.766949583348114,0.8469232700294924
1.6506525055803831,0.6816598956859811,2.356254023017214,4.5952879084096026,1.9654021868783504,4.887897626842047,4.880342883900738,6.636090677694,4.7039063845661495,1.1132651167377787,-0.7493294024566403,0.4216664778271877,-8.092921142100753,-0.174027712596029
1.821956341477723,0.2575115791513201,1.5811086727168515,5.950918914893748,3.6363090242015232,2.9914146704791174,4.289149934567263,5.963759664191599,4.645064471577893,2.3859295412586903,-1.7781577416749492,-1.5484931278182898,-2.528862746805584,-0.4935168191160528
2.051613384162485,-0.1901293006712507,0.980061498031546,6.378162663234548,4.478146838999408,-0.2299153132300653,1.873676200765772,3.603052984031592,2.1839243473714145,2.3466875656988577,-1.9003421829998857,-2.286242002829568,0.1382375533940482,0.0482129606151033
2.381875840621084,0.476075842779909,0.6023105447736157,5.836759096184892,3.2405141082323325,-3.0433163809654835,-1.8300225051062853,0.1636370428366831,-3.051366426353673,0.7461172040329416,-0.6321106671253739,-1.8403401257900212,1.1724041457525562,0.94801248920254
1.7948664447646037,-0.0101037554194355,0.2715499423309779,4.701266348617878,-0.1136698526964892,-6.185216304004807,-5.377140500279268,-2.7198920634889987,-5.166790751356744,-1.4122480809372746,0.0001963266564154,-0.982442595967882,1.5239818916039798,1.4394678167246298
0.1508965813976685,-1.8132902333669427,-0.362705611470858,3.235100867435904,-4.13441043051057,-6.105169305028983,-7.132021898046105,-3.4982563630752,-4.384630005568759,-2.6607643286640155,0.18203071477397,-0.8061653103518438,-0.407367243134339,1.135826796746585
-1.8271609741283308,-3.756989274106624,-1.6038722185991787,1.2354648523939318,-6.713377909554367,-4.789654156583935,-6.381857295900204,-1.8891123253641808,-3.561595666534578,-2.329376754278428,-0.3974831987052901,-1.981198226407912,0.2150662978355709,0.2965558463659477
-4.428379494184038,-6.397885611291473,-3.4127397043243946,-1.6973349175032126,-6.497177067634084,-5.000988990438724,-3.948186285854433,0.8547870198509031,-1.4809534497966004,-1.0721586246028778,-2.2111869940810998,-4.127499355481859,3.301347390384658,-0.5024658615370754
-5.077777929013666,-6.804630742597246,-5.258624727269989,-5.416753880668352,-3.82503965244166,-3.601548462527843,-1.651958942559645,2.85472694349744,-1.2941691133236364,-0.1202695643686411,-2.0457128277916863,-5.883259729532597,3.8139602214581374,-0.909285398024508
-3.4786673553725445,-4.670281255450666,-6.292609707981569,-8.744614370343356,-0.4256939703353737,-2.151146790928337,-0.9438202524289636,2.9966147791412823,-3.4438891461422805,0.0012851373895728,0.0812758617010244,-5.773529493834076,2.467312921954252,-0.997673979486308
-1.62462563057268,-1.6036045153706415,-5.794480741592338,-9.901673842761625,1.898711738001566,-1.7221813169905338,-1.8202636779324168,1.6938492157107703,-2.800826459616648,-0.0269181188054972,3.5096250421016566,-3.275095893223352,2.197908959644564,-1.0022245680861488
1.157947833000453,3.202192475113858,-3.6259361984475618,-7.742115151830831,2.5173241398832715,1.306595835176028,-2.966958224468158,0.4101693310785776,0.0817699639236275,0.8569841154568394,9.041665516695112,0.7759516783808067,2.297111267105263,-0.9744152146730584
1.3456801898087196,4.542179833505326,-0.3967757459031418,-2.8594305066013703,2.13711841344184,2.6547275404451804,-2.993974560122524,0.3590716240423717,0.913940136987441,2.807263592670324,10.526343474283568,4.753598266950007,2.534159738589137,-0.7792077922113094
-1.5859381741964584,1.9032284555607373,2.7587310183674845,2.439460023258789,1.8570324772367712,0.7543247723554356,-1.638538667792318,1.4893963928751646,0.3581868568322542,4.712927756587078,7.601976368168571,7.277048932817934,3.3383862454551454,-0.4030014585906656
-3.94420124011009,-0.97316306075755,4.653492736744852,5.444579047245497,2.050067966898382,0.0583376704261257,0.1226106475294273,2.595844971089832,-3.1586170723534126,5.21267680716096,4.206245655426007,7.866842491053831,1.5170007996641914,-0.152076608535026
-6.606308357056112,-5.418626884481981,4.51705820910388,4.726426112849481,2.091484091408347,-2.7190935375534027,1.0578207546545857,2.3859512472168944,-10.650342094238614,4.042901505001623,-1.1517282536755489,6.82786361649346,-3.111153006278818,-0.4466810504821978
-7.308953884580271,-6.528154676512411,2.28475233957181,0.950217789088356,1.1091852964417512,-4.796630720774311,0.7644315466133094,0.512526973191143,-13.843658731258571,2.2845092427076,-2.906501590735037,4.699818717828407,-4.527599957932713,-1.4034844987372708
-5.306922165962241,-3.529573108061802,-1.3431455972361164,-3.7108105284610247,-0.9995612882989916,-2.95181874245288,-0.1328691738808629,-2.2900695597538743,-12.876381999064892,1.2324868083965157,-0.2467034444749114,1.9119819230152189,-3.092748929677432,-2.6726113409847585
-4.380598001158709,-1.2033220955346806,-5.072981831324228,-6.998745392716842,-3.2282968812393165,-2.223049573861616,-0.7159461151254618,-4.925023626104235,-11.45305224272731,1.1002676114378571,0.9886849899472674,-1.094660500373152,-2.206587213832877,-3.7279216830941095
-3.899042099455096,1.7146909603908589,-7.437548394398391,-7.753010631109419,-4.1039991477446165,-0.6900714042447371,-0.61694512297953,-6.718131061839415,-7.757605091524649,0.9543472383841732,2.1552369937909037,-3.6087513352304654,-0.7433675388159119,-4.308388842446277
-2.92100354978628,2.895884698560735,-7.419508505110173,-6.18823931614088,-2.782233691862814,1.362259824963003,-0.1821932715868115,-7.585273885883851,-6.801111214453292,-0.0693629545980911,2.219598156343233,-4.755271651652208,-0.4825346521741643,-4.541577278431134
-2.0167605154578223,1.51500961362033,-5.028006234048803,-3.407343950126119,0.2735084741995024,1.559570983321193,0.0537650905206419,-7.639697444579156,-9.109941435539126,-1.6180789105648046,0.2466460961898672,-4.050671871945838,-1.9362744292847007,-4.635185841447765
-0.089457375170285,0.94099630748144,-1.4158377011035554,-0.7132150838467624,3.5375468321494736,2.6712823511238626,-0.0639861369074878,-6.837182008244554,-10.074979321491451,-2.3302017802730006,0.0118590723972334,-1.9215258122453636,0.1231516615322984,-4.505479255301225
2.9418241661562687,0.4543798732417095,1.709827389946554,0.8917387940383605,5.390128637356156,4.074248874387012,-0.2626701909608755,-5.082002993861124,-10.845254304887945,-1.2189967618545552,1.142778837501972,0.3989964312401071,5.493957298123839,-3.786552928041601
4.113421105578855,-0.3759618695428963,3.113477726573592,0.9784479818315504,5.085957887606696,4.062041599305935,-0.2584841461130054,-2.624661381625856,-10.039286939700856,1.2150152112653814,1.0010184089726453,1.650863513474178,7.017932151386458,-2.250050003689239
3.448122974446757,-1.0969228680545038,2.7751001878115176,-0.211332322301132,3.0419793250480325,2.6564120578989217,-0.1271980496183005,-0.2437839167471338,-6.900479644112131,3.3186420982317486,0.1194743075678512,1.3973168411986308,5.287236484881036,-0.204625807345792
3.427760469135177,-1.501684786755796,1.7424419647354623,-1.904855764687909,0.32014060241886,0.4546129349653136,-0.2392339654115858,1.068638167442714,-3.852417126923074,3.7490353076589145,-1.2916966142707471,0.2222548402619395,1.5730934440230309,1.5744167585540936
3.4925067412836404,-1.464664914563514,1.187854133897531,-3.224676787730232,-2.184688722199894,-2.712600928062643,-0.8519748865521706,0.7104159463489168,-0.3780752366865749,2.6116771267916192,-3.664755989558984,-0.8625379603680585,-5.674765082724908,2.384845794037574
3.3832195325895444,-1.604271549110895,1.4563051876651798,-3.714021117066636,-4.161610988718849,-4.619606056060936,-1.7897296239793832,-1.11220321060307,1.5765410942856255,1.182854570770246,-4.535987600467982,-1.221322469742404,-7.952223561882726,2.1298093823600084
3.451723388634337,-1.833630254901246,1.8972944719064344,-3.596292674528172,-5.647884496975166,-3.095757897592935,-2.537335435438081,-3.4707105795185957,1.4604200499994466,0.5486877326094373,-3.814818771251876,-0.9055096596127896,-4.8839929516099065,1.3475033023671583
1.7171893363340016,-3.474721966705069,1.5588746621459677,-3.549662012093222,-6.527219498034356,-1.319306492200934,-2.671972750087434,-5.251671303816238,1.3229352587569831,0.535580607503789,-4.389825552773283,-0.3386616106602105,-3.5477368774725373,0.7132003560196836
-1.9221176591300275,-6.781905100305127,0.0670575168418281,-4.146943850837943,-6.380554104408247,1.0053400800195162,-2.2329433993160137,-5.790756278650974,0.5382421925614472,-0.0239458186269985,-5.834908404296246,0.1321420130039996,-2.1418359154010678,0.4935972937835231
-3.8986618130072266,-7.347711509966748,-2.068347145783605,-5.360105746403178,-4.898682953475827,3.0760061439962967,-1.673169517058568,-5.207799937221921,0.8750843805073005,-1.9731171525294255,-7.300266984834382,0.3175549056435329,-2.274268804996101,0.4679158856429239
-4.443159143488752,-5.230673611233469,-3.8843743550227146,-6.47099101094409,-2.436313632350675,1.7697718064436947,-1.4256191075725155,-4.255998597773555,2.7085666622369327,-4.7827405261409695,-9.262170783176902,-0.0409833408108397,-5.052711906300261,0.3390283508285847
-4.208083942782609,-3.734419238775643,-4.65309184354004,-6.458510490271749,-0.0754051450450106,0.4506120280052598,-1.505374021836701,-3.812138347926634,4.2700490152460535,-6.864106879992278,-9.576761925004249,-1.3205993755931331,-4.988162944707809,0.141043352739814
-2.395327402094618,-2.00674667912018,-4.24541891955505,-4.649602439616899,1.008315334538679,-0.3938524275775952,-1.5569538546020567,-4.337487613766143,6.059177439273311,-7.022056925394281,-8.036832435070977,-3.6291909354064273,-2.5159170674220093,0.1753907647962478
-0.837370627094589,-1.865065504331288,-2.9915400201360853,-1.2420770069000469,0.427158452994604,-1.2561636351861396,-1.2976100464242109,-5.60384456614554,7.370583388864765,-5.6472263992423,-6.380088070774636,-6.333673021784193,-1.0418660487334148,0.5774386314421918
0.5385685339451614,-3.9405435565560207,-1.300147373585844,2.678363280523797,-1.0123003463551754,0.6160527724940542,-0.8477375485048242,-6.781605962061178,7.93736174388656,-4.375391738806684,-4.0872674833718685,-8.113364304458855,0.3251576879242097,1.0889824685639269
