AF3,F7,F3,FC5,T7,P7,O1,O2,P8,T8,FC6,F4,F8,AF4
-3.286683134264567,5.984475836587473,0.7193223312093501,0.6476092718132255,8.290609403704103,5.891664187340497,11.970383463827496,9.26805478555368,12.008035812053384,8.917068600233367,6.491269158881534,-0.7291594122052136,-4.017903830336719,3.3796211987460243
-3.8999491642816846,-0.8422098451197151,-3.421715566671792,-4.175800180493091,7.583461363330365,8.736942145718379,6.3688266501415365,3.084270051958056,5.779518454437737,4.257715072032757,0.648773942180398,-5.375114416212065,-8.58583948832232,2.742736044215876
-6.438079388956055,-7.674460534923018,-8.855677572902986,-10.468079512200024,3.902703561205452,7.050318568630637,-0.7863866965088961,-3.072476672345066,-1.5867189727394049,-1.775405983809896,-6.924550757077486,-11.02155783372446,-11.97198170138029,0.1516945188604808
-7.428643679066658,-11.98416592117486,-11.751481794350152,-15.639339707221932,-2.0324215482332613,1.9272678478819116,-5.5874812177565785,-6.554988046969363,-7.769424704941411,-6.739496552249616,-13.672616985641127,-14.850090381612482,-15.841578226499424,-5.117221678873208
-3.823997972293216,-11.786967288837957,-12.112491372125127,-13.975054307020123,-7.906222308856317,-3.5563928883333227,-5.983078479673708,-6.721088602022682,-11.27205646754842,-8.738238816291751,-17.192953533187225,-14.459400081812184,-12.707064036282745,-11.67086849981204
0.3554992899321757,-7.602476034415374,-11.605916179122268,-12.202982121163096,-10.925907745892609,-6.4400096110980005,-3.034191242232157,-5.25546880846444,-11.48170340596983,-7.6443404136169235,-16.30501658016772,-13.23910223341515,-7.641022196781713,-16.82745373789991
6.421689785239221,-2.649496887986773,-9.322451002175905,-8.857069970275846,-9.77074039452889,-5.581394236414506,0.1574494726625932,-4.451560795929133,-8.472975736151296,-5.05610747956992,-11.572041072281907,-10.216641492777557,-2.9759094712085417,-18.324708017130867
10.326472225772935,-0.7168901159948398,-7.787579919695711,-4.790539595391294,-5.741097006306951,-2.0263928710863297,0.8943358397420358,-5.091111939457964,-3.115257587814434,-3.0138492356160063,-5.110627794137158,-6.8715634529811656,3.6251417763319953,-15.680611312458344
7.701928056670695,-3.2752190248665407,-7.210847615738986,-3.892155919151671,-1.8802401942050508,1.8763997740119525,-1.2125322611534877,-5.946424608611849,2.731980380348097,-2.462470232317072,0.3471470357561177,-5.277901593688417,4.187143962792002,-10.285702651315702
6.745782206490086,-8.18367227910672,-4.199566513157966,-1.3234538243261855,-0.6446013012203125,3.9036955631868473,-4.233941777967484,-5.317640642476532,6.639115999897456,-2.693231914108563,2.8620294356740965,-2.041319124571265,3.370564397502794,-4.291557696795149
5.483529355932888,-11.11251698170425,0.8088027596046735,2.3118777170257903,-2.134790854738588,3.1184633532190738,-5.643080979731998,-2.9816051895463023,6.854706744447224,-2.229979795194506,2.4080888867423624,2.144542686154273,6.2107670468959135,0.7299339833447265
2.272543040909935,-8.665948536617405,2.4463324693367414,3.299823751252965,-4.425120798743809,0.1927868277721316,-4.32502876136264,-0.532333449539113,3.5819382541649443,-0.3819017052589988,0.8343184144742377,4.369502937794568,4.5919208147965165,4.30269106702651
0.0057947696448501,-0.93395277774831,0.8538041839345221,2.405526471135099,-5.5290610732901655,-3.2249629363142223,-1.3218435858670752,0.231492536281662,-0.9231369719110988,1.945515943065484,0.4799427690215427,4.845209609192121,4.156561428202827,6.517077849560149
-3.356003117127686,8.29915829532101,-2.1642884530906024,0.2254157387850676,-5.049418062636406,-5.64024771632603,1.1611673097044708,-0.8266829932918629,-3.824991932137543,2.9404750696748554,2.354410719028115,4.127054662347272,6.195746495460925,7.210238580516059
-7.627861491140795,13.783757785996428,-7.869004650228135,-4.297949989614793,-4.068117490733272,-6.520805173255187,1.561459479215504,-2.052272915770631,-3.751258044266319,1.440720962428081,5.287224699348876,1.691380456618301,1.723731252074739,5.802390773630233
-8.427907514587124,12.017577522245514,-9.56397255840098,-6.172917526324318,-3.702905033943747,-6.223951245130653,0.0513159726667922,-1.7903267796560254,-1.7373935253971808,-2.0723225555498974,6.751340503640247,0.3837919365409417,-0.3673162761398175,1.982176489392394
-5.1392141812436,3.4948795493244624,-6.76608704020131,-4.095279681951665,-3.984291282507261,-5.2664725050735655,-1.9060395423200556,-0.230847727541537,-0.2137440718748955,-5.879539360091975,4.723098411530916,0.1169158985158731,-1.5461729708195049,-3.474832868689326
-3.004173326215988,-7.327916664013514,-4.622478139672172,-2.5983506527986675,-4.10793989898702,-3.748572649814452,-2.9679473618730583,0.687927757354565,-0.8382285453693399,-8.310146030371389,-0.82905455194323,-0.9680404204255076,-8.33229258839779,-8.636428208367054
-0.042574800893617,-14.41886129603308,-1.565516750981916,0.6643024176780616,-3.5311629185025133,-1.5184595186570284,-2.9167883903921386,-0.6780536205253433,-3.0283620020825417,-8.672809196411308,-7.825238360684576,-1.6681163506970806,-11.375043958618043,-11.294409201808271
2.160627242996004,-13.686667960511866,-0.7800984499463659,2.3077271741637144,-2.591757924687059,1.1744690667780802,-2.4170239932415782,-3.76289144144787,-4.495287686781268,-7.186972608378202,-13.23742886977971,-2.713308036498405,-12.005704226284005,-10.187127751584772
1.3041943942406222,-5.617868323537696,-3.122737636860533,0.7072926821443172,-2.059570444795039,3.349732642670393,-2.00477027106658,-6.053418729961347,-3.347439658363971,-4.389561806469555,-14.68132673347997,-1.7771108780306224,-10.461348139105551,-5.733999980087251
2.499407034327683,4.741618269265427,-3.81843179840269,0.4583341549825752,-2.2972733923244317,3.784139725289382,-1.5282183147847412,-5.41871524933395,0.0716038415133368,-0.8654750007682672,-11.569343938466684,0.4420844450643331,-3.705716875106624,0.1390328058778145
3.7409714763829314,10.796645495338954,-3.686183210959733,-1.2750928682869904,-3.0532528676324446,1.959690970379988,-0.6553945760255608,-2.2624813541964137,3.273025196613485,2.5389059772215923,-5.36212801440514,1.8238742833457875,3.4452095330966865,4.936188332241443
3.2868086752700307,8.71505882009657,-2.919519389660899,-2.139435501801695,-4.0413845717184245,-1.3974736446154807,0.2067775705671941,0.6617397814538961,3.6661691922702886,4.663778716589832,1.1572771880513135,4.583008715520848,7.875864313639794,6.800235108643221
2.5890912747212544,0.1338648947837057,-0.7043517239645857,-1.082708979975105,-5.46806659098711,-4.708619377734252,-0.213562022583968,0.6935348906013026,0.8705547214292615,4.664309387554731,5.329879375607753,4.591691640505972,8.181068732024869,5.42280165752241
0.5621620827250311,-8.854643144464507,-0.4230255541896754,-1.6780634512223631,-7.70613348212132,-6.551329657942212,-2.985247695970024,-2.2928237463019023,-2.7051294466212816,2.8998647397953548,6.111320782126487,2.8884598280643026,7.137531917194569,2.183476014446565
-1.9910274618538228,-11.957592559809084,-2.0513933483658446,-0.8799610574371399,-10.345439251513003,-6.453369236665576,-7.6419166491176895,-5.71205469137589,-3.642296278732197,1.0632205789194489,4.649738640512968,3.9591643108624224,6.150914103229627,-0.6398868338405066
-2.6958692997580997,-7.1616828857473465,-1.9940793162440056,-0.5161195191127075,-11.738530687760516,-4.887192578577153,-11.970483289538857,-6.495729399842958,-0.3092242256223088,1.076987457965732,3.366807909755952,2.6099210974492704,4.657424311987703,-1.223080928366883
-1.714109231179363,1.934512363219017,-0.7793300075187103,-1.1657912221316673,-9.880051507847677,-2.6289851878438064,-13.374981512439668,-3.695632582361309,5.60295016854997,3.519698415796221,4.0406624871566805,1.7424019064102283,5.273377947622253,0.7082758745539053
-0.1321825169001277,8.968096705051654,1.791772861301575,0.0231736168550866,-4.177855624626943,-0.180213515174902,-10.81248936841014,0.7953992386298445,10.172500382948524,6.978286467861285,6.373303455921601,3.6478930611125246,5.983637381951226,3.789690086303111
1.663141013706109,9.599535770843495,6.448888014879934,-0.0320451132719059,3.4106029980378985,2.218235638418708,-5.683344015686462,3.897421218548178,10.22608282933322,9.029447223964052,8.339858830174816,1.6450521339896091,4.262727576492726,6.01970720026068
1.434898615946423,4.476358641195546,6.735978918245951,-0.2017530347958459,9.169994133785227,4.145850396431179,-0.8709582751586851,3.832267947952687,5.837731837278852,8.117595288554451,8.14059624234783,0.3928847207390962,4.032105006439464,6.134134508125165
-1.1190568971221184,-1.8628259283617956,2.4362085896611965,0.3832085425679418,10.109588842976962,4.807726100013209,1.3302660261323282,1.3661854883583864,0.2452731001255976,4.753584915178802,6.021625202272649,0.418288872742158,4.418095884897561,4.3591603231994505
-3.54991832257158,-5.033382646228951,-1.592822092193659,-0.9589364828875216,6.311900754322881,3.505171813686463,0.7155644344621273,-1.0634218366580015,-2.835511293112603,1.0107992017571306,4.155432342410734,-3.500576232414539,2.7998015269729493,2.049936270118065
-5.449547019137488,-4.314800202296665,-6.753656224149793,-1.5482830438728012,1.1354820347641414,0.3963797233699218,-1.10421501221564,-1.449790525000676,-2.2771777741119337,-1.233340565330952,4.49167250095271,-5.407368680822415,3.2334369732181902,0.5838362303908298
-4.492054657194023,-2.7157730064653745,-6.921402547949223,-0.6399483619759898,-1.159327880937342,-3.2895918235751083,-2.4110562877604345,0.2062100168112977,-0.3329941936514942,-1.7647586862092268,6.53590502828667,-4.660770824606027,3.455777018266057,0.4091438653906856
-0.5479093525718632,-3.7060672240598542,-0.9118072814635082,-0.5932798782197785,1.368148001988942,-5.953903592678715,-2.887519368369494,2.045681333892708,-0.412435768336401,-1.9188471013419728,7.374801151797222,-4.826682144488108,0.7249803711724254,0.9524916630880078
0.9113241353822092,-7.611613087145098,2.570665860224816,0.8604904725365478,6.869134069792075,-6.644304298082062,-3.4635333686822243,2.0287782605485933,-3.791430663031456,-3.0111676196145307,4.327085199036317,-2.059380588234969,-0.146411476932914,1.355089632359034
0.940065026112713,-10.941845581907051,4.960429407469558,3.295155269458068,11.254876361946724,-5.422957567143461,-4.666932654147466,-0.2336791719962043,-8.261646607394917,-4.787156963956972,-2.0171941931226662,2.3471019344857464,-1.5105098095164804,1.3385610695388177
0.7508435200811312,-9.325022304862848,6.961132588076896,3.6216205211999166,11.514915373936466,-2.850619995511796,-5.267947296795159,-2.9914218110835247,-10.045941252812428,-5.405551314666608,-7.379596242799428,3.278803121625873,-3.1561232857642016,1.437721094337178
0.7860849074069034,-1.5125333195582558,7.074120158886891,5.822487854583426,8.047089512162358,0.6310827568217627,-2.945285166801342,-3.681999991581349,-7.317781535313239,-3.094515570721807,-6.903097076785189,5.553190105192273,0.8429558570589506,2.42352657297395
5.913300132947401,9.091056122756047,11.0689311716428,9.317552988304069,4.121577589383506,4.579649455683775,3.263302663321838,-1.0852812870437702,-2.098948464733466,1.9819847557051595,0.597936628032647,9.335673474248294,5.458280708698239,4.467813475105354
13.025126933140353,16.788838830117705,18.948222740617723,10.647903279902533,3.090600398091593,7.911606973902535,11.050942596429794,3.466356351727004,1.30460731034281,7.421882448834124,11.038212487720232,10.20147161573056,9.80695587339111,6.816338056591835
13.885602511393936,17.865604066607922,19.81648077745396,11.967146882334776,5.790012143102095,8.859921873792409,15.764859081150655,6.949611044239055,0.0265694409470249,10.257912677973966,17.834367115973613,11.08943627656885,12.45278492651734,8.243015579044515
6.983480912420871,13.156786129282535,14.104505071530427,9.793128522750964,10.163778995786185,6.155516881783678,13.952057557496971,7.004663159301972,-4.802290874158312,9.184078808452284,16.893031032097433,8.302259057624877,6.01829013398684,7.82751354677564
-3.5251518684104632,6.855710184164294,6.801337924635537,3.6644021447986512,13.053778931614948,0.5509036607061237,6.569959118254664,3.8172075579259976,-9.002422891158512,5.356119809946646,9.538300226478611,0.3344951551508122,-3.382898473140747,5.369030300790572
-15.252654759062167,2.81722709741218,-4.392426525583743,-1.7174115263318124,12.39808498363885,-4.997244738879349,-1.2531207780513685,-0.1631485381750126,-8.999577625595371,1.0956282099260335,0.875053662210342,-7.015911763203919,-13.55110320750124,1.2250767452279447
-17.882479561544294,1.6781420784660264,-8.53631406371808,-4.485437338646745,8.203023727321987,-7.140813678212701,-4.092335887294741,-2.472478543782226,-4.941584349822671,-2.2101971624776398,-4.78167490003934,-11.757864470301875,-20.89920675790282,-4.007058145804036
-8.766818763753582,1.14095635202936,-4.395214588618695,-3.940539731113933,2.088478967255873,-4.632243579237011,-0.51738243905563,-2.790044054359317,-0.5143772987390367,-4.99781762328299,-7.165599672749939,-13.95824376403244,-19.057764852078307,-9.497595075521623
-1.5912811937461415,-1.208404396243426,-3.756942495029615,-1.1317987817008897,-3.708518230146277,0.6755349490529616,5.963443514405228,-2.945658980060346,0.3381978605125213,-8.430375994851191,-9.18408389566348,-13.788945598127036,-15.504989466608489,-14.002104684459994
4.962735691997676,-5.365287304495728,-4.1648050526478775,2.8868479775156555,-7.154427441576139,5.253229308917296,10.080053432269947,-4.767980096508444,-3.187403687928535,-12.54236763652344,-13.158828684124956,-12.696518333867385,-10.896679849635518,-16.092127137382278
7.279242634586658,-8.952470649587754,-4.965424066409628,2.3113125654204545,-7.090316940071245,6.518987185703287,9.142770937812315,-7.952948341632357,-8.269124220856437,-15.64598199730258,-18.147135149768133,-14.056073180736089,-7.737396099379414,-15.063352231076848
2.142381235152942,-9.591167764924004,-7.942855560078368,-2.047788030745351,-3.9048708530122473,4.467498403144906,4.703676495984315,-10.203271997519606,-11.197961432473114,-15.772757885866216,-21.002774340473746,-14.240731645766449,-9.4111361107964,-11.858807747279776
2.052832113994723,-7.208366223679202,-7.889496936327095,-5.648343649442478,0.2478978498490338,1.164640085365317,0.4190766335638711,-9.591147654026097,-10.67685649040573,-12.809998995291124,-19.88804318220636,-12.009023317500388,-9.689888305189903,-8.891768644790421
2.8178413399850224,-4.101797982027181,-4.990393383713249,-12.949856228829711,2.4180701056621645,-1.123124561343067,-1.433497669288343,-6.698760151413189,-8.576232339532032,-9.102198338468128,-16.402419952302743,-11.386059575775835,-10.03822186718854,-8.422781734515542
1.1298157307781058,-2.793890852131332,-3.6536663583336697,-15.393080300159394,0.8641349348960778,-1.4609601849166642,-1.4094012117687091,-4.169810798816273,-7.56709457740428,-7.61998637565005,-13.969552307030188,-8.025501197801328,-9.473341017387556,-10.606433267321211
0.6408754225785169,-3.76223254186924,-3.0586958629707204,-11.056367606141473,-3.3855193607643006,-0.4173164429663947,-1.3631673014266728,-3.975565906127288,-8.127319774423325,-9.193525602741513,-14.10414252110435,-3.8594542096663886,-6.298928103194942,-13.004231690993317
-2.6733219210759773,-5.1510702683951015,-0.4146162532092376,-9.409146893061994,-7.041746777735202,0.8060316839558546,-2.035955216516074,-5.235543958768429,-8.013573695199916,-11.4563616236488,-14.534769188208797,-2.4138583260467623,-4.461169735343434,-12.340281858314558
-5.162347075500319,-4.627275751174131,3.787839045963574,-2.8158018605545294,-7.118525856820936,1.2986262998930496,-2.4405583847726007,-5.040521234538881,-4.775928335728739,-10.763140382449754,-11.383433073266064,2.802146386485498,-1.5782538128736183,-7.26707040736054
-2.8413698024245706,-1.5532713637905902,6.098834498485153,2.55074475254185,-3.4919335595769336,0.8073274437467264,-1.4454027690072042,-1.6142040916095777,1.254234064010081,-5.555412883603161,-3.4254621579633966,6.436032694766236,2.018581584966729,0.2219151694371302
0.0978875396093689,2.518936018949999,6.704635449145793,0.3424263288317594,0.8998172874701469,-0.3634947539651785,0.5154527953221004,3.458423745567279,6.652203139569616,1.9058245826944784,5.876373165815483,4.28966513149767,3.98895789281251,6.121919429115312
2.1353947703101186,5.313675343160014,4.272024899948007,2.063299622897971,2.5522978543815427,-1.5729145113036935,1.6797054445373858,6.4350283913442805,7.778990376530288,7.188541681700655,10.877637005860382,4.176925142323268,7.145279748251979,7.514583889337469
2.7520365201320565,5.69534687384773,-2.2210587731143026,2.388752958324009,0.4005130636896119,-2.089767723071992,0.8945365545591288,5.0413384978520295,4.144866847070844,7.350906404866079,8.682016683299683,1.6616819920948918,10.604502802836244,4.826389851551566
0.5034015986714878,4.19472127135783,-5.630722057314991,-0.3963543592762638,-3.3864262069432174,-1.4672464695012497,-0.96522076723285,0.8959126424932649,-0.9906642521867396,3.3124023532285456,1.878214564778034,-2.5750324563531497,9.19359553539883,1.3018213287365272
-1.3256690813600265,2.0010077840371734,-6.170261864448063,0.9105369367830576,-5.488332999912296,0.0493067435958547,-1.7661930103671093,-1.8004358669891385,-3.3584751484099966,-1.1679153952188788,-3.5846779594724403,-1.0015742022286531,3.973589282457745,0.1739455943756542
0.2439887947720501,-0.2348428447022508,-5.919930614765072,0.269721521659054,-4.390615471454139,1.4832355716543173,-0.3235370195229201,-0.122381019904127,-1.170571284489366,-2.8085955652786065,-3.510370941253351,-0.516244761024244,-2.4312673474738222,2.0168767394950606
2.600391320511524,-2.502355464078474,-3.256972881281866,-3.0878078619066,-1.504962957919835,1.7446152384898763,2.305549992343673,4.901149429710097,3.769633278833995,-1.275039447379017,1.089542349224109,-2.051688400470143,-13.70250246564254,4.534788457852425
4.165290162502871,-4.615156999694471,-2.350071630462391,-2.9191631846803605,0.396299481449951,0.5918446610405645,3.846598957173036,9.309949619251274,8.037795465187285,1.2598059021099912,5.243549857317937,-0.4025479870339579,-18.20957400565888,4.824607164907175
4.173615343976322,-5.764586383775347,-3.2966169212645675,-2.649224563410516,-0.2287575875793335,-0.8885646899577484,3.1122265530848185,9.833567328893569,9.525708366825882,2.568116018095531,4.6543085339089245,-0.1945106450965227,-11.356613606233042,1.9982726047752024
-0.0354628438034831,-5.215771780134528,-4.235181773414252,-3.65832293149824,-2.4845771169051654,-0.9042773036928188,1.2118833419061934,6.644137847075651,8.71841111192306,2.206506089683998,-0.5645070471585756,-1.1790637280813958,-5.843116952266767,-2.1192186264821835
-5.006214644616756,-3.4075429116156206,-6.125361648086794,-1.822118606303056,-4.089484817060672,1.6020478888575589,0.4310608030895597,2.8577791793078977,7.610654756964092,1.2114697934465477,-6.260710743494446,1.2235380075753717,5.667557510484661,-4.649914645546241
-6.734857058546671,-2.023109681968261,-6.420367680914294,-0.966949565512542,-3.444650091137481,5.812309742407967,1.91516895972231,1.5835396118602016,7.712686562568158,0.5579415043158376,-8.067247070937725,2.16654744070745,13.027797665983144,-4.040131403519068
-5.646631901519722,-2.6123764716641285,-4.887255473070561,-1.2474962680370456,-0.8138009051885655,9.269080779988302,4.461256403967988,3.389846263626083,8.98403121180766,0.3188980259455611,-5.059891860253219,1.5422196287706118,5.453405293094164,-1.0699774193339753
-1.3276759412574357,-4.98461942881613,-3.126000397490334,0.3165582809990943,2.1589491229797826,9.54169505557875,5.584834880809888,6.275425693192958,10.25002049317388,0.2051461641882888,-0.1430827554916334,3.117238906291763,0.8675563201227221,2.1558841901188712
3.662081255518488,-7.019652987025842,-0.4976020137331118,0.9350065184055294,3.817071851091942,6.151132777091255,3.816486306648168,7.738107923103025,10.31725126009678,0.3863290012379696,2.778037247622647,3.0833557234069686,-6.696585730636849,4.05506492862586
5.669930884032654,-6.24220378788828,0.7795417549126599,1.9940859832801312,3.496083984149088,1.1950754010842095,0.0707492085325105,6.84289942474863,8.792818765853925,1.3523465691700594,2.0591814941667828,2.865355370158476,-12.15354356382258,4.53177914991284
3.938555634937397,-1.8170639660364876,0.4030766099353045,3.0452159147000817,1.6300590285436105,-2.014155809162755,-3.1161670956468672,4.61481964250725,6.235111047062581,3.040739805468103,-0.7252544420043154,4.341855849070092,-2.436074680120409,4.432985277349888
-0.0443766228214284,4.743844670810976,0.3029129309664403,3.382879932640473,-0.7039795346661046,-1.429113871214256,-3.705818391075799,2.815420904315107,3.791605904878579,4.537394614870033,-2.5114618700810354,4.481837567233931,6.240461130133204,4.3747677367370414
-3.6987893006964288,10.649118929735575,-0.088132203035992,5.046289293041242,-2.302413930451133,2.0263558019542494,-1.724745442442111,2.4494453847767623,2.556168761977986,4.955976368393965,-1.2809087852079148,5.03333752156325,16.478436768710573,4.253793113500031
-4.98063994837862,13.660337594317449,0.7125571695097314,4.972581514405441,-2.278162503519485,4.990909407753224,0.9936877619206772,3.240912624707444,2.884086991350117,4.534194099702708,2.737743625584613,6.4761653576185925,24.59150163724902,3.815588901290485
-2.5500489758986267,13.28342367037796,3.061991703608277,6.037669492470162,-0.4837664187577819,4.220050724413367,2.4976049441756536,4.247086797486376,4.078561976981467,4.5593928787899305,7.7774386117234,7.489799370913593,18.766875788518988,3.430747031426563
2.2244438297787705,10.71115231811773,5.297770221978107,8.846900854587723,2.2682733459330646,-0.7445702801938419,2.278224057764545,4.837341273801335,4.850010646238983,6.052484102999263,12.081035485912912,9.455707181348943,12.967044070141725,4.028718747152944
5.638232338289313,7.89948981603481,7.842526627137409,8.682295838308033,4.548458699076405,-6.961826424959872,1.4220877148328597,5.141927192304015,4.373553605847326,8.625436733743722,14.87523311570426,11.685753453160238,5.587861495762114,6.123698991761861
5.464784514518079,6.483471755433108,7.619706665095097,9.266931409247444,5.214433555760363,-10.175921791668369,1.3784081837880706,5.665622523799637,3.0497309612306163,10.784628199268308,16.247494765050376,10.815023211047764,-0.9386709209541568,8.945303743641045
1.932782757028416,6.968206959843669,4.1034056837772495,7.699674191302341,4.229056655028651,-8.063494749564361,2.507866996355183,6.481291417127914,2.1138370965529307,11.330087468538174,16.430348562865262,7.40612696452383,3.13254352435076,10.680593074324412
-2.712367203966335,8.391486685982047,0.658406920849481,1.921266546648984,2.606521488773601,-2.074144870211249,3.659196818556152,6.739454323110046,2.297071629954962,10.30406918011798,15.29669435901216,2.7638686870137463,6.004823489969916,9.74767329443671
-5.514167340080998,8.68909419003405,-3.513144865641161,-1.822388171963734,1.4311559128973304,3.642205711203732,3.096545755199342,4.999213921949613,2.8426621648207737,8.54239918911327,12.468184060858716,-4.723299526209488,8.649569825151277,5.9992012595229145
-4.429631292027356,5.911079139952153,-4.779308203269538,-3.955979013124678,0.853032809428218,5.389770528002836,0.0063544765970897,0.2842925684170208,2.0314468572727917,6.524053256225032,7.880067850873044,-7.693733913104274,11.414973552523907,0.842155306394945
-0.896216350943077,-0.1485967256019777,-2.300862873295403,-3.905370545478155,0.103094395496031,2.6453436140365705,-4.625518032831366,-6.825378462021588,-1.1016795267771853,3.967463201243117,2.318397056528136,-5.504774186869442,6.45766067264,-3.7051225265795367
1.8032549388977588,-7.091046671849079,-1.0435136935646,-0.6758824619709538,-1.4233749366977055,-1.7954800617825972,-8.495842155603794,-13.953845316386449,-5.524763519155091,0.6370715085548504,-2.5775042044775613,-4.451279636591665,1.1984488916279945,-6.138538817035599
3.900917460689476,-10.964453291419009,-0.0568398018423127,2.51983551680816,-3.160585097134737,-4.263536969177139,-9.542803356533248,-17.998613667300045,-8.810816196374429,-2.6995458166591,-5.059961691527202,0.8518902792425657,-3.2302004345517474,-6.013829823150271
4.458507914003745,-9.055762758075115,0.4930928024429213,3.084679474482659,-3.6677824976973774,-3.1899489256093934,-7.460913892813995,-17.045888294215892,-9.158277458628284,-4.483134049892364,-4.414518669399414,3.404894051774341,-7.302208302003632,-3.8928012508306846
3.228030394773884,-2.478986221108679,-0.2241980624231706,1.4947883012783036,-2.1476182919435507,-0.2049660785650662,-3.989407366001344,-11.848259530288484,-6.9078335661419965,-3.741241153964309,-1.6413389475719071,0.1854582815644705,-6.395871105945501,-1.0749240066825765
1.6182925212379184,3.877241193061118,-0.4039288631315971,-0.2845868014010214,0.3264039994499801,1.4272477672360002,-1.6394381161858245,-5.598319547570174,-4.061259680051201,-1.207981600036894,1.0736284761744144,0.6903295696788843,-3.916993560154478,0.7893654062253737
-2.506704559859533,4.697126077558453,-0.3368830828602762,-3.205780560281751,1.359530285038005,-0.3557364241770494,-1.757360184560984,-1.850309249377914,-2.306595869419417,1.1311229427203506,1.933444291089932,-1.455559671758779,-1.4571797681332312,0.444669719382003
-6.646027990970099,-1.414067842923373,-0.030246583552196,-4.799807053737898,-0.6437917432217455,-4.658333223854267,-3.475826624494374,-1.9664919681841195,-1.5691050231681736,1.7933100155266386,0.9426700111082612,-2.6559475204237817,1.1130223254229654,-1.9619728108574737
-6.87722754455532,-10.309985659357007,0.8178620141764676,-3.5617453874558445,-4.739716623500232,-8.317089048094573,-4.500768925677736,-4.101255611165026,-0.5224368597478393,1.1676653944168265,-0.1373640719087085,2.7885816056420736,4.356423457766432,-4.447561003422189
-3.8185374455676064,-15.266228056520218,3.2045499090580205,-3.389375128338702,-7.944312864330336,-8.382888822492644,-3.149576501470353,-4.704247457710316,1.596103656211988,1.100871264827111,0.6125379142978717,6.078083942669155,8.574122282503033,-4.215878714139228
2.7617551255581074,-12.404224311350983,7.389230337514806,-2.602635170841995,-7.769875235401487,-4.368539700357204,0.1148496231616134,-1.4661036072118652,3.910215201253268,3.038073448749401,3.495840742559192,10.96959175686312,13.250676975530649,0.1556117387564182
8.255721875313505,-3.941037486297364,9.790782178384845,-0.7552401036231664,-4.514912882672849,1.438351728800127,3.0604788596536743,4.697190029690319,4.802433942414503,6.507279840134091,6.897250032736254,16.072791267280333,16.918401358110575,7.088625710510652
6.863885988112788,3.7563371075720537,10.48235713883436,-1.410914289752718,-1.0751988914151211,5.676407040673902,3.685816166037611,10.323959392767794,3.845741128593986,9.420015244687123,8.760166769609825,15.09877460844083,15.084244054175558,12.693679791445842
1.5345055875457705,5.724374214927005,10.337761299667278,-1.7970060842215847,-0.322182151568755,6.201527481505823,2.0345587954944806,12.1994278183607,2.619910703228462,9.890039497995163,8.447524519868868,14.737019976189966,10.700002869191168,13.677294760580356
-4.2032704479194,2.585108476799383,8.495243066705806,-0.7533249440734444,-2.4296776196692966,3.2944354502054907,0.1424039420684382,9.877839154122302,3.34501028965288,7.818840884321013,7.204041746451119,14.069735453414998,6.053342437060787,10.1551876473399
-7.126244721634355,-0.4441930809555199,6.827364992230372,-1.3054565613740272,-4.63970912298374,-0.8786114559739335,0.1433828225573634,5.815987961924348,6.555420335289397,4.7855740047456194,6.785605153966265,10.190866180321672,0.0274254116340965,5.736411904442908
-4.070612782967116,1.2803464213464593,5.284060691852485,-1.0321734647135254,-3.724104464998782,-3.910341342566763,2.2547287775931597,3.125298706606679,10.148886950756545,2.4773042771183,7.596570873931604,6.346219450567843,-3.8757097545538017,4.474760562959046
1.2682750283847424,7.36744227567273,3.1485014609227875,0.7046875373948028,1.045402057765236,-4.64480427436512,4.457352735386368,2.995531312959012,10.89272567781953,1.2601338704764975,8.143568055537267,0.7391805703300889,-7.552537967726286,7.196153326437781
3.482022025612792,12.772540662918209,0.8044025627234156,0.5707752564477903,7.012610069518538,-3.595880739769802,4.150156082653297,3.98988906505306,7.097162205084802,0.2015945001069822,6.341042805940589,-8.151176302941236,-14.299952780007397,10.527426786242778
2.2312810603975533,12.530854516334376,-0.3228076938427466,0.3970728277175681,10.054950345965295,-2.220256720541925,0.3468631140381868,3.638650404528868,0.0530749291003582,-1.6862069265272783,1.4469364658263677,-12.957743701210369,-16.038258439482554,9.692976690935238
-0.7178970357281806,6.324347766048195,-0.071104668024781,0.7460822196517677,7.675863629899696,-1.7079066742803803,-5.394807540386308,0.7673359541550586,-6.970671625026974,-4.359102245807291,-5.141907325340128,-12.873340357689225,-11.6572661383372,2.756649488877077
-3.3856642843153697,-1.2718111274842283,-1.0670733346197785,-0.4847601898168266,0.8481403703935255,-2.170626717647588,-9.98128986065273,-3.4641722719527137,-11.129660204703455,-6.83067054025374,-10.865415308108735,-12.77514880648416,-6.786767746989584,-7.393176148847048
-2.155285270888821,-4.845045753230958,-3.0708448078665804,-1.4725286166245797,-6.621721886178779,-2.7500020086667067,-10.859590269820096,-6.540632090559534,-11.682074279080446,-8.137560297985521,-13.727242592159204,-9.18937605401974,3.775976526795675,-15.058980741224122
1.495522792924691,-2.6420474301498347,-3.921445195250063,-1.0692263033751652,-10.511786981996146,-2.4733588603087284,-7.612410228808318,-6.586661190265571,-9.781527799606735,-8.068132929558754,-13.221212980045904,-6.389629140081356,8.556237896186351,-15.986320435858577
3.355645969208364,2.3560724323773856,-3.989559449785184,-0.7292433125500848,-8.622977622197887,-1.119868726918268,-2.0698286756529303,-3.714904832264669,-7.05814192661926,-7.0128313048246085,-9.936270988220755,-5.657388238284384,2.571253410674988,-10.266099799181454
3.4853088875354743,5.231155765689961,-1.6002899605712566,-0.3016988873138448,-1.8248533782141776,0.626552383662009,2.923580772335346,0.1723337351669833,-4.514552200256031,-5.366630283861843,-4.728056001564569,-1.9435613056875465,-1.3692831510388557,-1.7298435130476553
1.8878335615282849,2.96332933237312,3.8250450704757095,1.1151352199689195,6.585848068110175,1.8194358151959875,5.12129217764775,2.7281528570512026,-2.518371513719408,-3.324744725405405,1.4207779800467049,1.565877422784757,-10.560310787146694,5.159403791812537
-0.3548245662252078,-3.786653597089832,4.69267312310867,1.3030830442325494,12.610969156649222,2.046225726045936,3.881468561472929,2.544348510747541,-1.377378330447709,-1.2771304727309762,6.877703926514295,3.3311536328497398,-15.61417686856534,8.047157334892475
-0.74162393371846,-11.672861679641546,1.004148796469983,-0.2954224162377709,13.48976760034537,1.6272709369196714,0.1838849077414375,-0.2749592810717804,-1.5471431284610515,-0.1587420029233672,9.318058820351244,1.3018157710011349,-10.101287239237823,7.119363406102737
-0.5071474528643363,-16.915523621810287,-3.7695278629580153,-1.4348734880469511,9.070902410092591,1.10838519737649,-4.073735667622973,-4.448379120350163,-3.2080123420945084,-1.0697012266178392,6.934180670236957,-3.516901233135254,-8.515920396351502,3.721543506020684
-1.790131686333924,-17.08833259319102,-11.375416682538248,-3.484110135643244,1.972442232706991,0.6760617529186899,-6.973689850248259,-8.309600232945602,-5.80109931544272,-4.304682526203873,0.080622578059383,-8.82439254423972,-2.7771180614670268,-0.9479935801333584
-2.67754577921504,-11.952380621722895,-13.507104117504094,-4.847227666327679,-3.797917947810575,0.1515092840216287,-7.309087243224347,-10.545654170271144,-8.160508851260547,-8.704699667529166,-8.409709838850233,-13.789352878165936,0.5476760146331303,-5.960650730841447
-2.027868821967478,-3.6147439200731535,-9.3315002698469,-3.0797404676934304,-5.297917099927667,-0.503223799165271,-5.025954496367966,-10.61116650648933,-9.18851372827042,-12.110461370712809,-14.981282263780326,-14.183483343690536,-5.419948311336261,-10.17927768380509
-0.57705120759505,4.074728745792415,-6.185126419763451,-1.168610279415643,-2.7120211784548003,-0.8813055039545263,-1.287111682258378,-8.78352727171009,-8.464502663078608,-12.744575637902011,-17.81768400053668,-13.129978299026911,-7.405894306253855,-12.36756952672209
3.580255338934827,7.315394385706442,-2.096463214499428,1.2016599011018123,0.6765804011231957,-0.5225873660593869,2.002797372204977,-5.92361359461311,-6.328223950409978,-10.469031705084475,-17.749367991487777,-13.93777546234578,-12.783799607943996,-12.079063468102058
6.457686485252499,4.897285151587442,-1.3195912915893746,2.946313018022827,1.0156282264020773,0.391919501346051,3.210834726385375,-3.038705165507561,-3.5323287994222032,-6.872194605831822,-16.80432477420053,-12.391980186469487,-15.709286869134766,-10.291801156098533
4.398768268719612,-0.3615599208231734,-5.189266313128251,1.9311390439875409,-2.802925068805827,0.9570408240515498,2.063001538627206,-0.8011041985921854,-0.8477640618839075,-4.0537779890338745,-15.95804181796359,-10.008747070907994,-8.292874354941624,-8.823485386031775
1.8274671259050608,-3.139702550906946,-6.833921249960212,0.7727558320982751,-7.845662216081633,0.4219203919354761,-0.0002505572247955,0.7433324270140904,1.180364033220651,-3.049992609442545,-14.387531777239897,-8.55377745094329,-3.236895685005244,-8.868347912542218
-1.9496246977892813,0.2657842406954203,-7.411091789079686,-0.7676437971765128,-9.30890072901277,-0.7644270808575424,-0.6930576041694414,2.062287695587947,2.368148019632031,-3.185551289228557,-10.872818765966253,-3.3552292985604635,5.364712466588966,-10.039705377875467
-4.935452272136208,8.293268779276348,-7.465864393152016,-1.9968018007078272,-4.649234550612731,-0.979548866332672,1.4570704569460466,3.620165842645733,2.9058599654675947,-2.91656296140249,-5.725141656971454,-0.2309493489902987,10.422752598504696,-10.882847301427296
-3.8396769546580103,14.374540904068446,-5.84683288451198,-1.973686606310489,3.8016737784842034,1.16502621151249,5.8852616324796925,5.297734470357341,3.102134883351874,-1.4607769988556558,-1.1442758663034898,-2.479988219052721,2.986596724777724,-10.371496715973848
-3.68160952214176,11.616501664860396,-5.707824962707589,-2.652370845300248,10.192877988611226,5.226946938681733,10.265267275358145,6.273555447320059,2.90966450811232,0.2555374593519344,0.4040648328413088,-3.059247360378368,-3.434195252506724,-8.924744144129594
-4.990364829312681,-1.4642982614622548,-6.923055729488781,-3.151749504508388,9.623676913743562,8.823719963014076,12.21550227904119,5.636575383230715,1.7090557587983977,0.3132998098870772,-1.76497049563742,-5.883322921023894,-13.857893283617567,-7.95020723788704
-4.813345243667396,-18.858697454162325,-6.158873277257384,-2.4733369766437145,2.144431732856414,9.444627917062808,11.151576194272774,3.3607622798801797,-1.1523096558495896,-2.3104047513877197,-5.915226585354078,-7.372063755436,-18.90021660602934,-8.329370620961319
-3.1829158386159566,-30.667121550897587,-3.832827000730303,-0.9739260111500044,-7.009518811912812,6.698760716568303,8.767355219484319,0.776620219040723,-5.292469232919383,-6.356918967775348,-9.053152910755657,-1.4760682385799635,-10.02854890161738,-9.256531944826015
0.61825578322517,-29.861570601209465,-0.2665382533684096,1.6387468851954072,-11.20974081257226,2.850081960100792,7.664018846609765,-0.1025673076165771,-8.754068843725777,-8.817442161569026,-8.786807283153173,3.5825186296653366,-2.0857550670647784,-8.565653720859135
8.057285640742622,-17.08005254497176,5.210406168158602,5.307752364288539,-7.304266184969782,0.9340822003528584,9.161359148487364,1.900284442399812,-8.917890935517384,-7.163784625200621,-4.544895303092533,9.797162674881394,11.166935815010572,-4.436145131541312
12.097102439025123,0.111326273627375,6.859574528210532,5.959071558258255,2.1666280852515656,2.059962976253261,12.06542962885976,5.94432391221505,-4.514106121045427,-1.4798226446871627,2.324947763508799,13.33077785667799,17.175046440579933,2.790079019793102
8.500243720075957,12.679215481664894,4.363162454112234,3.0671336984158017,11.004407498835052,4.41187850058386,13.464666557364804,9.427192315108318,2.9148756580267112,5.33924230219206,9.244295128469966,7.1762784950666605,9.112639704455043,10.148990862375438
2.898551204272016,15.969438181069386,0.7722080724851917,-0.0952675841114926,13.961087620281583,4.944626562039447,10.981742871995928,9.655955922077252,9.60782253433524,9.54501711384041,13.41985863696308,0.2214361990160172,3.67911843027798,13.539216052448475
-5.957984012249878,11.728226292360375,-5.360637134283623,-5.932878974308718,10.35600118517755,2.2126599380613152,4.679868034726775,5.69509475870245,12.05030898891215,9.08040968478492,12.962673095768418,-9.19643339350045,-9.210241821723049,10.357480441285492
-11.101936379414155,5.475532607723584,-7.261669719435404,-8.677431389049357,4.012103212643279,-2.3129580598570074,-2.91234190177646,-1.0218237360552047,9.403942312909368,4.762216925768889,7.877128889746059,-14.930553370013683,-15.250700270862264,1.5453409745661233
-6.287066121430615,1.9917858852641384,-4.217217407961805,-5.706659709959314,-0.2175895470184863,-5.590295361380431,-8.614971720324554,-7.700199727628228,3.913296697663206,-0.5836537656638257,0.4022731227053802,-9.651135527663955,-9.067234964649762,-8.492735755375485
-0.8799527036207679,2.523024847969048,-0.9571517649867722,-4.07153257025986,-0.3469371957706969,-5.602999064372741,-10.698445822046862,-11.914523183560014,-0.987191347506648,-4.0990794981213545,-5.835731770551523,-4.521808716124912,-9.14539428968085,-14.296654809716197
5.14776617816736,5.164558361010305,4.273745786163528,0.2473148399753522,1.649186162214221,-2.749790863823063,-9.633053816131534,-12.77429721643054,-3.2208720643382343,-4.475536228574124,-7.761183838364989,3.4642885259257423,-1.2945231490345956,-12.63486329216594
7.832766317915294,7.10807815325507,6.665571255847072,3.9336175252004177,2.2588283890729794,0.9929313913044112,-7.188513025535573,-10.932202537368727,-3.2179838083046675,-2.3195047361930525,-4.8157872976098695,9.152175853476532,4.364251053422606,-4.480340359766904
2.2896230325708684,6.5294824967455,5.429279528246506,2.4753358897563302,-0.0289551209548095,3.8887268890432183,-4.9976134349657855,-7.815181035751177,-2.9550395193761654,0.5166715133481841,0.5171052406874166,5.625234273996552,2.8296988496925133,5.687846262818661
-2.322410287455312,3.133325827331637,4.433323802570881,3.293846183964682,-3.372094408274442,5.3178578882129255,-3.841891023528113,-4.815087514528486,-3.947537468141724,2.038302050274785,4.330947594004089,4.362250534577935,10.754891161412052,12.772438350898868
-5.9874241731876925,-2.075613763780627,2.3563009725082003,3.698516062559301,-4.523463862634522,5.239170598992772,-3.855674393673089,-2.827954823432598,-5.924497365359699,1.1853317529876453,4.141473390784011,1.6438168826383148,14.209506477129867,14.138896975627862
-7.072785618516527,-7.036571796354418,2.400672042150307,2.706393797940841,-2.020293635036219,3.4803251289168617,-4.8869599256274086,-2.07838525528837,-7.121314283864241,-1.4547741826579426,0.844812610860501,-0.0689560033987982,14.31505354138393,10.848379225373703
-2.545207883576834,-9.056573310935004,5.192147077822436,4.808821529704523,2.499920957031017,0.0655045137269401,-6.429605225906573,-2.109856116050321,-5.757583714558932,-3.733193512631669,-1.9030106257748955,6.040297098606677,16.40023729812857,6.409806481205754
0.3286854808185846,-5.998234408474872,8.470088975490887,6.028504209178311,5.940571649867547,-3.852835782667298,-7.447456756809026,-2.0157436261786077,-1.4713702367289203,-3.115351372479218,-0.5902083949961423,10.50035509624582,10.937536465910409,4.159651209931985
3.083086302820013,2.05819421061031,13.196929714511327,6.065766464830457,6.47798668079378,-6.028275274801418,-6.781189050680944,-0.97828976947607,4.296603670135366,1.501254657852125,5.246894253949043,15.911428450504996,5.5007685878889125,5.184403518391482
4.945355537100248,12.08366109610969,14.730977130338823,7.086709826632605,4.676534881487726,-4.777023348296426,-4.117091898297943,1.1417908172441391,9.136183625968036,8.60396950348951,12.564835754628405,20.257646443069557,5.446495916243279,8.092545311701754
2.9457846953407376,19.44646642331552,12.537503416134449,6.137198760912424,2.2350850650203697,-0.8707591545439148,-0.5823377394013898,3.64579318384963,11.10672667013086,14.69944358058727,17.235369068370368,16.143894865587395,5.911911489008259,10.509506345304947
2.745811518214204,20.72846500267927,9.972554015171378,4.172148446356299,0.0938662224812605,2.4864814845418985,1.865182868727841,5.486015898930365,9.875828641512218,16.617266037863224,17.2877285959164,11.794331648583782,8.23243757186898,10.99560729206194
2.038371581764556,15.87157090004164,5.817783237590934,2.949002029445265,-2.016134699187042,2.0925325524234584,1.909727953563028,6.031568734840599,6.875677738346438,13.794755614933106,14.197584609535635,6.357412567661719,12.772437524345367,9.950511497793306
0.064560253321291,7.9080649948761215,3.693692376985569,1.5965211462783129,-4.428600558211976,-2.4270352527456542,-0.104509233565473,5.444125782877595,4.361925938263604,8.638214483043924,11.218741084360008,0.8872089744757844,12.24651648575881,8.956987868733462
-0.2053824744543155,0.6116590103109525,4.195645654405876,1.5156164970335984,-6.507950880787726,-8.107398496881862,-2.567284266748289,4.362020676061745,3.92714107313446,4.594932275737772,10.39337930505572,1.6676523334282838,8.62674714408824,9.23098197807614
-1.7962596180276198,-3.836606783025221,2.97316118059048,2.3367809618918627,-7.123426051823437,-11.10141080584945,-3.993301033719957,3.280175753081046,5.456382763623322,3.5583432498027503,10.973560362606882,2.326066885170264,6.339169630237146,10.50109405287001
-3.680640311515756,-5.338255724404489,0.8783522459563241,2.678001363557046,-6.042078983231113,-9.911525004748004,-4.05314383558353,2.292897471999382,7.3433646153424785,4.796234274047404,10.57661185965526,2.25840177018003,0.3103965096160634,11.251167414937289
-3.2493468536123946,-4.634074280515207,-0.1046915754764184,3.1631823112573305,-4.414113628696192,-6.416989322867169,-3.36404265110388,1.4095257216705783,7.907963586198298,6.148311398848513,7.837971925520256,3.746954808806972,-1.911702252160624,10.116363605470967
-1.569326274708945,-2.0626003374386155,-0.4797043268711168,3.3787111522690862,-3.5412596370603664,-3.825330796517052,-2.490182676162528,0.954828996936997,6.892709948339561,6.16137255534466,3.978450378596171,4.384952429496835,2.170741270162684,7.210450575263148
0.9156682471454684,2.2439754811910158,0.9380095855717022,3.257646019276637,-3.242645990405778,-3.619109572022275,-1.348721612832964,1.4312549541219943,5.642566534050408,5.117303421367343,1.7642889443657708,5.34194969912362,3.886383682964227,4.1611008032744925
4.682544542326436,7.1192741501402415,4.579298059324593,3.791092817584449,-1.8467738317805005,-4.446349594540409,0.3762748239385649,2.871666676086353,5.627864097406319,4.1952304295986025,2.806307006324498,8.275658192154557,9.407175498208115,2.7310331788700792
6.248543892860276,9.87412875642601,4.735371069324057,3.1446953305860634,1.844158210194656,-3.883341853646308,2.4273290181348948,4.437196433040752,6.627104490722457,3.920682857512228,5.7548568808295695,9.122859311464554,11.816575518365406,3.2094752683184247
4.285983223608835,7.771119306924825,1.373755364681233,0.6829692864444861,6.593631744965854,-1.1406317636669567,3.851041086986478,4.914351934605564,6.50657321017218,3.63095985225685,7.197467008714326,5.422130935652705,4.472560345465158,4.058517525415036
1.477868992557668,0.5589156983017327,-2.538914239694772,-2.0433346709478752,9.073631810718547,2.06155716780924,3.830027467429761,3.80287481851238,3.1765902789656124,2.409462600019155,4.579795405359444,1.498740351975305,-0.9931089639080524,3.204900836067031
-2.53423241490473,-8.355760699474729,-8.298638820501491,-6.130367978454384,6.572113173273925,3.258406655803811,2.5672317927567763,1.8814050940889224,-2.9743110958136496,0.2720968914839858,-1.473775959439144,-3.982991157456916,-9.72148757586748,-0.1713913617340581
-5.015012709732873,-13.714876383708775,-10.67227340067994,-8.822024952864613,-0.4061384895729309,1.7423308318251545,1.134821173248276,0.5060326298782296,-8.71701712769654,-1.8272054650469725,-7.602026347305287,-8.874741160752665,-17.481821084400757,-4.99836737532668
-4.226073337646367,-12.175136439089222,-9.028968982750724,-8.899174538109738,-8.206799217099793,-0.7870466841431312,0.3037073829282579,0.2182489745870508,-10.45854652251843,-3.1630331514150445,-10.542406116643022,-7.951408713594995,-15.468825059435492,-9.362904914612486
-3.974168322255716,-4.984942856664783,-8.620695804020514,-9.101255224346607,-12.772506703400964,-2.021061410297877,-0.3986304947367302,0.127306653826674,-7.442184898189366,-4.131003494397741,-9.757499221761044,-6.722097613252371,-15.099736784359528,-12.133426072393611
-4.739993997257674,2.8213850671650267,-8.21873989068976,-8.00957754492645,-12.5082250061743,-1.3341984473523023,-2.217276466082254,-1.1206779391969857,-2.5544815896683573,-5.680862123807577,-7.488658433468705,-5.870046639474346,-13.931436113959158,-13.512007877073826
-4.532303388505842,6.179280105500301,-7.675940017348395,-6.747525193580046,-8.76787339888863,-0.1773347702404843,-5.559326367946996,-3.648923978020442,0.2137057550310821,-7.833522728056677,-6.375537307278558,-3.7751255391616656,-8.830849971043754,-14.0685046231765
-3.009615138976032,3.627698017087728,-7.721767628725277,-5.070876392645835,-3.988449489055871,-0.2534488531135368,-8.89524657083812,-5.7379558230761685,-0.6888865750450011,-9.054959120384645,-7.067596416243845,-3.823269205173213,-6.246418640949583,-13.488849335479427
0.5447859871294731,-2.0548259576823664,-4.876556830178546,-1.6427902124248497,0.2878516298658693,-1.5042080309670958,-9.560849188977798,-5.171776696322423,-3.2155049853421627,-7.48036961409131,-8.064975736630686,-4.192201998859313,-1.5686749607551356,-10.631159916841565
7.07566920970041,-6.42070618799968,0.8996522726574315,1.8850997105537013,3.638969409250455,-2.084018640768973,-6.029627429960534,-1.4285353866108892,-3.996107296345045,-2.933654192843577,-7.6550545484972385,-2.5782665617854894,7.351391421536733,-5.057505254266408
9.924216056303804,-6.739046401377901,2.126516557934574,3.500179731369334,5.662023697339113,-0.3437086771034447,0.3716435986367443,3.404229503830789,-1.7373899381116351,2.3732870954095704,-5.774921276263994,-2.872525906094481,9.246670144200786,1.5343397131596728
6.188868845582091,-3.54056388924909,-0.9998265786648584,0.5249526860686553,5.442451716113104,3.275532090652649,6.030168793430608,6.013315892408597,1.5276743380681848,5.361286057165678,-3.970285417393595,-6.147708318784966,4.109966309353056,5.729798842130236
2.077149470848401,0.3971256927498423,-5.442269485063331,-4.812005476453606,2.5132053120110776,6.424858127217875,7.610905126323885,4.406576208934855,2.3643717920680007,4.457263372047102,-3.767946532621632,-9.481251935505949,-1.1412145050710307,4.716489665726531
-3.567998028619896,2.26816600719061,-12.8744937997391,-11.073140973830752,-1.890734775082169,6.939627881705792,4.5196452680004215,-0.589762971154979,-0.970976395218372,0.5765280151064203,-5.318901856348676,-14.704564183915275,-12.8033256254111,-1.3760552712360123
-6.138878491720477,0.8517870400818102,-13.733974373909344,-13.947892827211948,-5.12139492732148,4.763626017830599,-0.7464321619663927,-6.062639148018343,-7.082655361940851,-4.055021555040087,-7.576244801136571,-16.340353400725746,-18.278426607420897,-9.21216901573138
-2.371689533343163,-3.2272309932784786,-7.129336020117052,-10.122609506829066,-5.125918841196407,1.874023715369311,-4.548757997833143,-9.12039883328092,-12.574390977810475,-7.792413199903356,-9.453860041546497,-10.624847681102214,-12.15045174412468,-14.395867179010256
-1.2808253112678825,-8.154910916214943,-1.9064048071279316,-4.543259409156399,-2.279101537999833,0.3919681180299772,-4.695159866902942,-8.505227876451716,-14.38135613130947,-10.192872115975357,-10.500887001907952,-3.788512394148056,-8.398849263289163,-14.284850837040205
-1.438703071489441,-11.782154259904988,4.140236104891152,2.9847258630373843,0.905240575323294,0.7646370848186559,-1.680647529333428,-4.658653550829555,-11.354135675634035,-11.0453183675715,-10.495889373299583,6.250295254011199,0.5878806581711898,-9.2739036945157
-1.2291582223672182,-12.38086150894859,6.79094487421202,7.022582132537074,2.011563269807959,1.6875504374163417,2.1418607016895788,1.205748209113966,-4.419198739918112,-9.423580712799165,-8.805302328018055,12.153169115528591,6.2985608468382415,-1.8385254912767683
-2.025046623621287,-9.333816883902967,4.426875908565612,6.033788866334153,0.738959196919148,1.6760935770188388,4.550583307436904,7.768569770777426,4.044754598828099,-4.346851653387432,-4.625928062836544,10.463030367021158,3.068582811009698,5.432000268990624
1.2137884096964455,-3.633896244749522,5.36311431410243,5.900344675810655,-1.193332959375286,0.6685101950043492,4.968686074508754,13.5019237658824,10.944710218015976,3.3862230685849286,1.915191634915416,9.88712232840292,3.822179257551154,11.009410666425152
6.619766781628352,2.228361215684964,8.449109506629409,3.12241882124568,-1.943756768716741,0.1257645171049992,4.447050411449121,16.473012102741738,13.41489974486624,10.374790696741428,9.007738877998612,5.660865501603565,1.080167678557602,14.167901248293903
8.071466778842955,5.304257770927224,8.233867026917697,1.393358190685565,-1.2007415412762388,1.5693500160686265,4.36858169555804,14.973347242485858,10.213991923146423,12.38091119405964,13.805649280011265,2.794519455490836,-0.7869149581168283,14.222419001698524
4.942613082821088,3.832330805258047,5.7599830072663085,0.052104566124592,-0.0256910397213556,4.946873239318672,5.127117381382921,8.901406296288005,2.972473625331938,7.685822230906671,14.188687026366935,3.1789615572139907,0.5011142606991138,10.54886681562522
-0.9929517807352464,-1.5287403276196865,1.0749711738779053,-5.613226643609013,0.6470625938247411,8.358444420154289,5.952669305236403,0.656390534333605,-4.057792904064154,-0.9266646510221443,10.213617336212252,-1.0431944982652128,-3.268668423482747,3.5282653788755005
-7.853391123823569,-7.9397069780251694,-6.804863632035896,-9.88313976637659,1.0437738931702327,9.451841692219327,5.938545845220017,-5.715887732244299,-6.389073189292686,-7.71504404483776,4.029993489218107,-3.798065307263421,-4.489399908806558,-4.76152393406166
-9.110087189644483,-12.21378092413147,-8.497192549867306,-11.899423992649,2.003383885040317,7.314214841075944,5.155002190344092,-6.997972916475449,-2.509181294306021,-8.153837820589434,-1.6502155984588596,-5.356020837365065,-5.566178492339601,-11.257352094018952
-3.446145482837931,-13.008263083884174,-3.536014006645745,-10.992489403638428,3.5853163709449203,3.247692775152742,4.64663542182715,-3.135427720669224,4.693107765661504,-2.344348212528144,-5.241349855324489,-6.9102450714291095,-6.663288518469668,-13.747658883532395
1.8734666970890077,-11.57071073305312,-0.7627806195648131,-5.627430368225953,4.542949914077943,-0.2142789994765941,5.2894667344591895,2.6033065687216874,9.891004643879908,5.233651789522403,-6.803648545293996,-4.652399514770776,-2.825651225385984,-12.247719945972143
6.118524864162086,-10.262866508791294,1.7669219782436074,0.3537508875550677,3.450615032846427,-1.1870358157113143,6.75982295129467,6.060179720436182,9.430113759289618,9.386136995777122,-7.160684327524028,-2.803603590609426,-1.440907717587936,-8.621449579323041
6.141701114796431,-10.079925452532668,1.5459798093707315,3.031078482806869,0.446419080820486,0.3512410362234819,7.822679029785572,5.362896926199023,4.2138654848401975,8.104974161602893,-6.623022198429327,-2.683962578726124,-0.7800500586330299,-4.851968498007312
1.2067072768952336,-9.512008758881764,-3.0353774427294438,4.287983306412478,-2.278034579965854,2.8780545730028506,7.702586327082756,2.1499708100553674,-1.2053424953332263,3.4766903976584844,-4.637086223524777,-2.11261894059188,1.1688877201950374,-1.688143469224986
-0.077822077911938,-6.031512764652617,-3.192576280872552,5.047962374406406,-2.043298205281923,4.665398373368145,7.000798541006317,-0.2587507915503604,-2.6137667135732814,-0.8123454812100235,-0.7566620747506114,-2.6432171855050077,-0.4001678778583831,1.0901623864534509
0.9080015697962458,1.01967593808976,0.4460949035862452,4.193995494602589,1.8749430753130936,4.874221416953281,7.001343741536586,-0.0948272691997216,0.3006324987270146,-2.800922120909675,4.0288571827264,-3.198175479904873,-0.3626946824452897,3.3384597064426678
1.5980551307500677,8.93339473066722,1.545273351297886,5.2867762186948095,7.126971657063711,3.628491529076209,7.993028279939542,1.2289934261075557,3.913200314668812,-3.4154910360290334,7.123124145966626,-2.737498600392644,1.5316766128569048,3.857410376996602
1.5843344825872918,13.226060480125833,1.4866086961959353,4.262327743466204,9.728781716409806,1.3997297667579651,8.47751271898441,0.6273425116463791,3.995712360550696,-4.8122623086227545,5.908065593332745,-4.55976491524065,-0.4217772987298218,1.3191304042958585
-3.892719320445324,11.150559909364045,-1.5345129432430735,0.0300867195165741,7.114720563995521,-1.4197713870058544,6.354502497072796,-3.4843118991077784,-0.7321033823503758,-7.892339241606065,-0.0056542254288807,-7.364458779911363,-1.3014730308694626,-4.059091490274429
-11.855684098726709,4.065557187907549,-8.723304992972949,-2.311480941035339,0.3555055159032632,-4.353503127671127,1.0849120497856712,-9.44336396595751,-7.885026752637316,-11.429656582262885,-7.858165270702574,-9.51247581961851,-1.3222831139441815,-9.91111943966798
-13.55027917248794,-3.4405820002019247,-8.877457349412285,-3.835823116093014,-6.3732420514155566,-6.539577767061392,-5.342966914816339,-13.700953909466818,-13.701888527974598,-13.339555342801631,-13.243307622444943,-9.788990164641076,-2.227166252387049,-13.029538682131832
-7.206616249236935,-6.875969473503101,-1.974335605416331,-1.1810971006634996,-8.783776988277095,-6.972210937432506,-9.75891702426105,-13.913843614981277,-15.85315798185357,-12.509459766348558,-13.053350035029387,-5.235537337475495,3.3074213486392914,-11.53993250918576
3.377117622463196,-4.7590542823925865,5.712061266709847,5.635677224485683,-5.5857003552960265,-5.321754602062125,-10.326812236642612,-10.766139294715895,-14.34426262709329,-9.394423860330638,-7.515442570400862,1.8314859974893367,11.55901117731628,-6.042931971176874
15.97701968833027,1.114444093859019,16.638295912249102,11.739257682827354,0.7677636976366347,-2.5716121616994854,-7.941221120664016,-6.916373078609277,-10.41417024678428,-5.161962283538459,0.3218426564291892,10.310586000830092,18.62198863623808,1.163097866205806
18.98862957845003,7.761867337004219,19.154564285539635,14.564877356008884,6.207336557620337,-0.6703994904687605,-5.301249917430942,-4.369456541498114,-5.225928427895226,-0.6534485202878004,7.069234582867019,14.2195970681122,22.65452751736097,7.864500481000774
8.898108622820994,13.235306931569948,11.70250074724932,13.02004848656236,8.14682036558955,-1.2327219101235858,-4.637930449391042,-2.9887117676615533,0.251713856879542,3.7094572499666745,11.192534402433724,11.206170611822447,17.777201273381674,13.019347608786031
-1.1599127563606817,17.10053229323461,5.827917630170686,9.260454855446156,6.922612221984688,-4.2585023003991145,-6.177799542343955,-1.44644113434053,4.635621739458877,7.295972472856032,13.148053751026705,7.5598840832445156,8.857123334183811,16.38268277491958
-12.17261161173644,19.331537288583892,-1.3270555163724718,4.019335695403847,4.579291568535889,-7.967436877424044,-8.500998756233841,0.7131667284400569,6.256555991971589,9.037616091293362,13.80234257355243,0.2293544546133712,-1.8001276466765277,17.513156612612484
-15.695291300202696,19.35323101695417,-2.990068864101412,2.872511977995054,2.506455323052088,-9.992000471851624,-10.084175576840863,2.287579620511869,4.47961102907585,8.190513327597603,13.103517398105044,-2.4967090698584937,-6.82298719968613,15.61438749312094
-6.214173210618404,16.562284268144264,3.075661604644545,6.049827490254759,0.4012582533312603,-9.04860364387602,-10.393121512514684,1.7774239165181114,0.9127363466082172,5.386254557441751,10.470328933378136,2.9017177100793656,-2.0067126399114823,10.62688907998936
0.1796468200960123,11.78048046875259,6.766436489122145,8.349261370595093,-2.5003595432561414,-5.788408946876137,-9.67387993763676,-0.6259406425835845,-1.1748572435604707,2.7037418247627665,6.311325015016404,5.881734499626679,3.1054517623884363,4.378590614229584
7.705922720025168,7.748824322322951,10.087754980717138,13.645548588361216,-5.492030604151244,-2.186417431055936,-8.08331225179317,-2.6911247116819763,0.7180889753330288,2.316612207110856,2.6832469952831914,12.677719909016222,11.986662143903368,0.1584865722716184
11.85739791088246,7.470876006057419,9.729449527496197,14.284370434506904,-6.197100717710032,-0.0188856387955485,-5.387480772891119,-2.0374250437174743,6.003049281037539,4.695940198845712,1.9104674528904475,15.394013435093925,15.24684075707787,0.4736920308139964
4.750626933242713,11.451128041004866,3.761027762001993,7.921473880710045,-2.7251410045874542,0.3100751762678784,-1.610574334061466,1.473075546587603,11.011361784605375,7.963615237825166,4.246310481482377,7.702740836644663,6.970924889389166,4.741644024339875
0.3727943726199575,16.43831962723381,-1.88258876746191,3.4709641876476454,3.877212032903577,-0.2963332466560091,2.226066360467901,5.22551869588558,11.639414791970436,9.139129954565476,6.993248633357081,2.26492422877288,1.2640973806495563,9.196064100919305
-6.488379314449606,17.378560464176843,-8.52856141477504,-5.587981262132452,9.624563585780376,-0.7089001370186265,4.35704938485972,5.885359603547892,6.551047922058897,6.409799962362769,6.376234538191936,-7.3392836649262705,-8.89866804501264,9.546661921764027
-11.94893980229152,11.431567313798974,-11.070512376769608,-10.463635243476354,10.533826767176077,-0.5952699074693047,3.541378341363807,2.2315377253522017,-1.73638652805662,0.6140886175554856,0.8396813297678904,-13.36775012676002,-15.519945295625568,4.387223731642404
-5.79526774344236,0.7117171247602032,-8.162418501640522,-4.9985974742815,5.998885636881591,-0.4662560665803081,0.2085718377878715,-3.7238746097140063,-8.759966893325021,-5.267516785349302,-7.128997034669878,-7.410182278946441,-8.484582784501114,-3.5401600678596
-1.855684647012188,-8.843598363629436,-5.397258238262645,-1.9337043541842156,-0.565994547972906,-0.8069935005688467,-3.636471097095181,-8.265324730779486,-11.327157822376757,-8.167245799137154,-12.44174613099156,-3.187916542818895,-3.7842401837538975,-9.35658850667442
3.955671688695226,-11.821835410508822,-1.2105521051644506,5.533730496188806,-4.509305045599628,-1.2300465700279646,-5.704990239086817,-8.732010529535806,-9.357151581324288,-6.853019218662992,-11.099896457790006,4.859359373696337,4.082640885446956,-9.645064905525164
9.521908838524825,-7.375779314637208,1.00250221695665,10.583076482800998,-3.668744984080018,-0.5599426695784961,-4.824341301350678,-5.1788448888809215,-5.089660192807196,-2.3231371214214294,-3.1891612513892937,10.700514001640292,11.26216576892122,-4.701348192205036
5.13745469942518,0.3649455341577932,0.2764761489441432,4.705432951517261,0.2148437759870031,2.120630946021005,-1.4590909579030202,0.1383535551178405,-0.8219076758662771,3.269723346945365,7.113980000235731,6.793372507244129,6.623353003659249,2.117838257120035
3.24996682311889,5.719617552648214,1.2697087534182234,1.4449391474438156,3.3864604781291083,6.345185563101129,2.7145363620426632,4.559167570026869,2.5737577857790184,7.94709222759273,14.335167595193486,5.500904666429089,3.2562490067313696,7.000505558643376
1.579790389990018,5.733831807091936,3.029887926718096,-4.253865681814377,3.305747460094323,10.099110125604646,5.633248707858257,6.446811796254824,5.258285306676857,10.470145880518954,15.06065616814428,1.9179847468286093,-0.3855243047517959,8.019330399007787
-1.5056055781123678,1.8492352765467408,2.8899118793235616,-9.479291368327315,0.387179257461951,10.940574130082142,5.693123691535035,5.502861376462658,7.138301199982807,10.247864048235051,9.601065962362494,-1.2838953681074128,-4.895697380294044,5.761971428316572
-0.7218974384049799,-2.03974645971314,1.2954679277893475,-6.543812487220152,-2.872748204157154,7.718608787110426,2.548760099869294,2.4464547838737536,7.4481132975209565,7.336753385034144,1.276561063483693,0.2658278073962692,-4.115125813972402,2.412798576475339
-2.0359411119280577,-3.1192319710952,-1.095097000723977,-5.750253881674712,-4.17385007061395,1.6585221646916155,-2.4158120739685387,-1.2955103265934738,5.72187542294904,2.746533736468709,-5.7701523318858605,-1.6354491760874306,-4.097818126900335,0.2817607973438116
-4.259983904039776,-1.741693843140988,-4.752384551578609,-4.206344202459902,-3.045360475011341,-4.091690243743623,-6.574811827999581,-3.966541868472412,2.8808013100816137,-1.6085628276271833,-8.803728671861894,-2.398218041157356,-4.994585445677845,0.5587852460933882
-4.015022997102624,-0.605937370466517,-5.629390386232283,-2.0423200723099897,-0.7698106060978724,-6.345320218633535,-7.683308779495235,-4.312979510118058,0.8750742697956397,-3.883750717874512,-7.724135690227734,-2.7428234187270597,-5.995669735210588,2.6595682357335133
-2.2425408289110926,-2.112074452166932,-3.372626997091581,-4.285275030059671,0.941766099214655,-4.019901522664926,-5.594928895193024,-2.551106827372758,0.9213583562373876,-3.647076575640673,-4.844465109744794,-5.012408226206076,-6.918829705606744,4.464738672733545
1.0097385302658457,-6.29030743156947,-2.625843889244109,-5.06708465657534,1.2967055592198804,0.9857984113938932,-2.4351559882695635,-0.4220240417088838,2.101173651471816,-2.261042216291288,-3.3226170707485183,-4.488734396603897,-6.698459290581454,3.615448782681562
4.732822335053869,-10.906626884741163,-2.550933690447573,-5.743641392258373,0.8223275076987364,4.963353964910961,-0.7345859679599258,0.1669871434091612,1.9564983775092464,-1.6995655341072158,-5.020031061260103,-4.986120822621803,-7.381310850617248,-0.7007512782379965
5.453284539149439,-13.369252852032425,-3.606945197697206,-7.1638759832083405,0.6306908020488853,4.935793437857825,-1.0932912946413855,-1.1258340227881805,-1.2493714082147531,-2.822268100384635,-9.15912789727909,-6.924667873671935,-7.507357488483785,-6.830620900805522
3.009611035818663,-12.670996591159874,-6.650533319545131,-6.81990442148164,1.1384112573383192,0.7645114101404178,-1.7014138378391248,-2.7501726181131243,-6.7061245808502985,-4.815341694338907,-12.941005752154371,-7.64175381377142,-8.924996885352538,-11.670039433296662
-0.4614404193105605,-9.857205218290154,-7.717039762169153,-7.009223732122544,1.291417761388705,-4.785514619968304,-0.3550458257831987,-2.879133534873118,-11.450665727734895,-6.338203731322851,-13.894873633890178,-9.934232686500746,-12.813700063456656,-13.082559661160332
-4.249523769391213,-6.957357490384272,-6.977273145963403,-7.400845073010208,-0.8484535832733515,-8.109018257318333,2.992357768957894,-1.3946161156628825,-12.655724907167968,-7.076486722244727,-12.07720213441925,-12.508151331653954,-15.054913551303574,-11.67335601184183
-4.874477244188616,-5.538011380860646,-5.836922503105366,-7.599978771066585,-6.294606533762972,-7.352487327826389,5.837051294883574,-0.0698896702995757,-9.726445564915174,-7.946789279312331,-10.01258108881955,-11.03736425063544,-14.635664920240368,-10.15252033365191
-2.440071718824285,-6.016604872691849,-3.4644813974424027,-7.917048207524546,-13.493908225823096,-3.5216774871162597,5.488426235109099,-0.5841432560556861,-4.42879027218475,-9.6954446970492,-10.14479128748379,-7.453806406251702,-11.914821280334838,-10.67566133048066
-0.7653785037637395,-7.906337419729557,-1.869698258711568,-8.189302445636585,-18.573646183889338,0.645148786781597,1.9202083307060605,-2.410360849017958,0.7767314262655658,-11.476910679506483,-12.065831045941522,-3.0651407645155304,-6.352745135161597,-12.598303985039063
0.7597301168107027,-10.3758279552595,-1.1876878821337464,-8.715155171459376,-17.881975101321817,2.92393177230117,-1.808738799992533,-2.963408949106519,4.4517245788096265,-11.147612845876752,-12.383912053064488,4.94322435891754,1.1152087057054263,-12.89243832581171
0.9498669485758066,-12.591316367270284,-0.2606371734781882,-7.875483529575369,-11.082917780239937,3.033254646327761,-2.164359613125485,-0.1298216477182913,6.47937347928052,-7.237068304657669,-7.807756965847747,8.47882167435951,4.472185055145328,-9.023242302494664
-1.091651792669418,-13.851487013736593,0.4276106311325581,-7.122382207994223,-2.0804117182976847,2.2202367232192337,1.6106859052900275,5.270752124315884,7.113569938381358,-0.7060175789871908,1.2068331228133848,6.132639973130214,4.78598344751537,-1.6620905386581333
-0.5525688597587954,-13.70930215737676,1.325694913135893,-6.486776308358388,3.480164664808134,1.7162188262541531,6.681889198563852,9.694176067899331,6.165353119492496,5.364252869749437,9.866662458919128,5.360842829444664,6.346523567446662,5.379644866707624
0.5560123277053736,-12.00448977124072,2.5226669138098594,-3.98924878131649,2.4342476504388104,1.6839181481860503,9.054891516670814,9.813656059854598,3.338005623501829,8.062742021302066,12.554361019639886,0.5195131571455798,4.536038470226539,8.082922809998735
0.5730781474364854,-8.65918688293387,2.786208353159323,-2.9406061783680046,-3.426246236835124,1.5536737069365107,7.06222847388524,5.539722448457596,-0.7232345863172716,6.893456005153659,7.609359328121498,-2.4172243489764305,3.8162766985263823,5.440189681420117
2.085411614157312,-3.536059783202816,2.1439558778260888,-1.1011239955753127,-8.82862186792972,1.1079157318349095,2.788759664996757,0.2778549288022733,-4.040135077734918,3.936348740244718,-0.9269020377516212,1.0673439679928247,5.94621603340751,0.1255385557731907
2.8055965168614194,3.0697992409884534,2.108340590489362,2.716767344937664,-9.271017444327336,0.9314468257788148,0.2339068154250614,-1.8791364592956248,-4.37995945527722,1.833200280744498,-6.36313019359832,1.4625297293319326,4.087021703145963,-3.850234800262168
4.416445784691981,9.424161142024566,2.5089423126175063,4.4798257004151605,-4.439082599585944,1.6420642752642045,1.8973887602789328,0.4901626931578783,-1.089727784944437,1.531587346439072,-4.6696280768753695,3.529492569904284,3.041614637651105,-4.2795359559066135
5.846170325515522,12.108099670009556,2.8969176772340104,6.086340467742852,2.021321826054352,2.7878690390569103,6.737380960239146,5.184716378697592,3.995136096300631,1.8853363014397744,2.5291668059007604,6.155280352093512,3.68778889511804,-1.9909356909376763
4.000272984622449,7.797449115053982,3.5547346231364725,5.373065672321883,5.883469327331152,2.82351174002989,11.115201975158987,8.533242939413908,7.63281832205128,1.355195654449188,9.73555523569769,4.217814490935067,0.9105505813310892,0.5252516513399064
0.3976900587349387,-3.5759120502033817,3.308738093309764,1.3764181742455972,5.686584419818034,0.5117768131242819,11.75257015271125,8.56642104720581,7.578230940588779,-0.0163358462204596,12.32130224982556,4.095346174850293,-0.8117780584366754,1.4263466513244492
-5.523009449790746,-17.078931537190073,2.065377223707479,-1.7495772451326628,3.237083162958565,-3.506318955994899,8.182620967893957,6.382613003043882,4.357549164757128,-0.4325292159481584,9.981909543540826,4.017994968088773,-1.4563744629874824,0.6226810009013781
-8.483763494458561,-24.964103394530326,2.092874991725196,-3.269964654759378,1.324772058712418,-6.663379709716478,2.8505129049838853,4.720554184613833,0.8712845874237032,1.7876178800830107,6.160124888811776,3.012648352329616,-3.0690717543900194,-0.8634660074135025
-6.041514522912745,-22.00798854299923,3.2548547984906517,-1.881144073260216,1.1874364219202604,-6.307802888621168,-0.9204164482774236,5.316048582600185,0.0970612556642662,6.1757183155602,4.50247265260947,4.585391214172776,0.2046717649047404,-2.074771209298952
-4.124927092240255,-9.787332820475466,4.070597103410142,1.6866514317428518,2.046763876847116,-1.962184706645752,-1.297601143840179,7.512736813033957,2.780721250105058,10.054137142403434,5.862781978996315,5.90826328375804,5.803549912954976,-2.508243618307098
-1.719759915106169,4.162631560350712,4.9423764016521785,5.319042321474503,2.663826782826673,4.013780864524259,1.0837117152393343,9.161496307406331,6.978039255369767,10.677556442872744,8.349185197486856,6.931358506293825,10.504533764138282,-1.7250804773953892
-0.2458844016053708,12.103420970524756,5.600911418014458,6.575942711791572,2.9021985327681463,8.011762045282182,3.923262475835808,8.6480927561523,9.682051755115626,7.604014557044434,9.750075996158632,7.551539812041415,14.339463504489329,0.797952504425707
-1.7066115850979549,12.00044022540398,5.825951250686194,4.9741519362728095,3.6261304042771783,7.700128805178544,4.928528006035338,6.07096745143162,9.049195328531736,3.053776991089843,9.59067727454074,6.072087562305175,12.83756004989059,5.052176099730952
1.1270130439950925,8.47585541827321,6.742331012701222,3.0077222026955748,5.277443451854426,3.438738301126236,3.134379789222576,2.7279772788839924,5.438142505653154,-0.0541967763558424,8.928795618621011,4.489932740238743,9.117134116846678,9.862612990676489
5.970016885524342,8.13404562603089,8.283123169545362,-0.1805222016985165,6.907345574788042,-2.3575190510374906,-0.7853883333676999,-0.2138970115764005,0.710415600984259,-0.5038981402955286,8.591034098898682,2.2025342221270003,5.688962083560166,13.321486400546604
6.718894001610507,13.632364320373322,7.155569459446824,-1.053900868963081,6.852205927879034,-7.066004931099705,-5.114126096763222,-2.448105992987092,-3.2699415393433244,0.5560731670042506,8.057733244748736,0.1435549766432671,2.7770385689322343,14.217594783051693
5.214740731673234,21.732179442217717,3.2882199207710374,1.8499406212261376,4.406646188261664,-9.291142725496137,-8.081953018728523,-4.189442168590975,-5.605941792580389,1.079812420264164,6.189350897245207,0.1561742242333063,3.544050190253269,13.054492392242304
1.9601051884469236,26.60210091304306,0.1501404577244423,3.880611264010834,0.7598510895662463,-9.013254954574112,-8.711730507538029,-5.500932731049637,-6.309548315609563,0.1125681688055966,2.7728707694290984,-0.890175894832642,4.4223356554432245,11.43206873690274
-1.4882604129207413,24.857998608341298,-2.869815706886672,7.729612538444468,-1.8040128433016327,-6.888408971725582,-7.175585282715225,-6.171688422771803,-5.746789503117909,-1.5749949292241148,-1.014247933223542,-1.8268487830065383,4.349684250653767,10.267236600607577
-0.9009057832130514,17.75264210415938,-3.936013040299284,10.150190518460052,-1.7255959072388247,-3.6749740440829015,-4.582844456948928,-6.167461213438251,-4.329822452629148,-2.555496771159002,-3.769994407553435,-1.878513349480688,3.9661968336360025,8.722913414099857
2.4063992239702867,9.177609878121816,-2.237460968515645,7.236654581450471,0.653995505037372,-0.1940582075556913,-2.377733812120604,-5.928993499865432,-2.6019896089714014,-2.233857675006618,-5.26323028203287,-5.019137125688673,-0.5601706227988106,5.138145056063878
1.6266481328554985,2.1493398718737105,-3.310874070702433,5.098470039753647,3.547290132475591,2.589362063228939,-1.6573596358331666,-6.018820743876221,-1.2829691322104604,-1.3021721017902093,-6.397727178652264,-7.977327074520798,-5.709374579531034,-0.8437664117022288
-2.295497633373292,-2.69584886735123,-6.776404797758878,1.81332536865147,5.262898042664032,3.8776582584684185,-2.692258248703045,-6.468771330267536,-0.9396905692359478,-0.9255472300334556,-7.806592749216263,-9.696296294986468,-10.24020029035476,-7.178523177396235
-5.561129148737847,-5.780378296066623,-8.473197391625613,-1.977219146791923,5.406238385799592,3.6065206689468607,-4.8200136514621885,-6.617894006977499,-1.5251209575933151,-1.6389719784272343,-8.823156234539484,-12.726938982404596,-13.770492604489853,-10.725861854767592
-7.3926023212118945,-6.718074442591316,-9.273375567744296,-1.7572826312690557,4.789848905140872,2.600648546630212,-6.782896177998351,-5.746826148725123,-2.342473654079356,-2.996366546723356,-8.197237591589321,-11.484546906204397,-9.914291842764582,-9.937069441178966
-4.977979258882483,-4.434592555033269,-8.700195607216685,-2.0310626775823963,4.351718425279745,1.9575663565862529,-7.4355069626602175,-3.945538421329813,-2.627642223212761,-4.103368899479716,-5.843673947126452,-7.96088989682011,-3.6896229892768178,-6.385173878817186
-1.0707951169019605,0.8217873662581923,-6.016413784354297,-3.120059147151973,4.19716568017612,2.141849952164538,-6.479597550377775,-2.3201295251854184,-2.260846168188288,-4.358364992101887,-3.514260676277349,-6.446824943696618,2.4503694534906444,-3.544033160348844
0.7360940510473655,6.171609642622478,-4.925406376699726,-1.5957676577582218,3.621234155617117,2.6801107161330924,-4.672082226011844,-2.204387951004465,-1.8721643141371032,-3.747603609902808,-3.2893608381075783,-2.2585493550411178,8.564534181837649,-3.7804945371720913
0.6719553251559027,7.64270580222432,-5.29417191638244,0.9818875337572835,2.000657501557664,2.793087583016276,-3.1761504533090053,-3.951501578369299,-2.137216644454451,-2.637408391794118,-5.226350667644288,0.8487983705292792,7.30542873266544,-6.247949933300285
-0.2235258048320555,3.6574589565439135,-3.7632674575683143,4.119103765831419,-0.3256595401920976,2.321376413550612,-2.4431289751548477,-6.329954398329367,-2.901615017479433,-1.4345841563265724,-6.701415534986388,1.7249335558440406,4.090259255269312,-7.613900937034609
1.4096706295672694,-2.891467240296902,-0.9168011128800037,9.957281302935806,-2.028045184426671,1.961884841425853,-1.6358624506606692,-7.146229646563086,-3.069402674088833,-0.3986115072218892,-4.497789515165263,6.784340385425926,2.893841759356587,-5.028797707610682
3.770441053075882,-6.476572073926389,0.9839424928165558,13.00847074843299,-1.707742440076523,2.5323268417784712,0.6544964919615426,-4.789592624451879,-1.5447254097549017,0.40074310171065,2.067334822737046,8.563206178892317,-0.4158189277254609,1.2354207048848425
4.810423505647985,-3.567857856471855,2.3223026324457594,11.074713420538563,0.9443576319572248,4.002127906455984,4.813955411411672,0.3740460494392836,1.542311227006378,1.069033891262807,9.911824558057225,6.020895504658819,-1.381806512085352,7.735544558243808
6.465706125019875,3.964784331451757,2.397399481159748,9.459359058904672,4.709337264040391,5.29903849401482,9.19340989746179,5.856753922161007,4.527335215136674,1.7758533252064628,14.18342666230298,5.726168293648328,-1.053948732853692,10.408822658201183
5.879910670894036,9.944143625388731,0.6940296991994467,5.519521049731219,7.556060192135936,5.144563787378164,10.892355606806024,8.458599379012743,5.297248501863908,2.50458810950944,11.906035855166332,0.8999874298628057,-4.746724185687684,7.578671851308297
3.5783502022036413,8.823759619269241,-0.3479312193089232,1.775747476897073,8.029869272386433,3.17114886450645,8.005372646679792,6.414472291462458,2.9521324319519104,2.846760873523717,4.240975078868932,-2.985525575210719,-6.122454781247885,1.0192242631886392
1.9204780036404447,0.3313180278462173,-0.9503088814922988,1.2117069516548693,6.244293115443182,0.3193640953705885,1.5056899161117254,0.7828769383134482,-1.394135950931275,2.1611232976249344,-4.42040796811944,-1.3555162258057,-5.540819408587785,-5.578797004444681
-1.7062893696329091,-10.149289929162112,-1.7913300141366095,-1.2646905773822783,3.658651678217007,-1.814439700338691,-5.006798089897663,-5.046898041376298,-5.397439661959043,0.1406896113698472,-9.633296474940114,-2.803554662288575,-7.328144187185583,-9.284785505803177
-6.1173483903225545,-15.765831210981167,-2.406059841399852,-4.009060422504189,1.7897203578639551,-2.1156877136829104,-7.748326317366715,-7.556378311942335,-7.160961749963422,-2.662061547197751,-9.749784932958107,-2.9030842515558746,-5.870122135814227,-9.59589189434513
-7.7857675372822115,-13.445433607834842,-3.0344730960472903,-5.35743524770021,0.9166429231092964,-0.6972753185502514,-5.530568542437299,-5.497779809373999,-6.375347931349984,-4.936444762888057,-6.429843487898282,-2.2833713384880907,-5.643541323402425,-8.072942527884857
-7.095970805501359,-5.997817693586507,-3.636709378249517,-6.484203821713652,-0.1085594635753475,1.2214937522476936,-0.6420703180277307,-0.7049755932904818,-4.110846399552935,-5.428978916783498,-2.8626258730422203,-5.120779384117572,-8.998846277872115,-6.690943727279091
-5.570840323364114,0.3622008929522393,-4.987943457768471,-6.363226465853508,-2.7329397159516784,2.1230866234782706,2.8798360728610968,3.3307939342454995,-1.742731970389852,-3.867444275477671,-1.4108568726882016,-6.415471461063859,-9.660126373949977,-6.4676377524068265
-3.3859746770859207,0.86202247008651,-7.191213892571387,-5.294405088811042,-7.179569416339989,1.1193570540781517,2.1955292876576102,4.02426294377332,-0.120953481743367,-1.2138978893390462,-2.428055599219462,-7.707237618421741,-12.24620132579444,-7.276733941282618
-1.4935187000137111,-4.399018106860505,-7.490360243677998,-5.236420615845502,-11.839991330910308,-1.5461294303862525,-2.44738977561177,1.4031313391977545,0.4654962891551149,0.980726931579099,-4.718446495482519,-8.21073956262623,-13.330536686398611,-8.500687749211949
-0.2401992239352342,-10.828499599879404,-5.876238557927402,-6.175652195891274,-14.194721738504722,-4.668737599432822,-8.159306638994273,-2.2822797352133253,-0.0442593979572327,1.6053647582568589,-6.798151194919702,-5.917933504678834,-8.403930419150557,-9.593702334346926
1.5915497967825625,-12.988587277722988,-3.0314496054076745,-6.9942385846307005,-12.63885576910596,-6.795319309322815,-11.572811247164514,-4.514459028912613,-1.4972225637215608,0.6387638105490625,-7.808785755910326,-3.5682225457737813,-4.430806247446724,-10.098785770011858
5.414030823646586,-8.728908361611,1.7479727331111623,-8.039102552823676,-7.811374849710506,-7.047965046633654,-10.956805977580052,-4.278442253418636,-3.195185944246464,-0.9554402647288912,-7.605782175113298,0.5547854368120438,1.8345187124982587,-9.45419605840481
7.777435354960979,-0.8429654103366921,5.323822949900321,-7.700110364728061,-2.331497199943599,-5.559707154524811,-6.900323595649027,-2.286997932063602,-3.866049683366671,-1.895926947612541,-6.362704700855183,4.057568059600106,7.483392510460781,-7.117465138804171
6.796880181488756,4.909992077353264,7.5833663755097716,-5.93179462677792,0.9656218309829132,-3.265968487908641,-1.4977531157499562,0.1609781608666542,-2.39053717928714,-1.3395710759262496,-4.259556660316754,6.118308839032329,6.698215148781996,-3.0199929777522945
5.862674989316426,4.024932627051058,10.616326644285545,-4.206269500255716,1.0046300680160294,-1.2264876764196797,3.0456649057582275,2.3576598380573994,1.1670271938705463,0.6794282361540018,-1.4598639455448237,10.092290710482414,6.854771006546162,2.152650310566779
2.3101404090966726,-3.314180620099909,13.72488281796056,-1.1689897137360237,-0.8908996695186415,0.0210101662702768,5.4504192377005305,4.3378921855521,5.240904944341568,3.3180835558541526,1.80964334776124,13.109595613339089,6.378075254871511,7.242149437067551
-1.7600579041069309,-12.149878514040193,14.262097563758974,0.276794342771095,-2.2627187798836568,0.6214174412297666,5.684535687834237,6.183650124992269,7.684361432935853,5.458024201738411,5.2570112987351125,13.874858594863154,4.876902839628238,11.247357260870375
-2.6123029942743354,-16.189425883826956,12.139001077030953,-0.6022152799619336,-1.697165763452141,1.018813726977703,4.6833815932332,7.496008134228679,7.311440810806219,6.401462459149482,8.532304055983797,12.84371304103725,6.9036754546835954,13.718418346175469
-2.9249957738512937,-12.280522422417892,9.260893105535814,-0.759983142169408,-0.0711896872215998,1.4097016863203105,3.703877995175028,7.6653626074565295,4.784714236264746,6.250123636865913,11.120517263176318,9.019873798848316,8.221732848167527,14.609549278242415
-1.6827449988398122,-2.5974614560122475,4.997957619384123,-2.5992949417386413,0.2929099054622326,1.5390610779246372,3.586802836529353,6.535764278152897,2.060006551445139,5.630996507986975,12.237466747755091,3.3401388853151506,8.166859031478714,13.883379743352869
0.2388560147931907,7.036807332067694,2.27661777953377,-4.2563809227465175,-2.089477139471965,1.0228447231191562,4.311170732679161,4.595215701796005,0.8060489944778322,4.945081928121896,11.021127472568065,-0.8400801498296987,7.454419605884282,11.392447911594632
-0.438957763252185,11.280598429904686,1.569682364754457,-4.15364170973472,-6.181904990779033,-0.1336310830879079,5.156540151598817,2.420546806448284,1.0764371543701492,3.810294533394166,7.077651558308649,-4.180466022043773,4.464721896925573,7.192386472721331
-3.705644500885554,8.661064298233663,-1.2912877544425874,-5.50316957854373,-8.98776966088337,-1.3805679964783968,5.362740927975046,0.0338805750539052,1.3044611877964811,1.3156520516646637,0.9968012178089598,-8.60152268495873,-0.085049771407128,1.910469915295585
-8.060656854406421,1.8641569070624224,-5.67311867517636,-6.675967939106807,-8.023662415495853,-2.0563338056766387,4.728289704938562,-3.003636986237366,-0.3532160495738798,-2.983354102384979,-5.657671446775143,-12.578691995882656,-5.563686517539037,-3.2846626094770945
-9.256830290281457,-4.817376972125894,-6.61957305128998,-5.56594441313284,-3.560228554389172,-1.9942978538276013,3.6622415083602617,-6.741079513244375,-4.342526302172436,-8.15271694833558,-10.951440289692798,-13.989492649180407,-7.255487108931946,-7.130046702530744
-4.384150556708596,-8.51670431203213,-4.407857399913046,-2.6775286326776064,1.4386119931479373,-1.6153567088464316,2.784176137016048,-10.126384272562184,-9.001070026746145,-11.966340832739448,-13.33107522780922,-10.887064071375104,-6.0838720250617015,-8.72437123682975
2.398404797580713,-8.990114950815826,-0.2167173587850479,1.526037091537244,3.736875969255365,-1.3105277860594169,2.5771357320784265,-11.351102087402122,-11.442107930201212,-12.157117686868736,-12.053253972889742,-4.869908921526428,-4.470599607457006,-7.667697603039096
9.765727188300684,-7.531870142260513,7.094934552526242,7.6268372347923075,2.5246211708705477,-0.7630770661478534,3.3335224875502094,-9.200405255626512,-9.53039010463592,-8.006231301092322,-7.271517541857051,3.7917526836393143,1.1347562708909442,-4.011039091555361
12.234144036337062,-5.064669449655194,9.587151786369114,10.610931808474746,0.0085423108799109,0.8911439882682557,5.094414265669501,-4.313503928214565,-3.586860182112987,-1.0596794635611184,-0.068226376171693,9.219651681256392,3.6880737615443335,1.647681431304628
6.379596246770921,-1.2545483402689523,6.74979646262682,8.217928867365826,-0.6300411199561953,3.9629267215127975,7.295324809114263,0.8426108149486273,3.4994711356062336,5.643950801369781,7.530528235350866,7.997003844719283,5.237471098846796,7.939300932629197
1.2915118606740348,4.706071304280861,4.064983698341942,5.770670307770637,1.907875110227478,7.207063138143484,8.486303272894391,3.481589994192019,8.036735350139104,9.337651939326086,12.951737828109232,7.083018800959501,10.981923698890595,12.870235560067602
-3.5486343952820976,12.5665661476317,-0.3704869682175672,1.027972894901278,5.903946500414461,8.169698034194539,6.877475428626076,2.4198468941912994,8.042070094466393,9.055077236536702,14.16166039180154,4.402181067795,13.447993629776942,14.718917499241485
-5.902145654921443,20.25523104322584,-1.8215298197357683,-1.120080449686769,8.195736738425692,4.986249294292891,1.773418481654274,-1.0882327717926312,4.632593403424583,5.918547202771098,10.953682561473252,2.3402354416915294,15.55585720379688,13.24215959552327
-2.9094726121431767,24.68805328883574,0.6293441820018234,3.9447004065269775,7.024660689114213,-1.7685887235308404,-5.2523587695606695,-4.286070284299488,1.1178006719286755,2.144182248779752,5.355621945596523,4.648920142020713,15.848948916400566,10.083460271035086
-1.5599373966944825,23.654491924900885,2.870625454556675,8.255429747083053,3.585209913996485,-8.893580336662476,-10.843142317802611,-4.89926788630972,0.4037634826814984,-0.3893876530675917,0.518335127941953,5.121965837761001,10.78884929639966,7.698868409414991
-0.5084279387174719,17.45429926407847,6.244143432325918,14.361556474504477,0.8729638243233269,-12.447750883748167,-12.049568749876943,-2.6194915383947057,2.792356990045519,-1.03252114687099,-1.273296536227306,5.259153248144729,6.913236420281656,7.469520585307692
0.6216849556992196,9.11993966396405,6.732906478847158,17.448611943744083,0.8778096415482426,-10.360802847042129,-8.513770723767955,1.0015369402399346,6.019313214620499,-0.3388767876509574,0.066256238423521,5.841151490180367,3.088734003844182,8.641295666594306
0.2888246388896418,2.970486371492832,3.576687380000683,11.45107939543885,2.7111006619492235,-3.804528902588935,-2.688534672630775,3.986277449366858,7.4421101383136765,0.5644058073710676,2.794615993823424,4.2454236484591386,-0.9878253856574694,9.152397133336956
1.4152097090770794,2.261294973451178,0.1139761558291522,5.6768628439698805,3.4569585540280747,3.625053584782716,2.1361926654246752,5.374949460510008,6.3347542778466215,0.6823220939994377,4.97110274318443,2.664538468579368,-3.66596199113622,7.652508448081546
2.775976498066324,7.252310826584161,-4.811161739333194,-2.7093272424936083,1.0503749632333064,8.19835101832958,4.185066269665727,5.510012386353793,4.169514622277175,-0.3686445190672889,5.825469761563145,1.2076212438321836,-8.762334433632839,4.7995765761429965
2.531523484549224,14.866076487389437,-6.928208990920613,-8.45265994421151,-3.4683171336405487,8.169730404528952,3.861513710777732,5.158814907391971,2.756175150426124,-2.182031197205452,5.740951657666161,-0.5486173210966154,-11.545802352811943,2.562520718303249
1.9286805414352024,20.28732784015716,-5.554600553542334,-4.495907725909585,-6.538096076641079,4.433804560087252,2.4468565904559405,4.52755026070064,2.2488572815198538,-3.762391671272453,5.166110824669211,-2.492136124541162,-10.308593242597732,2.213311839286125
-0.0508693512128581,19.720129618943936,-4.942692174038273,-1.5474113580069764,-5.16226812247281,-0.4307139563458033,0.5022929578873727,3.181609941168227,1.1227463968099984,-4.163123078509406,3.7911643049165,-4.506157678484525,-9.27562320717974,2.9987564856416142
-2.624034699081344,12.683589927001636,-3.9951833336787703,3.4803223669775605,0.2363005953812953,-3.882640464296936,-2.283622091081254,0.8556768848453347,-1.89353279250936,-3.295379765761729,0.9338922582185072,-6.440718634563298,-4.569934959620241,2.800583778360097
-2.81787759018228,2.349382469784512,-3.021538743681463,7.950422743446493,5.8810609020311375,-4.760132723489305,-5.839345312589467,-1.815422128456735,-6.065828632730471,-2.247157110044964,-3.290610850223274,-7.58270339861965,-1.3941972839573844,0.1287652459272443
-1.8782042903802512,-6.374148842462467,-2.5901743037568656,4.83982682005795,7.743285334972302,-3.5179255773975027,-8.733849014144562,-3.523690528101354,-9.050750965217972,-2.5878229392154752,-7.357315402388885,-5.345290448012749,-1.2997423693936665,-4.455321082693366
-1.2936468845957017,-9.757831704462198,-1.1125616321151968,3.327553227800093,4.9721204601844295,-1.4279433171578972,-8.882706926166147,-3.331074631960409,-9.083268591914722,-4.966464407916896,-9.128359922446702,-1.488105827699755,1.8014883648618436,-8.724779707622137
-0.8478373554350667,-7.220799602334159,1.2142207443993365,1.875449599787351,0.5330659041583861,0.5223397732483639,-5.44149634701026,-1.4986262787553766,-6.616971392972397,-8.152137363987597,-7.495912753119938,2.755624112446068,3.172655385790557,-10.449829714433214
-1.208320085407797,-1.179605430523848,1.6434238154549303,-0.5450530783358928,-1.5695876586584063,2.173584805711462,0.0500928685007133,0.7559515237942147,-3.655415975855969,-9.557108630619284,-3.3775331628910896,6.210177276164531,4.359723115186715,-8.776941705892662
-1.8510876653636543,4.791853292894562,0.1997292707465415,1.081655843124124,0.0456405998011266,3.832557029122887,4.590697399805561,2.353063895379929,-1.5572661927861011,-7.098490963415514,0.90849807679307,5.77055927975309,6.052069658009422,-4.366348733282363
-0.1672144390358299,7.995194442401925,-0.2545949905576425,2.3339704798829866,2.976303470480179,5.436823822543746,5.964369828787264,3.2014430514573937,0.1917140061517758,-0.9990026439580107,3.369458708668366,4.113763607822953,4.592234796907672,1.3207649534214667
2.947504548578443,7.612553511533465,-0.1910301253942967,2.585582119165198,3.443574330820084,6.103766909696307,4.238695887283082,3.9548656684147376,2.831262917135575,5.988679634501301,3.639528851069026,2.6899564408002896,3.9569738332165834,6.626896947610297
4.36523578289871,4.546479180434345,-0.9410382261812495,3.1473741049890167,-0.0161054303589724,4.60780375638152,1.233407605354568,4.976187582240568,6.1314910393337225,10.24032662757859,2.7944837174015,1.1475749654766365,3.523603915290941,9.87830258009182
3.785186049860594,0.6770345330838512,-2.105894514662,2.28545899933406,-5.06261822698086,0.5054550377575044,-1.2765119149560853,5.678907748125679,7.819146070833483,9.615895658898491,2.061956432986728,0.4119221542783065,2.461098448566543,9.661490328962714
1.4066369450505882,-2.0331986088304155,-5.451509776154136,0.8602419908348148,-7.655047352338714,-5.028563154850659,-2.7425683018338134,5.053149792108314,5.627976838875141,4.816803110512055,1.7751284207772304,-0.4763313767533234,2.768407894464734,5.60786763533477
-2.2088284176939816,-2.5323644894447024,-11.327722718966632,-0.5000272548595555,-5.729100670469945,-9.488911299019936,-3.458032145947698,2.895925850432167,0.0071820901080941,-1.14620422951125,1.473199417518038,-2.3123917361879527,1.682498664898904,-0.8385204706648945
-4.043772823947164,-1.5256966114127168,-13.15116486609634,-1.755346431516901,-0.9970121859128562,-10.445989943473778,-3.472927392196957,0.3948081575135496,-5.5018751154713135,-4.905119651288764,0.7683879906827302,-3.810562578910986,-0.616648059425996,-6.715937046582988
-2.874747494523691,-1.3958526810379563,-10.921137234685656,-3.755971523756176,2.713931534953572,-7.130714460075775,-2.3195679265674247,-0.7364974192360227,-7.016224892792399,-4.758104688166496,-0.1157136500313091,-3.6962333054729553,-2.7450926121903163,-9.202815974160078
-1.156553262953267,-4.6059928618215205,-8.554505636834342,-6.282181147962098,2.8819290039342293,-1.019655799487475,0.125707552851418,0.134575114494821,-3.740092610470716,-1.5084232255049872,-0.6793207110160722,-3.1813538667705115,-6.235544719725173,-7.542051266968228
0.7595415715794523,-11.332151406615344,-4.621947999128586,-8.5718924571253,0.2560542619060726,5.041086319774021,2.845751080868879,1.82892413032826,1.2789249881649205,2.304142701734598,-0.8188268901137947,-2.416864030153349,-10.198250768922948,-3.592428355538634
2.6007651538687138,-18.362229175117232,-2.2043767827866634,-9.6710805654598,-2.24268166950638,8.52325798957482,4.178419627754164,2.383414636367138,3.930175628771943,4.205065914908732,-0.956548107245312,-1.2992701620877802,-10.107536736095591,-0.4050358609004174
2.5039793458082062,-20.82588537743787,-1.903296271244736,-7.412891671306626,-2.3227037183790733,8.499677586563953,3.309983673077449,0.9630525949122326,2.776913730178653,3.428634941472726,-1.46485759717815,-0.9837909509713536,-5.917260826703131,0.0608747245397509
1.1375778181024376,-15.911001221578037,0.9704395059937228,-3.5319754253587585,-0.0851508220165282,5.758919413128038,1.1872248977443711,-1.210413065952335,0.2091133762930255,1.320954660905758,-2.0855674391092656,-0.6310418739166237,-0.504149324723673,-1.7788764477118644
-0.1521069245637676,-5.517614632358491,5.757261218499318,1.1697014098481977,2.625217084410955,1.9793074064039176,-0.2469313069681801,-1.9228032366617571,-0.0488899450887889,0.2355091053332683,-2.047816848863598,0.4667764557732138,8.582607017923314,-3.8031374634519297
-1.9035651089150187,4.744180621551342,7.270385942103474,3.676628663106889,4.184826017757203,-1.2340480694534954,0.1590505898373493,-0.103639668978327,3.329943976128269,1.7030198095915845,-0.8024940532189211,0.5078885588035418,12.221081789349196,-4.104266452689129
-3.0760532513723087,9.662562914954938,5.888496471235495,1.1272695756915,4.356101588401165,-2.900652906845722,1.7026755234696056,2.9841917808520004,7.820358213351995,5.197508406062711,1.3420074280307812,-0.7529673978645475,6.792355178114772,-2.5462143551645298
-1.2513736866850245,8.117404406756231,3.2171753839467594,-2.208182053308549,3.766399450962375,-2.84757000584894,2.5192758942417965,4.680199152974195,9.17622818972348,8.405829499691848,3.23824922335388,-2.164155440068289,2.1352158952731743,-0.8337993581199274
0.4244683596769996,3.092371154703361,-1.8487910792432136,-6.828673433440188,2.725534151733932,-1.7257445542187506,1.3513947428565096,3.212524507625892,5.164281786351018,8.820954696957134,3.526682826832314,-4.694953137842196,-7.170074024248704,-1.1899935379008966
1.2764767003928656,-1.8075736754347425,-3.170903228986277,-10.041891888434758,0.9187540393165036,-0.7490103178476097,-1.2154261968341196,-0.6577744221110562,-2.394993740949623,5.537992668341351,1.4630282846564366,-5.38657540631652,-13.069207692777043,-4.654010444106461
2.130019277377262,-5.806706152361153,-0.2794926456080305,-8.841549215985326,-1.7400265553205294,-0.9401898091722848,-3.0578209843568,-4.038051359594844,-8.909435637022225,0.0161373436460738,-2.4413861136520723,-2.938389220899696,-8.802482354625967,-10.13924413089877
0.0817848082586983,-10.999734067401624,1.599106943818491,-8.357801008952348,-4.280029977558556,-2.201128313985091,-2.0419367663760424,-4.031916751699956,-10.386604993802534,-4.719163287856877,-6.3200506176554265,-0.7090476153747777,-7.536707825886398,-14.89867622270424
-0.4754297932856443,-19.12807828672562,3.867263108125466,-7.334393717005216,-5.090709859586064,-3.1113962020346837,2.3493720721284754,0.0467149995620816,-6.166323157278173,-5.962828295257997,-7.7573801813902366,3.225142747166287,-3.581151703871659,-16.261913968500057
0.7133107009977068,-28.588880015922538,3.4965435314278235,-6.876570412998975,-3.4082217962362518,-2.024684897973166,8.30768386842452,5.971270639201848,0.8538571753875266,-3.158969801793176,-5.46262795147148,3.830506146356561,-1.4170542606418073,-13.670787903503909
0.6596773096282699,-34.94329547296094,-0.470568666173954,-9.800338336297823,-0.4058783146371247,1.2422479395572026,12.364452149652893,9.880629503437532,6.301031561915711,1.5157467381068397,-0.8268398963311725,-2.032165428830797,-9.48492245945368,-9.563689749658495
1.5453964673596323,-34.627329788157645,-4.810815364372116,-11.98421842424105,1.3703433409790318,4.759954109500625,11.26152655439862,8.710782344853099,7.05440159139259,4.355082784260819,2.20928210225623,-7.577009478222988,-15.528267527401994,-8.113721234471567
-0.7995768845063225,-28.298948966621765,-10.524204504804487,-14.513664973781433,-0.0458916624768726,5.824403139308517,4.177739233488801,2.2590005293428206,2.920176207987243,2.5524997102503395,-0.3556407903448164,-16.29341616189108,-23.381051220274166,-12.30767693895204
-3.880281770199672,-20.55606820411277,-13.389685718243753,-16.8380998311507,-4.334299430619074,3.3271614131718774,-6.1077933085884,-6.455375104644416,-3.502619252289218,-3.676154296946384,-9.207499625688882,-21.568711183991116,-28.855074281453035,-21.398097407041483
-2.6871139687299683,-16.26798828485881,-12.682280603342832,-15.998815203511509,-8.947432814001514,-1.0226962780650126,-14.333757084093133,-12.895546135267743,-8.4686987982515,-10.874464088690548,-20.31703215083824,-17.08566255896853,-22.428397224077443,-30.898887596503812
-0.8714785514710333,-16.930976625358227,-10.42878703483459,-15.426560935003982,-10.972325747998514,-3.915782773877698,-15.954732217839368,-13.814517748693246,-9.259480907492906,-14.449040325607688,-27.231936681475425,-13.461535937009543,-15.877638468473794,-35.499121593050184
4.375436494088409,-20.234349664857653,-5.285349265674008,-14.62900496306963,-9.300862868994075,-3.117712820862348,-10.367415181159334,-9.322681806838848,-5.67235844910091,-11.770894136281582,-25.659212872754093,-6.921219848484482,-6.910023338930095,-32.83603998252028
8.714260074644438,-22.820274802233044,-3.451198327183043,-13.001310590266788,-5.369928738726966,0.7772863107470691,-1.5705475550218129,-2.7211199009243785,0.0445623047989975,-4.044493317174954,-16.686953731104126,-1.8295037449145184,-0.153525880078386,-25.16525436293752
6.63724280493121,-23.31622170261018,-5.333629951223517,-13.572255000641896,-1.9424040229584243,4.992446299189926,4.598856991571225,1.8293351317994464,4.768132241197932,4.452635843408645,-5.938887968994662,-6.025548135969531,-4.708107991016399,-17.57710116501193
2.644789011355665,-22.841271772043857,-8.19052124459725,-13.917754603575649,-0.9908122711197151,6.834949738996174,4.665445586517524,2.070136575034656,6.491907768943558,9.17065452100506,0.5969678385368997,-8.963788313489333,-9.01724129835842,-14.229992310852383
-4.085124834459384,-22.925227646798923,-13.65044197318966,-13.087909805443998,-2.375849303894091,5.481545579925083,-0.2066560754393371,-1.2228786259684163,5.297871267772827,8.05831849411435,0.5746899555462059,-12.552019026698607,-14.680293952668174,-15.611031682284205
-8.628745411902617,-23.2544030491168,-13.138588547826584,-10.82531297440848,-4.218127729779365,1.983535379088222,-5.647450092824668,-5.401513850910003,2.700361727747257,2.465591961631992,-3.892587162316415,-13.914153717140886,-17.471979497043538,-18.76353965219135
-6.83869510301937,-21.55400468260799,-5.95009529906699,-4.252023961851687,-4.430213720931041,-1.9566908467302488,-7.79342868721961,-8.15114277998567,0.1439370187451114,-4.077492378162432,-8.606315780034322,-6.986213064657242,-10.985795359484593,-19.829696827915903
-4.821048852187507,-15.62835397765355,1.72101902431288,4.623843789430405,-2.0789693250492327,-4.989597265453826,-5.976194860288597,-8.806681959864788,-1.9031200678133453,-8.008628995146184,-10.307033423498956,0.4924242900512428,-4.728717983062852,-16.55392022489614
-2.7714808316873243,-5.525537189862748,11.971539904132344,14.688765966392085,2.312772094083533,-6.236133444781647,-2.309199642557047,-7.953429303387148,-3.5662409857822315,-7.387094415433767,-7.97629448715402,10.076220306493449,3.826413529548173,-8.952532567585838
-1.1110823023459515,6.160180187172511,17.80122670897057,21.939046245698563,7.3460547761788835,-5.111081473790607,0.8724589945090262,-6.191299172611322,-4.6055542759352655,-2.43141392893203,-2.2334246451102384,17.228943089518797,11.115840589250292,1.675037310996136
-2.7393779830658054,16.017055718660245,17.978943477485643,23.980531156228903,11.429815515179286,-1.6225650402487144,2.958740591133921,-3.532377714398596,-4.171633226273659,4.868281953258558,5.682621788760118,19.258800399128745,14.488377998243967,13.894421251342033
0.1498892675559703,22.032046626464336,21.24988744120968,25.331506766288047,13.13919351327302,3.068578966788767,4.716116714722404,0.0780260713464517,-1.6850186367132416,11.659185580398562,14.213616838336026,22.974484815712536,20.83737648491277,26.375920466790117
7.190053403082702,24.580328961075445,25.94329400316901,24.55474802580372,11.5023914786272,6.800908653000921,6.561470664432882,3.968685518717649,2.124881563758992,15.380348142284472,21.40037909280468,24.13308908884802,25.76607781217348,37.530039864232975
9.248640457539157,25.667848976160272,26.48894359400471,23.49784250701553,6.565897987416288,7.676053349016547,7.674403575599804,6.758150291920618,5.303540348322333,14.839958562190512,25.35312200039406,23.870248455667447,28.377698405740908,45.512664107057134
7.540249195129058,27.239334261145306,23.759047520085307,23.317538599570504,-0.0426406987734395,5.492045376640431,6.918108008360141,7.248629267211609,6.020256652498505,10.69196972928509,25.297664826910903,22.077049906884056,28.346354445373876,48.933094739307656
3.377218253892522,29.84593049891886,17.959775810866326,19.887248412921902,-5.367424624784874,1.9117121438907676,4.337482300181264,5.269809026444943,3.955344318152752,4.919098444831684,22.133403626616545,14.952687158944611,23.7815283373454,47.6039811647011
-3.706593003519055,32.52900462389558,7.969187342764718,15.34502311963052,-6.591345825922083,-0.964432023878417,1.3615362950100414,1.6841749234574266,0.4116155169977,-0.4105044358627943,17.703732997988915,6.899747304950822,17.888773987609767,42.57618849130772
-6.071467334206232,33.89849371356912,4.470493714896681,13.721239790131852,-2.947863722359772,-2.330733979670268,-0.5960097784285212,-2.256988648303704,-2.8692011890964384,-4.198720930568115,13.393877400255471,2.701304868607503,15.130862342042228,35.53290933463747
-1.950498991532502,33.58471271124667,8.021454789599032,14.768213097521194,3.4522370300680785,-3.049948909932368,-1.5461655039220634,-5.439943289027427,-4.942884737259799,-6.389905655355957,9.507782492749143,3.1635885252679747,16.993733501256955,28.2517713660496
-0.9614279308159844,32.914766089015366,8.586850116086781,17.211782288856288,8.816767016247855,-4.361848144501488,-2.7087970514968784,-6.975938134572148,-5.829907134420905,-7.189130379763584,6.010906171231767,5.92422206700304,19.79883077909049,22.479598938214963
-1.064984429161672,34.11420779888786,8.399395104142938,21.796149194542217,10.21319773385141,-6.31982424062723,-4.8744930116768,-6.267872640853681,-5.762352777653516,-6.399906410299825,3.587765160156316,10.543706902879476,23.59832909728518,19.77324730382568
-0.2279251734549433,38.46729970278631,6.866908693119609,22.158589988047225,7.543532278399987,-7.597725027911713,-7.17005586980066,-3.428558841344928,-4.608382270721314,-3.69348778166804,3.519142319967318,12.176307813473898,24.529145661273816,20.80702124310158
-2.031284435684644,44.89306508478454,2.4102429996311088,17.611671390969693,3.3804731175586893,-6.848809184756723,-7.654195587368117,0.3547213632723118,-2.1800627503852192,0.4658646671080495,6.276610029633746,10.551548224721357,20.31458022048723,24.528222661972222
-1.6409473225425617,50.27320116252827,1.242351804390576,13.845713467347368,0.8014703204985181,-4.175822929474102,-5.209691735646286,3.2775665958914377,1.0437257181909092,4.393575884671312,10.400220127467968,10.395608699730833,16.38438346673905,28.214352883423416
-0.5603303583073096,51.4325544362914,3.0385624739694186,6.7627773915771545,0.9943989020419308,-1.177065798250826,-0.8205856729379231,4.186434280522628,3.7934452949128463,6.045306169112834,13.156091305567958,8.826098139883849,10.874086530877632,28.89135599402576
-1.8867210673222987,47.1422874906948,2.29117293262232,2.620665734841072,2.554534442188161,0.4723569653666581,3.046243962628999,3.5249848249759164,4.806148191551993,4.605117243765944,12.594072941271868,7.114036919577346,5.65292531068815,25.180138124792503
-2.016576289706097,38.4761912267506,-0.0803489233607829,3.913620905408348,2.935365822212429,0.4603856771127752,4.352756117632146,2.839292157851588,3.778337789240529,1.2899798273281355,9.017140161736766,5.100234397304209,3.401894072991161,18.025227394551475
-1.6781013261834925,27.486559123834265,-3.5597337534977758,2.8543924283907813,0.734938176867963,-0.103127155325828,2.932576400664296,3.146735357567323,1.5002614516249797,-1.5700624942870496,4.410282988262985,0.3883212083394236,-0.2122033981059583,9.742589866762554
-0.9293144873748682,15.815322237003818,-9.130580469777245,4.729593814593632,-3.076720415422344,0.0418314597261102,0.3201049407315941,3.8217402362459847,-0.906904001443275,-2.45911412500227,0.5297937533324801,-4.231301940137862,-3.865228077237914,2.402470193718308
1.882253578091576,4.675277754217194,-10.3110865252622,6.07373306327735,-5.866906519906399,1.060676476571082,-1.609350295269361,3.2903667720792797,-2.7728603761956423,-1.8130288067723448,-2.279571882077544,-6.414568188850103,-5.760793483878418,-2.9827436023270986
4.798759948980504,-4.227098376777886,-6.807818534119668,3.5325657890080087,-5.259401681066112,2.0212504236898923,-1.8666224565850644,0.9473556495477612,-3.8820424396947466,-1.268896919210606,-4.431942698555375,-5.076942883196594,-6.807912078258758,-6.092651865741537
7.313282832768176,-8.63089710253075,-1.7914107086472495,3.791730566547644,-0.7553009244260824,2.004641708874788,-0.5870943907519504,-1.720735264187784,-3.9077557692379337,-1.801348097634934,-5.685054340287667,-1.9235171211382656,-6.690956190710369,-6.698669842513256
11.28156828133357,-7.410759878454827,6.35355964805851,3.0652635430140305,5.9378682272480905,1.1094951504555848,1.4899705355042734,-2.173033932584902,-2.233667493312801,-2.676052652771938,-4.918406103235074,2.524161447001896,-4.971724788349576,-4.814464841589922
11.287835653155202,-2.5320670346467384,7.154015717721589,-0.0636423096641218,11.79014631975468,0.3513361504713224,3.545420792076383,0.7776315606620336,1.311305339994986,-2.3422781451520738,-1.6101885286331772,3.2898544452223843,-3.966084236366669,-1.4126252791685516
5.279810337131884,1.252398805852783,-0.4233344531883029,-3.9745588131811473,13.850084756121444,0.6403092246558124,4.830862068435737,5.453010276100523,5.484487498934115,-0.3754974137880058,2.629609405638368,-2.5421477171354265,-5.267452608684031,1.3799708037557714
-0.8300570650893173,-0.4152013137954657,-9.350153181431171,-10.552827300718487,10.548297885469582,1.8964938599487269,4.698023664345525,8.247120763246505,7.725701975306674,1.5862235746547046,4.479428316137216,-9.107544747578723,-6.309335582471524,1.2476443194697993
-10.639126849410928,-7.956460038618696,-22.358177939867836,-18.487121585462777,2.5408826238290114,3.111288260753753,2.865551518603656,6.356423651143473,5.78928145361939,1.0476503568513067,1.3604781329469944,-18.080370372883703,-7.104092816772025,-2.8184747457201134
-16.00110304763244,-17.395497198763188,-25.99550605771952,-22.487088456447683,-7.27055026879755,3.185968680060716,-0.182307543171019,0.0480113555137968,-0.2274519517877351,-2.992862529889681,-6.199422456765774,-22.785709773528765,-9.16714757807331,-9.768720679370425
-10.866007113083144,-23.723721924152247,-18.50994121948333,-21.61415661405832,-14.859368719429158,1.7218851304050098,-3.16653320433654,-7.37040957134684,-7.359036954770111,-8.766333320461449,-14.541475766067784,-18.50497148450303,-11.427544349556715,-17.096367974611397
-8.280236586653805,-25.050013764386065,-11.927733669078822,-19.264395163646142,-17.08811403264659,-0.8460769431807051,-4.644632816896559,-11.79356823818246,-11.584908290858156,-12.828103133041484,-19.340972246560103,-14.360404944781555,-13.27351223004348,-22.215315966348825
-3.722657493152351,-23.598796089989165,-2.836662233980741,-14.262435158796212,-13.51881964640368,-3.682075804752266,-3.948218435706899,-11.006709702506928,-10.737551648957137,-12.64666645397551,-18.499831572642105,-6.844462924840473,-16.844930350270165,-23.57021171894883
1.149989996622484,-22.74523502486832,1.406617005921032,-10.673421519235973,-6.694565752100949,-6.04028469601402,-1.6745161234313637,-5.906081843553498,-6.104895516777326,-8.465557336223913,-13.19991005845853,-0.7892936975371563,-17.528849823980405,-20.988290106830767
-0.5828258688634675,-23.28609182160002,-1.304618699675305,-9.428941838844796,-0.5087495306976422,-7.465896476934862,0.7122334510522847,0.3902245513266358,-1.3134726865356168,-2.9291059315253776,-6.623669535110471,-1.133625419353206,-11.275770866986065,-15.535690535045362
3.480367375597168,-22.834031083604398,0.0472774979999222,-6.152722423596449,2.2573483139045294,-7.750444338384339,1.869800742827838,4.662835072613589,0.5848517231908108,1.0442796744714968,-1.729050706037988,1.4408059327800853,-4.780863012311206,-9.229522707894851
9.394842053841517,-18.845454172605145,3.486523319835361,-3.273307159705529,1.4823136024724448,-6.85451434769443,1.3863303362955222,5.4195674147986495,-0.6446636952311771,2.260989449999496,0.206072202642467,3.1594611389941174,4.192332730705603,-4.5033118939968375
8.995253164797163,-11.92544107145685,4.008412614889332,-1.6683699391394708,-0.6633482058510438,-4.899511978820929,-0.1359250979577702,3.3897212013982205,-2.6461139015612787,1.6056590634872236,-0.3426145580138815,2.4422527538831416,10.498568653720955,-3.1852069670878507
6.877550971932248,-5.809732976167116,2.967084251732974,-2.788189892002793,-1.5436859358487602,-2.185955290469032,-1.6260943771929526,0.6706881385433618,-2.746046559643084,0.8025179923087151,-1.919123746800256,2.799811054865707,4.570180907575375,-5.334858391034075
2.444167446461164,-4.014752856947361,-0.3910437608488644,-6.498387067283689,0.0377298203932277,0.8093340328048235,-2.2041764442466487,-0.7114600745583637,-0.1679478956992355,0.8856656567250987,-2.9769954050224,0.1042400213007461,-2.80709897727207,-8.948013184858446
-2.7121411050860424,-6.676379673720703,-6.867113251247848,-10.944263972536142,3.068843414903405,3.459114645330157,-1.5608363593567915,0.0709964681245587,3.610655034467463,1.6235773827971478,-2.610101051822216,-4.717164957979276,-11.508474030303788,-11.22588455120561
-2.479583189061653,-10.808761654654855,-8.440977717170371,-13.407051604688146,5.061861584027859,5.06593002621986,-0.0333446827978818,2.36601967997246,6.35179287488582,2.09737423814584,-1.0711597772568275,-6.633784115315787,-18.753176051274306,-10.740093123412535
1.134953455837522,-13.519421051590127,-4.893295818960294,-10.455841520415191,3.803370434614198,5.079809028781799,1.5049080072084209,4.628529676467888,6.880134316371617,1.6796124259850558,0.2097084380321767,-7.726857195545485,-15.251437769979058,-8.685437359851765
0.6622324759925781,-14.66497765211087,-3.831182990561352,-6.180777721513898,-0.9005851377673686,3.450970137818853,1.9721513880366324,5.472558618553464,5.74214641221257,0.5469665111267332,-0.5311312278611169,-9.432162493768462,-10.400694035183742,-7.894535028603105
-3.0885856331917725,-16.243342157677347,-3.697866563945869,-1.6442168147574625,-6.631602086804058,0.9030133894889544,0.7061292737514258,4.557138081908235,4.44989347462629,-0.5538422510894634,-3.9383640786229455,-9.31266206191436,-5.995921345251821,-10.268689508222735
-6.219466234061735,-19.45252744142342,-4.252806823745438,1.2375505048929691,-9.58768205532229,-1.195628179639666,-1.8472265608245733,2.7411752390089887,4.204097351746327,-0.9314663033640508,-8.559104387240538,-9.85664862859951,-2.45759494901735,-14.91528374758333
-7.040640728711347,-22.780365626426956,-6.708863054264899,-1.368131740356303,-7.158921607426699,-1.4818129762705752,-4.016416693107754,1.3933406179884145,5.136379977656343,-0.4186952925370164,-11.432320663803672,-9.823037056385443,-3.0625881469050693,-18.801583316230985
-2.6507270905504146,-23.20118634097132,-5.440267250880738,-4.814352106944287,-0.1615596245074861,0.5357201980946513,-3.81804460369459,1.3577900326320955,6.436728143629814,0.6006891475699874,-10.156496222689292,-7.197792344653793,-3.576572862512456,-19.400546962635676
4.921759768190011,-19.152027876739083,-0.4205446820705025,-8.581226840725266,7.133455106739145,3.99347103116784,-0.4994874446365891,2.363543921800712,7.018440806712023,1.5066619338474112,-4.916957320262689,-5.101244891998821,-3.983447661881751,-16.86262118721914
8.547087998179503,-12.18139060352074,1.405027412475566,-10.959092414809604,9.63007412853536,7.038298689672775,4.513720750949249,3.299495058301929,6.158229330603733,1.7929123867178696,1.2840046600993595,-3.0455729896281083,-3.5095828456718285,-13.680289096820314
5.886088931053161,-5.742774256045468,0.8602215564211678,-8.883560811650485,5.0329760016924485,7.9427742566861,8.30442229577579,3.056637568064817,3.7839734623663617,1.233947984545653,4.5961947561961,-1.147921286284372,-4.283563970429,-12.229545385805396
0.4889536552438522,-2.543796526331775,-1.67420062467928,-6.468332096878241,-4.234322607406934,6.271655143964477,8.513970605540472,1.2522980982898293,0.4238974608487247,-0.1060969990910081,3.0623682116516893,-0.2321082731596008,-7.17409386184894,-12.565924753460743
-5.205926117244498,-2.9737770284142577,-7.637789764685907,-3.497983769469929,-12.42664481092605,3.2381021385374424,5.159603660045889,-1.5787537827060447,-2.9912485753964795,-1.855243258022332,-1.9768401137123293,1.6300657094845885,-8.720731563190082,-12.490858406988355
-7.631614722959167,-5.576682980839326,-8.626922761525385,-1.8132794152787688,-14.310110505558283,0.8848388269121195,0.6194390662104219,-4.229087041113729,-5.3394617473000645,-3.2637009502807235,-6.86998432238463,3.2373984228204296,-8.865713653300263,-9.676380726276529
-4.784120064764511,-8.442131873439775,-4.452838501132754,-3.1931062541656785,-8.675082558709697,0.606963407780567,-2.286897794881365,-5.248737703884792,-5.577576693988388,-3.299454773683156,-8.235654589684808,3.7876345404929994,-4.483194458843682,-3.80651249896616
-0.384222297967757,-10.065288402637554,0.454602729835086,-4.247597396407088,0.971709627243488,2.127228935275977,-2.4739284377637443,-3.53321767382063,-3.187913715233832,-1.1565516146265136,-5.20652078070424,4.530368442823938,3.643669166851642,3.092078970885044
3.3204202816871518,-9.52849840053699,8.040060886821866,-6.177440297553822,8.891191903115061,3.781452171094572,-1.11801569295032,0.9221638977660218,1.289378978185851,2.973060714756251,0.2209466451101116,4.344467986107544,11.915602605744812,8.189655863162072
5.080573590425431,-6.744513096334921,10.753916127322718,-6.134736834245651,10.833579070433496,3.945269479885788,-0.1722454653114126,6.506305632208342,6.073091839121963,7.514881446279634,4.834431359487704,4.154894291570396,15.57059419055897,9.816519159142588
3.183213609532908,-2.847111982382282,7.693242811563082,-3.246937508328375,6.373969434577496,2.4334225101809333,-0.3891297265642554,10.431701157977214,8.785915272631751,10.147471213252665,6.542807574493329,4.407074215503849,12.286218681422453,8.357153183217282
-1.0429290664290194,0.1748886385342141,5.06260567103795,-0.9955722364582712,-1.456899331312214,0.6398693519113081,-0.7674438422812679,10.329203403173343,7.8464046042484785,9.309270060609965,5.6746290673838775,3.764402661236007,6.712459076743822,5.667394228162288
-5.488912589802896,1.0519742170473665,0.9556901959574948,3.378488073119638,-8.481015220768091,0.2317618958009806,0.1474028310752473,6.050793629063973,3.713104536690487,5.49468960479034,4.338754544546092,3.2621362874114403,-1.8820884877164048,3.697205179952821
-6.964564962429656,0.7790766921415582,0.8488743590687257,6.905212793361457,-11.699807261028942,1.5190350682091456,2.548099847221275,0.1362273763620276,-1.138860604096589,1.1574213987200022,4.450260681027707,3.6307372364459423,-4.950222845607071,3.358386375086392
-2.9534244688543208,2.188918353897993,5.918922403619542,8.76547359954435,-10.239615969891688,3.003705727356241,5.0337537201419735,-3.7509969415225832,-3.787072972973348,-0.9066806624978376,6.110262548900813,5.105287777074179,0.3529801867961117,4.314823189638229
4.90328508068293,7.300391367762362,10.082199612424104,12.926774330968382,-4.955057931079068,2.628046015817372,5.9718605685698165,-3.387159407654444,-2.9155006495171065,0.512360035662752,7.746574677637191,7.638725421191612,4.702560389052871,5.673451614829695
14.082655327364431,14.771053123375026,14.833378610559118,15.90394087128768,2.349095877752834,-0.3062608393422508,5.092075280039936,0.462265813029532,0.285473178349136,4.33906981706506,7.852241286875298,10.669110818495469,13.149111620486885,6.91282275823697
16.462295427069833,20.243295471743338,14.774260888840276,15.906903674856864,9.393275499319078,-4.278811275570877,3.633748993683113,4.736061451515411,3.1422351283190477,8.205810158037977,6.605051977576586,10.930447879978788,16.36971057179455,8.201852081449545
8.48671066307029,19.74457619637004,8.547902334452747,13.568807144451306,13.764213164342609,-6.6211049496239305,2.9217131635729885,6.376128031052215,3.583716146501839,10.14102750189435,5.666449152148331,7.707186725041954,10.207943158963063,9.782230071559212
-2.437539302590457,13.137384379641894,2.895473249086078,8.196773996960731,13.5972167801716,-5.663989135768059,2.918152181089837,4.354292517518921,1.536478401814982,9.516864531884242,6.244813931259614,3.6562176779995066,6.288402619040141,11.038578262461542
-14.579524569393318,4.35509743261234,-3.709768219358162,0.4044652654439553,8.527709498352081,-2.0959672362873363,2.3262485626478053,-0.0153301116135224,-1.4305602122314909,6.762096148799976,7.4165170539971825,-2.720404721647336,-2.5814072047957475,10.392705042688052
-18.308153233112453,-1.7603712796915048,-6.035912788259916,-2.1693761494557946,0.2042176630025807,1.654797158295267,0.167612896553976,-4.38585941678312,-3.6706636755919178,2.5921522180206225,6.676869063478279,-5.483868219750463,-7.845506721065874,6.527999373149669
-9.523545956906313,-2.9802655766426227,-2.5851176288499214,1.4512118246828711,-8.225726971689639,3.413745611745526,-2.8482319364811843,-7.021420367381765,-4.710303032228708,-2.265985939592269,2.502236077680905,-2.6687738335406435,-5.399213640078287,0.0542693710956498
-2.224198888020762,-0.5031859151700502,-0.7403412601906642,5.012073086174819,-13.474456448721044,2.795976418373286,-4.706589421515467,-7.560412158908164,-5.166162247099031,-6.783402708717389,-3.555620282385448,-0.7490515433461684,-6.95128966923851,-6.077352447127389
4.630513908471856,3.0253589420092557,0.9912986720877388,12.634198856096337,-13.541308188381912,0.9617839714738494,-3.992895368334459,-6.683367095732521,-5.693684001686719,-9.576943424484952,-7.608167969930307,4.366800305840627,-4.164578320767676,-8.26929733217699
7.382966170045612,5.767102351910424,1.8466700148850053,15.661160763358682,-8.534985182998469,-0.9628247783232382,-1.4814525706130297,-5.350368766808771,-6.193669572620742,-9.646264611726425,-6.707803070193577,7.115199312966097,-1.7155196975900855,-5.007432576766561
1.842587483118897,7.133034691340157,0.5949052774785758,9.820374355223146,-0.6725053662480107,-3.0636467026222647,0.2419800601343098,-4.323189332970578,-6.063863208729593,-7.346170332351818,-1.7131500017083,3.4868747052350875,-2.181784507765988,1.6680392501370562
0.7662955637858014,6.871803981929027,0.5037862155557132,6.374702252423129,6.515581629701202,-6.156616909200395,-1.059063617426972,-4.101015387321141,-5.102447811547393,-4.437860868477415,3.1061414713317745,2.215060857972764,3.1735523754550283,7.415259672218788
0.8812631185672253,4.706720756171741,1.0621006332354546,-0.8568462939645242,9.676319502970458,-10.177663322989352,-5.209622182260922,-4.904609891566217,-3.994890436118801,-2.828383316490303,3.61035451769645,-1.1582594484303763,6.695320404274094,8.733339492979837
-0.2414779867366805,1.1930627384529942,0.2216244808829011,-7.185132197621245,7.399382292634989,-13.26595512387854,-9.501948432345358,-6.452080871492079,-3.798701612107095,-3.0257134220837685,-0.6507634825838409,-4.223878940431613,7.614226872778558,5.463772885039731
1.662025644556881,-1.649573861720114,-1.659268031048185,-5.579357397161199,1.2709264172048194,-12.794520274691893,-10.664410466640064,-7.782903329760131,-4.9169146450270205,-3.82412058862792,-6.087358296295335,-1.5543908726863735,7.296377154937407,0.6240713114375325
1.128978768821392,-1.5129522987883917,-2.824636069900428,-7.122709885183888,-4.807175338580024,-7.65891018524168,-7.3146971963737855,-7.622112419575387,-6.592498370452248,-3.6053117460329815,-8.213335363555657,-0.599352373059074,2.5137538870671645,-2.1778744670800023
1.2599650686595374,1.841498762162729,-3.4878702993106256,-7.846331472697744,-7.0133943231476366,0.2738495595273065,-0.9892500699316996,-5.328124627488805,-7.432084621808855,-1.989561313504737,-5.403333313277315,0.8289163107169338,-2.5061261636053804,-1.5024313606746773
3.290321066256168,5.587143347036601,-3.818122017929368,-5.418199384728103,-4.204680110948601,7.077064971536032,4.911596858611276,-1.7061485030885422,-6.465710339748853,-0.1683301051906482,0.0274392100631786,2.957566857303781,-5.157990842656809,1.2068922806236486
2.8341153211588392,5.844550669809408,-3.4450658799484546,-6.306317368103095,1.2902910702767798,9.45444272778836,7.330009710959587,1.228050765509778,-3.793994880824272,0.3999837021067378,4.108320795066362,1.1278058280656025,-6.626491413959826,3.267328957553488
0.7257209144767278,1.2638232432866516,-3.9371544143398585,-5.199107122793007,5.436409177026107,6.97816166887047,5.312407361462448,1.650112310205543,-0.3763982639136003,-0.4689463559295603,4.53891095794809,-0.4404451694896016,-7.479491375525023,3.0924129377948617
-4.160514836043604,-5.232979181995674,-5.301924769468668,-1.1680997900126195,5.512429547715144,2.027388103691237,0.2893181172105699,-0.5576790962700358,2.6474004591239293,-1.5506530095482989,2.1076937767095103,-1.5637410198990591,-8.137908247009667,1.2087963168480798
