AF3,F7,F3,FC5,T7,P7,O1,O2,P8,T8,FC6,F4,F8,AF4
-2.1401433578278777,1.7306234483484415,-1.7903939871784118,-1.5976200763016273,-1.2071687994331946,1.831532091219316,-1.2052554556507324,2.6393238678870703,0.1565063757602805,1.8352073255870227,2.2522892084813964,2.758054326489038,2.121927757539426,1.6170465575602897
-5.709041053938549,3.6512289967340696,-1.994418794007416,-1.0943464233441844,1.5743225353427732,3.1643112933088915,3.284548126667243,2.877074301333576,1.0072797777949862,1.9711425831135507,1.580493819272862,3.503514181278188,2.878099201563684,0.4072925514275169
-9.185291255700823,4.784797133096094,-1.9501748939305124,0.449910698891518,4.412674118493406,3.919015621494882,5.420546623484835,2.0136648323138013,0.8667469099440068,1.1935510257326103,0.9021888959115268,1.9178911254204536,1.6641990141768024,-1.0410999644305718
-10.858180597381184,4.286645998283533,-2.083422567998369,0.9357036045787588,5.525336947765425,3.815069276537852,5.062897023986814,0.700724673645811,0.5755393629202545,-0.0843442353007392,0.626326930797406,-0.5727843265442836,-0.4139684539249713,-2.00170921903646
-10.320034434171742,2.7654803989638355,-2.44431796350041,-0.1075231136110979,4.81217008180014,3.128227363151744,3.693867339970268,1.281223175451658,0.3647605204596861,-0.0030496880051499,0.3506177233520766,-2.38324806569117,-0.3438866121756961,-2.2993846240113456
-8.714673745209812,-0.6794646411002521,-2.841859999543452,-1.6814632708628885,3.2245363424241127,2.3116919216352194,2.696317667505639,0.8311500914740628,-0.647835671834041,-1.089112641436129,0.3820899540734037,-3.0672567572371534,-0.1730553566787366,-2.348516605901402
-7.408419186088835,-5.123342068949492,-3.124576690667414,-2.7463026740720338,1.7083084540457456,1.5190664271914365,2.2472097196673104,-0.3021723047590687,-1.7012305069700775,-2.7962447871249987,0.6952298500905469,-3.274386925979403,-0.1630421949346885,-2.557716276359063
-6.592545052049612,-7.017010607809615,-3.275945743648631,-3.2336076657202355,0.8238971899416363,0.5779058696956909,1.7812263588147097,-0.9494622184060304,-2.1104751611187256,-3.650247668809945,-0.4841018128628536,-3.724296819822424,-0.8713733748051482,-2.8463598930531155
-5.44007011845234,-6.798981005662658,-3.3549350442925743,-3.8070279476681455,0.7159046358355141,-0.5851537468421633,1.0598987703070897,-1.87865312931396,-2.46106752724195,-4.342044620355206,-2.589831228595349,-4.4845814758727975,-3.1585869029565097,-2.8828085632771483
-3.5939466279515173,-7.292144693701844,-3.463857075691678,-4.941182360317274,0.774865233178442,-1.640190960240858,0.3848260691824592,-2.8043316508230576,-2.8872436368922045,-4.738392559531279,-4.6934694367821725,-5.212043960675686,-4.701654712274254,-2.7128563505867618
-2.0746169403901646,-5.937931203582785,-3.7156185015322336,-6.347569851956624,-0.4940587622883683,-2.112304602617272,-0.1320074685699772,-3.618400583899105,-2.874081383110665,-4.709584624848791,-8.294291138412254,-5.766687823490958,-6.487399429514085,-2.9078538358540342
-2.2496316170168638,-3.6006050867831187,-4.021547907772028,-7.166844027180723,-4.363772602767,-1.9250475693547813,-0.9672145987291004,-3.3352834267075777,-2.7192484593908266,-4.807382586441186,-9.229342254322903,-6.250311528724904,-7.28065077353788,-3.891106836521765
-3.8956623907112906,-2.4383059343791524,-3.822058533089603,-6.615374657087799,-9.999132202018464,-1.5380647136957144,-2.450443168126167,-1.766439975846176,-2.590816365239261,-4.38686013457115,-6.73007624232826,-6.419546094585783,-5.323387145839737,-5.164547102657632
-4.784323197565094,1.1411607503293406,-2.256273991721365,-4.589225878494428,-13.98924063119353,-1.4773402680470902,-3.835762730430208,-0.0632622032007492,-2.0323865931945644,-3.731628373191777,-4.806916384616177,-5.417209523384727,-2.3450983071270373,-5.483768787409478
-2.7613985156590566,6.194960759711376,1.021870139517933,-1.8793250960432992,-12.724435202324816,-1.8051518972995917,-3.68102005155836,3.059899838281139,-1.1593726995248037,-2.947116939558577,-0.1542392841683782,-2.480646719567247,4.729207631262582,-4.04044066347107
1.683542007335788,6.199040785763001,5.061248286221307,0.1801039628888929,-5.898710867418366,-2.128728034057481,-1.471050915875118,5.012015676916437,-0.9153861935619088,-1.4822947632032308,3.421032319027001,1.9818494696548044,11.82552541762497,-1.4500908239018884
5.358091265821699,4.116760145087717,7.926544848097912,0.5540703593082696,2.489235861815491,-2.031786595935788,1.4301205087642472,3.7533039084068127,-1.186190686112672,-1.189734231239381,2.858208552968124,6.267682989324193,12.918981825662696,0.680486619022119
5.322065672108973,2.1425849076415737,8.21489215647184,-0.6889337108247631,7.172377867710285,-1.335668781729776,2.975055842938726,3.012669302291536,-1.3372338850550682,-1.1183722623200834,3.8505601085688745,8.627199589681045,11.400812108356051,1.353756053974454
1.9366083099062836,-4.8776625007963,6.410459408390903,-2.3483670239830268,6.039084008883616,0.0104553012276653,2.7180270023944857,1.3756802611417318,-2.0334772490721127,0.0190089663418975,3.979616110725565,8.711521645166968,7.125019238739191,1.243474180311324
-1.35857173347628,-9.341419868022232,4.502739328181367,-3.0764081652013253,1.6237396688679162,1.9490496884802968,2.464567610054427,-1.0388226645727077,-3.0193328759472986,-1.4226866165926966,1.334816400238474,7.607223791694334,1.3231013379449372,1.8597941628619916
-1.5047159252937805,-11.30959307892676,3.993052470850575,-2.6080590459299167,-1.686419346253981,3.9337485804808345,4.151317684878073,-1.0500087862998395,-3.888456240206757,-3.83401314788808,-2.137660086731792,6.345910488024657,-1.053035064108435,3.522347903907381
1.085356641102047,-17.465321590109312,4.292282086445013,-2.0306299439843087,-1.7388458901398067,4.684516673155398,7.097504728414069,-1.4502309310249992,-5.214603878013105,-5.418110731114927,-7.261487519454341,4.556021948240433,-2.269369077640633,4.405055628651191
3.1381779702884867,-21.20991786222776,3.3573704446768744,-2.700026021292988,0.0693698943034384,2.876586330910529,7.942930799122502,-3.048039097507324,-6.945572470852986,-10.175441324986265,-15.05499252629449,0.9613706763132122,-7.598494477987305,2.0759708882182686
2.197298635661035,-20.26239018849276,0.0840096694721328,-4.794069260691018,1.0837178093748108,-1.4600870912105377,3.876047375442584,-2.475217112814996,-6.456495771783925,-10.63019685818816,-17.9441415624448,-4.584725424359149,-11.06967412218666,-3.679655690459271
-0.698302632227545,-14.530183346923334,-4.11921753246579,-6.989425679898026,0.377035156843462,-6.278346202366473,-4.025985151011318,-0.5989023120315745,-3.054257838529159,-4.676416909041022,-12.15830128928722,-9.85055831551834,-9.868570388452977,-9.7795519234846
-2.0283885109020297,-3.759246405288212,-6.290917780682605,-7.568971346650559,-0.6634841007249399,-8.61317330147618,-10.9176589664219,1.074328318728738,1.0264264605189146,0.0462155865183819,-5.432667508992985,-11.35652974333246,-9.34721552934329,-11.826211464172689
0.6118735702125324,10.63131211320977,-4.599582277910997,-5.922616605198096,-0.2990524833697563,-6.800605265084837,-12.00958413709995,4.964565724530479,7.207001266075823,9.37513344728578,5.074992454435337,-7.2041471907799615,-2.988814261550205,-7.654446033742111
6.15578748022668,19.22932123630229,-0.0514459341904505,-3.006454493284801,1.5803730659653166,-1.8187148868811605,-6.512260483229809,7.704176015163793,11.38547685121777,16.553030321675312,13.246197417045646,1.0565702800769508,3.8896661700517767,0.8248588863570543
11.172545496331036,17.48414985048539,4.417177430746945,-0.4602246677346135,3.5049582462001654,3.5172401983982877,1.9535177168422688,7.088813793966178,10.8379691003873,15.255016077858606,11.408076179868717,9.379756389580995,2.9427739431208844,9.140102380408049
12.955363896108429,14.921937448778952,6.415199097389984,0.6554063265287073,4.073919708080784,6.712175851700711,8.566158713869921,7.288722023457136,10.804542748154612,16.231400813724065,10.372449713840927,14.154444234649713,4.530472459326812,13.61017240630062
11.425705444965018,9.228088181860011,5.71558793552633,0.3835728723736733,3.2404664023729737,7.146246520438564,10.908688100573215,6.637747505585683,9.31242101598939,15.305760098146182,8.65763886368989,14.495606416294509,5.492543485095757,13.538089674680664
8.431422459335844,3.630945861079897,3.7841094363364345,-0.5425279677767132,2.0596219886767613,5.912420547073063,9.91651888643974,5.262990990825427,7.303531711052705,12.589228710915345,5.7461981401453786,12.1169566244107,3.143741736644444,10.745004906087107
5.756412288566009,3.321538514995753,2.141520947162292,-1.4056330395237806,1.5101343152900162,4.518796150389987,8.05374249298897,5.513628191650029,7.613415220287297,13.607784167635192,6.807945336186793,9.369796955033047,3.799378578874376,7.5108745440263585
3.913431374590737,-0.1603962630699478,1.262803234473676,-1.9000222240538844,1.695104222084317,3.768991598125896,6.966410871184448,4.836914534638954,6.295313774597369,12.34293349669084,6.277859026478677,7.440224223787813,2.942634323151845,4.9878102763260985
2.394424951173908,-5.497588654546814,0.7135316124146103,-2.123519797794495,2.023698844058213,3.527535134998887,6.643353132748604,3.305748513089892,4.019261601564201,9.263097662292456,3.811980480113441,6.069474136969244,0.3178940989194809,3.065460486943057
0.5401898053956637,-8.744476257238656,-0.0984075890711964,-2.405714269820152,1.9157396864314609,3.165361350608994,6.191100181811756,2.7517415396325964,2.943814647300151,7.208507940366804,2.7309367915199823,4.476290614535998,-0.1422056195773021,1.1068010250413254
-1.911425507172112,-11.970043977751892,-1.4049977812441412,-3.0439532338390523,1.3188518138865908,2.1873782675502804,5.010509280162303,2.4611782681495904,1.8790495640654925,5.05266864657292,2.0137749486236864,2.295440397728084,0.1977711466946368,-1.3900005670378026
-4.743766624322003,-13.84528811650169,-3.0179274374763803,-4.018147854497578,0.6813577839394913,0.6931100314733234,3.323354429975917,2.248059263949104,0.9923921880413832,2.9445357109654613,1.653958212683003,-0.2206649256943476,-0.9981218600108064,-4.500970310573477
-7.340391872183886,-14.163794799526684,-4.460202632530418,-4.880232294252306,0.5190766286336963,-0.5657404734888476,1.9195174119913296,2.695525772784916,0.8942584902730669,0.7814494723681914,2.089381270102474,-2.519639137308861,-3.0905241098922094,-7.70963695941687
-8.849337512117625,-13.656579343485255,-5.140581883980863,-5.0380876429431325,0.920571450345582,-0.6845879383661169,1.537129581559049,2.8242379126336585,0.7285163885650405,-0.2170170303998221,2.551297365473973,-4.0450592334075655,-4.301420161416897,-9.850369040504326
-8.57259294007742,-9.30658462354631,-4.630889657690487,-4.263743867745911,1.3714034950837366,0.6105934218974625,2.346899587911132,2.743306516304998,0.708499694869496,0.0378163109215943,3.699044885959876,-4.343858462696391,-4.645614658352097,-9.525929316842085
-6.503880948676509,-2.7132894813810005,-3.0069398520700643,-2.937964872397136,1.089276670551405,2.581912309450157,3.810537486329236,3.0749524479397685,1.3017055942164166,0.0458903534606637,5.392922790766434,-3.2329253782210463,-3.3222302194926137,-6.105795526578269
-3.5935220631159392,5.39475939402837,-0.9741301641088738,-1.7612443131708968,-0.335888653263777,3.9623292587237904,4.981734518408627,3.279003279874253,2.226399073768558,1.8832276612406105,7.496259185972913,-1.1201833628881284,0.2358064499796444,-0.6329239273926754
-1.3600201779660637,11.673979032607171,0.4534009687456892,-1.2276857935794867,-2.5356344056497333,3.923097730119923,5.068556153327019,3.21543847135844,2.793507046391864,3.2161893152536694,8.815684020756375,0.9041607095670924,2.5585106226543517,4.38478278519584
-0.9575638360197338,10.219183571634057,0.5768040738522515,-1.3732717414296127,-4.597997322198683,2.6156025030490198,3.872571436691747,2.2597945891591324,2.2768350284060936,1.17843181032741,6.722200247666534,1.626352618175276,1.6198080169110207,6.55277834568425
-2.326587657663917,6.700779650664455,-0.506243110087274,-1.9167628896097844,-5.74865305405064,0.8444293782352918,1.828407912928462,0.5738466580026045,1.557237925350077,-0.4231366244959492,3.390046872213925,0.6834030162401534,0.2471125619953511,5.410370980564639
-4.1963931571607445,2.7145256499867028,-1.9720348874267648,-2.4916499901429736,-5.856516097860099,-0.6611592559636712,-0.3339729435613829,-1.144787644881225,0.7922312919222556,-2.117966599736345,-0.1933545094051418,-1.0128685585278072,-1.326158366290603,2.7709575963046147
-5.147758863696951,-1.1823733751840488,-2.916188985398735,-2.7669448120975337,-5.364505944858188,-1.6520075836763937,-2.0528343336058787,-2.699958941344536,-0.0016435580116999,-4.4934203453071895,-4.106696217574661,-2.0848883734003145,-1.279583778406209,1.0093174392693918
-4.941771448890814,-1.31069610055881,-3.1164402895803853,-2.5893388983179992,-4.844342654503126,-2.2775694751587707,-3.2549914570799583,-3.710659106665751,0.0877722282559837,-5.181690979000588,-6.357108706054801,-2.112157230528271,2.5759784641824925,0.8019611924103458
-4.769328702693102,-1.4555875541092878,-3.217963462124855,-2.1881369705991824,-4.63032373437425,-2.8739545637103383,-4.358588772884875,-4.283028920406419,0.7191841950855886,-5.370696724900063,-8.135160055955103,-2.099333441928861,6.106565781124584,0.6617034650659246
-5.918138235432795,-3.17063872818542,-4.046358340224712,-2.117447720944414,-4.730119961697099,-3.809759316887952,-5.902815928216729,-5.0485387648686455,0.9541927326618008,-6.424946730837407,-11.05084451081174,-3.251502016326169,7.7279192987775485,-1.0940740457722793
-8.12570284728816,-5.768208865408737,-5.623684443058643,-2.7080132461995783,-4.904874253354785,-5.239057602621738,-8.011443598699502,-6.846649829789529,-0.2047287497371142,-8.871855471065556,-14.060838317903375,-5.330874096693277,5.59121155838921,-4.071573703889467
-9.613529640666286,-8.743451288255887,-6.988956954317848,-3.5146474869823017,-4.833868162595621,-6.824196129048529,-10.183176219729798,-8.899760343703246,-1.9894986943693973,-11.445535386255308,-15.971364534790292,-6.696471229834021,0.5512300713187966,-6.028956347367644
-9.18493369565521,-11.467497941684234,-7.248456277501027,-3.5931146416653466,-4.412740975122431,-7.858095455674716,-11.730536829573058,-10.879454681911296,-4.531359864802757,-13.652090867103286,-17.44445285175811,-6.370754469829858,-2.587152031348744,-5.727450912924058
-8.100754441953463,-15.04326611955288,-6.831955617238347,-2.5710457494517964,-4.002890756200781,-7.974640196262612,-12.490165448974736,-13.854936177046572,-8.523741921216638,-17.63209127424533,-18.9095384985562,-5.78711300805468,-5.611594030496003,-5.142080285211002
-9.100920211199243,-15.381153746561502,-7.320650854456904,-1.275428273787523,-4.185147760260633,-7.723218795433301,-12.90912733286147,-14.35164320000253,-9.33296091198062,-18.20095291607119,-17.764542349191775,-7.682065832382734,-6.4254789542174375,-7.873710510249316
-13.00751683270207,-11.819889045587868,-9.594016421529968,-0.8834075429347088,-4.979720169832348,-8.077911330009641,-13.214869162592905,-11.9952386330024,-8.464925459729782,-13.921534818827864,-13.86892433359182,-12.751382737019334,-5.047347324692694,-14.796969990265808
-16.662269881907054,-8.671626335785765,-12.172881530795625,-1.340095854128867,-5.344585246739865,-9.123396012893558,-12.64288522987645,-10.349731349250996,-8.924298813925237,-11.165068832448146,-10.15261406779802,-17.81763953884514,-6.435460831509231,-21.74468884126721
-15.21786003114618,-1.8512263113656755,-11.941258228107472,-1.0355685370818009,-3.8896573907225136,-9.454614803651175,-9.992146626959812,-6.042162567433312,-5.947312476413817,-4.819321951133026,-3.4456331354109824,-18.250671969245964,-3.681182855346192,-22.56542983795045
-7.069748768617293,5.048598526746736,-7.0555917245350335,1.4734206615678964,-0.5237149030519408,-7.363376463697567,-5.293068451982018,-1.42065040791374,-3.994059036436477,2.1344844579510576,3.1668243742159703,-12.691988017739028,2.420028451165285,-15.085703095806798
3.8021816121772662,6.71310002762375,0.8143785610601899,5.472453764438569,2.710295689121076,-2.8153173796975564,-0.6436292796531227,-0.6211022301574987,-4.471764363803029,0.8846778874457677,3.3248784905547035,-4.960624339109976,4.498443706383752,-3.7691185251577215
11.074020904670784,10.78287469318852,7.496446275082359,8.358838527913715,3.0019127971248007,2.030174410298597,1.3010962288662018,2.104396994031648,-1.4762846867685866,0.6831887603126222,4.249431234874145,-0.560736211995339,5.933947611644311,4.131773843296732
11.883519460475377,15.599025857196414,9.859886497883478,8.287511366741587,-0.5197798094404886,4.625748524315063,0.0658196838495897,5.573010956899424,0.3146289040393367,2.029150380268017,5.976316884474773,-1.132782393834094,2.707241040781206,5.232247008425298
9.174725876603755,14.066948313840776,8.390297975877964,6.352425487975339,-5.423942163169234,4.3899707284289455,-1.6906957159998963,5.278652354333902,-0.0591941215350939,-0.3300527847868618,4.20845276478362,-2.8245062205422027,-4.201735980224014,2.6407654950457538
8.196042399907618,11.505303675351552,6.249185126476441,5.643130955883501,-7.688871760603513,3.0612807321459106,-0.5215503615140644,6.03091180635477,1.4223717429562166,1.5523705623969768,6.154123168740133,-0.5499323113461618,-4.373393325176417,1.9952733031475225
11.059131955849397,8.25513318095383,5.985320874618635,7.956205724130058,-5.123774672914022,2.693431278589192,4.28810885083229,7.233176725236072,1.6493702037450606,5.868042789465157,9.68719469650883,6.332440894887324,0.7928834577839083,5.391443152643919
15.087273394286711,-1.928807212857003,7.391272716542884,11.730851235044252,0.7665689855826683,3.5673170756588086,9.762812637624412,4.263306347711155,0.2370033301129673,5.430966100001571,8.416666451821937,13.01394288483784,6.795589035312449,9.623536648999362
16.198559499242027,-5.392121032875503,8.443857138466765,13.55465598383786,6.2574182944711065,4.269416068016129,12.00428677632295,3.190237133092215,0.665282073701968,5.350775305434663,8.070794293978397,13.948584929192975,9.63554544764473,10.13533771842971
13.17127163863639,-0.368950214905652,7.826736980797934,11.655514463461149,8.655082163607634,3.601155923783588,9.841979565932446,3.646233348347932,0.753518954207827,6.264915913892867,7.820215285594656,8.265140971869476,5.424386664535749,5.968332635634436
8.326506816293966,0.7969283544055501,6.151822082204284,7.645970880822425,8.165571374212979,1.9642229728580485,5.57455583168945,0.5906898412741163,-0.6836675491288694,3.709870979639927,3.594223527377008,0.387781901276899,-2.9152476145484467,0.5055284588654634
4.643533561329591,8.20170878126756,4.903012637593177,4.796836071292738,6.919533884330306,0.7325563797138572,2.3033112224835084,-0.6443426954929913,-0.8770839231903943,1.861610547210902,0.7390248045265388,-4.317783160760307,-9.177471001562845,-2.151799536322519
2.998582822458218,14.364394540700252,4.708965259279571,4.857402827486383,6.610569344169496,0.6002079623785814,0.9828498847705154,-0.54981421117138,-0.8984876696439699,2.366304096498167,0.0145133450016912,-4.103854589170178,-8.89137947679894,-0.8795229191041156
2.259265076275776,10.858951609252424,4.921215831739501,6.737375241300587,7.215169502794712,0.9439189707369414,0.2467677797434888,-2.1994691340363315,-1.482874294774868,0.7868026997153197,-1.4208746084846329,-1.3187129807183633,-3.7474873968068767,2.286795904691772
1.305536776038505,11.705344116669083,4.624450461528335,8.065199891943925,7.652684898981651,0.7772309759641383,-1.3310250062401887,-2.210642420928598,-1.1277732446245134,-1.0358900946824203,-1.723807034672944,0.784641256045346,1.0409989571673732,4.808231831702897
0.2839875862060745,11.441787993837986,3.658136437794464,7.625884147251352,7.1957403895544925,-0.05821793784525,-3.4552124483127,-1.470230744804084,-0.7060956900176467,-1.0507584201486009,-0.7546300931751746,1.0782183245032395,4.118307906712989,5.841189946554174
0.0077986573430166,8.02726662980077,2.5961818513283044,6.17837071679336,6.092844644284286,-0.8734600523867484,-4.684008103005519,-2.233717049091624,-1.0007963917379004,-2.2258951962734885,-1.3940309268988549,0.6770086066807561,3.872950740037612,6.0768222802953655
0.7464468557956487,8.636092530971224,2.011240667186172,5.225071904436552,5.087858687277812,-1.081366807155426,-4.262190898799117,-2.595047188678392,-1.2013407056049412,-2.7969432048996192,-2.440026865580695,0.9257789327230936,1.116645049479974,6.269678486909638
1.9248078558032489,7.292224706427553,1.9565201765135904,5.365909500677967,4.628933109913715,-0.8149545739356507,-2.888676465819893,-2.461041208351704,-1.3188629583180105,-1.550589247400863,-2.580098053935197,1.886803677578495,-0.0761363536917674,6.459843909102368
2.793773118811454,3.640738168011496,2.0493841815786817,5.903391424852165,4.543178009724748,-0.569574628388672,-1.74288921933713,-3.020262737310023,-1.7745536181766604,-1.2673476551144025,-3.497560297249928,2.689114508962031,-0.7212233462941401,6.414329801782253
3.1020393055371303,2.1066887949675963,1.8548164807732084,5.813873295187232,4.299673489590043,-0.5410899936001607,-1.21405021613101,-2.82701839289526,-1.9756752742218728,-0.3416458918384298,-2.9091072133129257,2.81334083140206,-0.9278385002687176,6.2329997718124925
3.1894362889258328,0.9283448915736958,1.2296500318948391,4.908740468352214,3.5314474092315438,-0.5483953147933116,-0.8296782186710673,-1.89197714078728,-1.8158097615984063,1.833884668107416,-0.4860679654877048,2.6810465724953394,0.0654110270710174,6.265259477324051
3.646583339211394,-0.6888178417966263,0.4949400460368722,4.036840684540706,2.4421958052722434,-0.4865079399820384,-0.1579651299285482,-1.1018999906922406,-1.7282419744886748,3.43003445365231,1.6580767776019525,3.0476970283098845,0.0347256449145522,6.603326586270476
4.84984968414181,-1.2946198359279095,0.3169467030057236,4.182994304623712,1.785069796542358,-0.5411064599670743,0.6428720491377145,0.3644624338337015,-1.498779831739745,6.2564396012981085,5.501361982457744,4.068903450227817,-0.4020519593559579,6.891635621715553
6.527681221341764,-1.592183362564794,1.1855124044955208,5.313657394535346,2.2738850876467023,-0.8291088163180831,1.222924426538226,0.9561159201870106,-1.297673067522046,7.527255735414787,7.727331242581556,5.064926223619854,-0.4241020747118524,6.660635228727913
7.6172040090396065,-2.128821472651756,2.75158196218477,6.039049156244619,3.766394443749805,-1.0327777428799323,1.6281648206162096,0.4383673984452276,-1.1996310012953706,4.965971897922067,6.880940572634386,5.140277501102586,-0.6637482236991007,5.70978432510855
6.810754329767127,-1.9401805642070356,3.746559928570526,4.539376955374509,5.010419437299286,-0.6265711375814367,2.206194976794954,0.2767922001284789,-0.9325380680542016,2.547511979075249,7.048026789681496,4.002610849047253,-0.0351897620577481,4.197414758930649
3.6478573077110874,-0.967649793929958,2.873241437182366,0.1100712879290051,4.47025714817815,0.5105771471621905,3.0057413529043324,-0.9174216467608096,-0.7145554288140401,-1.6654360051119983,5.439590098937892,2.226965444322728,0.8518158033145411,2.501647217491045
-0.7982043766541156,-0.8055598908843149,0.0134512673745215,-5.996675129770459,1.6782069014168106,1.8576545824193669,3.5546684464378604,-1.4410241302847504,-0.4501333839095284,-5.106517068586795,3.524233965988255,0.7791064842565834,0.8987929225707876,1.0463957110829294
-4.522788456546535,-1.5142903801307015,-3.483464279179863,-11.306166494130697,-2.189244250693392,2.695650659756069,3.3624877811957097,-0.5692054463469661,-0.1055653311856655,-3.765952339217824,4.113771556829851,0.2488626012110666,0.7545486235286086,0.0942675743636085
-6.094316777427709,-1.7906902342134483,-5.858930946741365,-13.892420131043878,-5.204105441516558,2.7560025787782223,2.527654385807009,-0.633381755127903,0.0745495478516433,-2.877200080884521,3.293727511643188,0.4709293445718092,0.4778528091868831,-0.4439091553547989
-5.6551610313931056,-2.6770122815958257,-6.35988650327701,-13.655466907124357,-6.260904441320859,2.3830393993127164,1.6968593601893178,0.0395246577424075,0.3560246517345296,-1.6580273918316932,2.0246501295328114,0.8213749960512526,0.5244750659034726,-0.9625241507484724
-4.470484460415172,-4.22214686497006,-5.615815441951796,-12.014531484678791,-5.794677883217256,2.131723719469902,1.4334355564383818,1.2835293968027512,0.7331854655106677,0.3075793043654743,1.5950150361410766,0.8508918290950787,0.9192283204527836,-1.7600721234873298
-3.625794494283928,-5.339309401853754,-4.737173346960285,-10.488140113617863,-5.039724668069663,2.279598687789852,1.7148443826271196,1.7027168560255843,0.9160987650975638,0.0871532538247737,0.2747161197931474,0.6122573299736427,0.9862857181642384,-2.6611555741248587
-3.2533568800260406,-7.436473460247712,-4.232605952721908,-9.577682910015392,-4.746879779852577,2.704123590293323,2.0742666331224533,2.944903798705296,1.0802858344186923,0.34184771555039,-1.1967182400946643,0.4296767488866981,0.5020645582697154,-3.182772182180833
-2.890467779761271,-10.368550225678714,-3.862990998233813,-8.866991534170296,-4.737826632606295,3.093809362510504,2.136227116272253,4.625972567352086,1.316137656644238,1.635236650637525,-2.17496067718084,0.4479458280130153,-0.4673498175314344,-3.194469493431701
-2.2503686653989554,-9.842542511706023,-3.311334224075266,-7.877316322281907,-4.549198680428978,3.229025042249451,1.9450274802136331,5.217253240756962,1.6392625247532435,2.591772683062722,-2.315785288692272,0.5013947927320137,-1.2170031244279345,-3.266021406390945
-1.4583235376774448,-7.11367692223997,-2.6650267490301927,-6.622441556128236,-4.167523287799257,3.134370903875397,1.8148996774896968,5.565845375306014,2.142472821351472,3.634808975199771,-1.817618857387728,0.3999761799061239,-1.59166238832514,-4.078442630150175
-0.6974974830716563,-4.301912083493851,-2.1550980961689152,-5.40503819695534,-3.914302833163052,3.0803654054618805,1.9715374431837824,5.945248411956762,2.919733675945752,4.685082845975739,-1.0031921555216516,0.2270777103304508,-2.134003801598252,-5.40493740360758
0.0432915085115817,2.0668942502365013,-1.6721429675364514,-4.363107031193804,-3.7373930615778654,3.416014698372078,2.362919734148757,5.454888833412286,3.78317331843354,5.633825161370551,1.0471898510287276,0.2608393481526643,-3.088222129886409,-5.922907123241247
0.7588187949386067,5.196357915937401,-0.8359717742868074,-3.4128700894592345,-2.9677266799057422,4.26088379456684,2.7209563793285425,5.138955375727832,4.552452690967524,5.967054999725083,2.0119921498609563,0.6274510300495035,-3.381063827271065,-4.359986528506331
1.082348932438891,3.781917712564532,0.372385666619031,-2.584409850483014,-1.0197267557290042,5.255308600987543,2.7026654597578963,5.0202541100718205,5.856197095504697,5.428729195035416,1.54146710259643,1.0516051971405511,-2.3909348822134198,-1.0085962374679625
0.5592177560534548,4.90614178056856,1.3563684927585662,-2.1315746674901344,1.7729775497814564,5.740644245272051,2.089784738583671,4.118420582403924,7.339725864041193,4.711152823343764,2.03415105343588,1.1106955134910153,-0.3073224576329414,2.235705907133202
-0.7806479101868764,2.885077182592611,1.4103170696328484,-2.2441697007064083,4.21393943563187,5.28235790039842,0.9513505175076472,3.23610133305837,8.686500222852397,3.212184260499221,1.5105089451817832,0.6479296871480176,3.1383207904427457,3.438837094644894
-2.2766318107406085,0.3490859892129693,0.4627435596804106,-2.7361519430200043,5.255271554069558,4.057174911278915,-0.319241789014852,2.577749989886784,9.397820823855426,1.6981606672885408,0.5891139949454186,-0.0866188967165082,5.050162989245829,2.2518675754625823
-3.209251599219012,1.7069818619098551,-0.8146365599025018,-3.160059090978929,4.882381201235512,2.6705046968179555,-1.218098678986757,1.9085316101371463,8.098832887492796,1.2884910790311863,0.8093340586766482,-0.6900728761580943,4.046865861866809,-0.0594327711985163
-3.4800806684242875,0.3514392056097905,-1.6526307193991303,-3.242927150703128,3.9240138920912977,1.5869227141325108,-1.5145598654879653,1.4604833676956055,5.907416496059762,0.6040842829053458,0.0733833709386873,-0.9614907749711694,2.706377998994132,-2.0440137564581127
-3.60175241958024,-1.4921400956822235,-1.838527515355924,-3.1232671840810258,3.072086942872565,0.8016830936085209,-1.4606909155630463,1.0405431992229142,3.250595728406444,-0.3546545112406146,-1.070370018115036,-1.0053747014928556,0.6232776072376888,-3.2707824485897565
-4.017395760871563,-1.7013375078528292,-1.7062998640199551,-3.1146591082760544,2.271523080849893,0.0722573668244697,-1.5463519438362956,0.4366935836164866,0.2728814573293734,-1.1402754023170745,-1.2778983101900585,-1.0440725078518351,-1.2498662689178166,-4.146735918202193
-4.59028061407024,-3.434998351879625,-1.6288363054440191,-3.3008154616412417,1.1321940404094877,-0.6754753575755172,-1.9808124195978447,-0.2118013359308503,-1.6805519104140163,-2.349088354442745,-1.558444513989262,-1.183989782672846,-1.3657752306857411,-4.991940829214406
-4.900901632365696,-5.377148721256571,-1.6930606527275591,-3.4745691304983506,-0.2949677858734221,-1.3349097529102667,-2.4711556879813683,-0.8592764244065443,-3.836504811491704,-3.8284260157511856,-1.943994656328973,-1.3702775889122032,-1.9399002142433244,-5.757734672834562
-4.942981814363963,-6.445397059796726,-1.8346845539486103,-3.4698667858781604,-1.4597884622785489,-1.953853293257052,-2.599690079869416,-1.4921909759888554,-6.852073942548965,-5.057904244363849,-1.68334655610868,-1.503845021021633,-3.1042433582529108,-6.567679946428944
-5.232255201429332,-6.116605707254324,-2.0491847093971067,-3.4335501916017,-2.09224780171862,-2.809687063065049,-2.4034180046851747,-2.00936486738227,-7.793426635140462,-5.402411640429031,-2.497692554799156,-1.5661279095085954,-2.3278957311235486,-7.915057468848847
-6.03589077433561,-4.571930528079367,-2.290119485653618,-3.6138361375602783,-2.74816104890062,-3.9452183899207514,-2.429777173032714,-2.548383803340432,-6.695791049855655,-5.332294807284223,-4.730443173120872,-1.6110327391204282,-0.1231752190455378,-9.789740287750732
-6.606569995610519,-2.4358945203047733,-2.2367255882640267,-3.868967897210994,-4.202650098011394,-4.758054456572937,-3.070136671352756,-3.098897003570809,-5.276036390745344,-4.934976275002042,-6.928883631406384,-1.6726005344982329,1.7211180148166365,-10.799719449705671
-5.542917754863302,1.8154844198323337,-1.4163022961380831,-3.5501068155124638,-6.231719733720646,-4.420546762685112,-3.872452529890272,-3.4975255106944405,-1.488711723511773,-3.472701326729143,-10.040160087864372,-1.7086699034406676,5.043962209066115,-8.900425125717751
-2.255260465010366,2.9837908793545185,0.257289559662178,-2.134031747103023,-7.375750146332402,-2.977630804311966,-3.770925316195689,-3.708779547344432,0.692500223444394,-3.45230343908075,-11.924352857265172,-1.68206190854948,6.1585474846930985,-3.5770885801187067
1.9013041450665007,0.0201577252653943,2.126267168702759,-0.0691211856142151,-6.337393396709379,-1.8873854827830976,-2.199113246161647,-3.6176265395332408,-0.5135801520174911,-4.606706942766467,-11.446719444936813,-1.7030666473910934,3.2758225051448275,2.804784149051713
4.275835303358763,-1.3072583568866851,3.168310152734982,1.2031121668030955,-3.6555660187499535,-3.032776324343796,0.0584153395651201,-3.0357795544777275,-0.4027875277724173,-4.755273468554866,-10.831206931800052,-2.0186182994489705,1.2309126960884127,6.421355096471879
3.127554397335085,-5.67022989538803,2.8860293049875727,0.4461062093931778,-1.6255513352272395,-6.817778770821956,1.357331580651171,-2.293676441500972,-1.5734411891474998,-6.385372336383794,-9.048536512357613,-2.742380485335964,-3.200627721431577,5.278588564745544
-0.5670751761536916,-9.647262934244214,1.836766069247552,-1.925902050874091,-2.186759271702805,-11.223648811952858,0.7225630808404202,-2.57296753793709,-3.4949431741748613,-7.3647443511288815,-7.596886834869477,-3.5250227617598746,-6.922655396130763,1.188530068372993
-3.592099752631157,-7.284671348403059,1.197567229637139,-3.764138644978997,-4.898819976771838,-13.067437700053944,-1.1360005831614273,-3.3537322750095147,-3.7046062288827617,-5.867762550891745,-6.660240965829162,-3.609323148428236,-5.663766686058519,-1.7129206917930668
-3.098533950475268,-6.880526047453502,1.7057492033712194,-2.9814416721796784,-7.307269570584385,-10.618927845328605,-2.497238536930393,-4.465729610995369,-5.469816326792058,-5.640172501611274,-4.653770303428022,-2.454523052837932,-5.202075751698372,-0.6326269747440394
0.9270549812766946,-6.528415965197479,2.9697046475082804,0.2769200018757622,-7.468496455793645,-5.241222901308365,-2.3730905684560044,-6.592576855969815,-8.032001622860893,-4.709732923599222,-2.925139203346877,-0.4603072649506328,-3.0179077356990254,3.5210621341346275
5.629720566909652,-2.8524248237344083,3.8231338347142114,3.3815499481615467,-5.915860835008755,-0.4512291734392015,-1.4610609064266675,-6.158329559984351,-7.668258205053857,-2.0940327104826912,0.1894762571752251,1.0546005107097196,0.4183050583835417,7.244675662547067
7.765320239804216,-3.070173611046933,3.411705747424806,3.5357126242756816,-4.8547416027590975,0.8816181767381068,-1.2167066011173864,-4.030447973507512,-5.273472570024719,-1.1850248346673111,3.356099161146954,0.9120847011745816,0.4928163028310905,7.769946328764893
6.427787146640167,-3.5893619866967086,2.0232686028622764,0.6385376154732096,-5.452761936144939,-1.2349303034561063,-2.033208309089331,-2.441021454439425,-2.2814612911309866,0.2392830718218207,5.604837909718551,-0.650648380712513,1.702943911845888,5.400880455132544
3.5688400736914563,-0.3117101164929343,0.8945280829062089,-2.216930112494495,-6.2869484920150445,-4.147752699399787,-2.570484284311023,1.8840325783757508,3.200688136222229,3.4169966928644286,9.924226210360676,-1.8291957023646763,3.792295077393858,2.880268316664533
1.9961312201152492,0.4634061825437764,1.1636412838043606,-1.3720172431449806,-4.757225829611048,-4.903853213061817,-1.0565836105341029,4.416285370882824,6.647484458209308,4.55319533106659,12.276752250717626,-0.6559676564949495,3.7359158995731225,2.7385490782595485
2.8998288320897228,1.6758128470312696,2.904896331998845,4.044039398555698,0.0500300129870199,-2.5870027815171417,2.76440503307276,4.627757924203988,6.464171855211328,5.427325456362103,12.986191909088106,3.20305934281472,3.49037191615463,5.228648895960653
5.167332418292771,6.047223495979763,5.090351690323152,11.2610107025357,6.166666074627319,1.2880347357536743,7.133495836097811,7.250990785650055,7.50132942689636,7.646715831971411,15.491591643719746,7.976564779321979,2.943487284303923,8.5137911364131
6.8211463104271,7.535353717919244,6.464418314773549,16.29964747810441,10.458115513467243,4.373478306233026,9.779614547956282,7.834824623431194,7.064488555378756,7.743970742881299,15.197239275096244,11.183642177053354,0.8437485490442659,10.49797777628381
6.884592314076503,8.07664141042445,6.497990136684929,17.238465265871103,11.360332243511142,5.438070554152647,9.856431048386014,7.415845978353962,6.017892893391909,7.556623156742411,14.096158285821367,11.590470991851596,-0.5219150054032372,10.429479216607726
5.876144121990822,8.924001338657083,5.594387829476073,15.258095692021149,9.858367251155496,4.98310172526462,8.385102462524632,8.07212526799732,6.710970386390989,7.955548970636665,14.190304583505055,9.916804976170752,-0.4162909644929153,9.013716464373696
4.824220015896027,6.98145131664571,4.498192318436635,12.8705614393396,8.041288083228924,4.29045539139187,6.944301516544523,6.2808226944917145,5.721031433498401,6.398858922918459,11.58037503154977,7.809976206574449,-0.9679534879265672,7.36472844207944
4.143738536815675,4.785215039121965,3.6101030744164246,11.501148758073109,7.082093557159312,4.095764002426167,6.170922660049397,3.942749401939471,3.964500132363397,4.665987348647883,8.46567466745921,6.303307890513941,-1.6536702569470492,6.023590032298927
3.5317427809192656,4.238369461459861,2.8530540162916926,10.784488771374516,6.667916513773003,4.184957571904932,5.5848511292524,3.063521759655368,3.19383717500705,3.9858133762212544,6.893957476865394,5.264598046653922,-1.6955742891124188,4.859974575151469
2.669411456563896,3.722582549815515,2.031124499174544,9.74093696713317,5.9868691518953545,4.03954242880064,4.596906529128876,2.1367219799790664,2.393112896303885,3.182625496800591,5.162728975343343,4.071972870105288,-1.6831618702523676,3.593619360145097
1.678637914325853,3.1690157851340506,1.1322037792553648,8.100839201697793,4.807614649697127,3.581522885338358,3.3108877234604503,1.1679569245187271,1.5842774559763353,2.3926777718356425,3.351305687147728,2.4891689257216587,-1.117477116739856,2.1852179944379584
0.8412588523711699,3.189291680987828,0.2503040989049472,6.38378766862236,3.5290656823772704,3.1889147973188283,2.241432942025184,0.7338936810962428,1.169160780174826,2.059205209820552,2.2474050695484684,0.7959123321779931,0.4914350790248287,0.7628597897198466
0.1257130289507397,2.4680824413913656,-0.6294951087989169,5.047124395733251,2.525425626921537,3.1047370797120344,1.511961067695542,-0.1375510402029015,0.5970831995650765,1.4406338061552169,0.7976074579353253,-0.71459835312195,1.651536250639558,-0.6259812923021038
-0.7599098266991344,1.157576857267338,-1.605853201679233,3.9587512504583433,1.7544887706136905,3.09015125538917,0.684319336169434,-1.500371479031539,-0.3625622151295704,0.4651811454519403,-1.4796462220298294,-2.088639372915388,1.7998606184035515,-2.0467063322157664
-1.8805460594725856,0.3563727212105859,-2.64771750588948,2.72149284566342,0.9631860446884276,2.7721312681971497,-0.5682406652867495,-2.543799166012102,-1.274274893394039,-0.2061267660244137,-3.6498418748723354,-3.5374854431938143,1.5474302237807247,-3.515203066819037
-2.895854692850332,-0.7471043747284564,-3.5654441771509138,1.240779153153705,0.0156798609675128,2.2173833736671917,-1.901714210631072,-3.5526824508638937,-1.945861986693596,-0.7652806411424231,-5.4818309700967545,-5.110214563652834,1.1755616582597397,-4.952681672162857
-3.538794298543557,-1.1232981306645813,-4.295547681756451,-0.2433950813738068,-1.0685573712697654,1.9026652634582568,-2.736953047131601,-4.644702124740151,-2.8862728455638718,-1.6728137242241292,-7.530211658693118,-6.697502178583708,0.348328080022126,-6.34544689624934
-4.154956532465111,0.0230010010685339,-5.122114628442663,-1.57406788824653,-2.229249610181288,2.02359643047119,-3.213842037352816,-5.58573087901642,-4.397759697226216,-2.7082854845915683,-9.96261983226069,-8.2822277121288,-1.3397582241042594,-7.834213241325973
-5.493708582714019,1.366984823749016,-6.437451644662136,-2.8794396500170727,-3.314500375023208,2.006235645347857,-4.35227301414967,-6.371581486227421,-5.795678992011763,-3.5577373376903227,-11.506050325311646,-9.97484539329258,-3.661050509183326,-9.509872587821912
-7.797763496737803,3.542934257448803,-8.21482050227414,-4.284485266205408,-3.943709963871125,0.9729607659136869,-6.9420775477593,-7.137971403517496,-7.369084639668158,-4.6940384190000985,-13.16298977553657,-11.68254776184919,-7.884486914655737,-11.139153505896688
-10.174616946786054,4.48432645434186,-9.81023493107551,-5.568967732378008,-3.6228233136352106,-1.2247963088074911,-10.313200821341924,-7.52498547038354,-8.567206065290652,-5.1073602260020925,-14.467323887477264,-12.821768332054464,-9.484645513525448,-12.236350977047753
-11.082864200346547,2.9617125583005133,-10.398411541189317,-6.274454098559577,-2.1552853434024506,-3.612259247296704,-12.54774791064632,-6.978224292385205,-8.085650482351726,-3.921018978502975,-11.60015372860834,-12.538294370747494,-5.489051178426886,-12.47435809539682
-9.619008379373836,1.4437773072839457,-9.62819837437658,-6.157677778159268,0.052792312367579,-4.943409146158146,-12.198029666552593,-5.923114177053069,-6.961094603123077,-2.5052663426513964,-7.4338338695832284,-10.36273439265448,-0.71590018950101,-11.923951027840182
-6.394369792540207,-1.201996594866887,-7.8422717268847535,-5.448959940926892,2.1544217227258717,-4.959283612019753,-9.780515437220888,-4.526959948696452,-5.593317212572338,-0.406206545027176,-3.23036840966921,-6.732729641045765,6.302130214227346,-10.769761598371735
-3.1287679470663843,-3.039871885288019,-5.715099848031656,-4.630139948948024,3.370449834950509,-4.608833760751036,-7.356288807315359,-3.5484115066889976,-3.92961776064758,1.3172582850048633,0.8362644182876839,-2.8861522364862484,10.429204128187465,-8.873224993020916
-1.3119218438707216,-2.8288254186997674,-3.7732767696442497,-4.014290834525164,3.410696568874661,-4.877032847340181,-6.508111466834637,-3.4819463008907965,-2.390685761232864,1.050351239314425,-0.0408425126874415,-0.1639185269111944,7.755109343619797,-5.8924754216726765
-1.1417577980896794,-3.4474293786738266,-2.2519402275003104,-3.587146879057856,2.541053655071547,-5.499657018972999,-6.809505140377313,-3.547238839487482,-0.7074045955032905,0.9143658094907552,-2.954847917522609,0.7705074083527323,7.277810501287421,-2.033767520643245
-1.62795040814348,-3.3942253519153582,-1.2404406154700087,-3.2172151104869364,1.365415760008121,-5.103150511703877,-6.4141472816046186,-3.849526111240039,1.5318385504845478,0.6488301204541087,-4.9824197824170255,0.2438842653894077,7.431217406174463,1.4402773603360206
-1.65698072443662,-3.534475402430486,-0.7900978281459228,-2.951388790398374,0.4906492621312033,-2.7677865843390244,-4.127534206326436,-3.3659687058736374,3.4127954280319126,-0.2954758841122147,-6.711394004083502,-0.7831776522829443,5.725231248299366,2.811773129517608
-0.9828263910037016,-4.804428361532221,-0.8661755144133032,-3.08166541113933,0.152500190299893,0.6663013895686483,-0.7628695906330467,-2.1110836151568324,3.636661128015213,-0.4752229335382102,-6.519759988945313,-1.464293347215186,3.8075955765096734,1.3671636601601804
-0.2989738620448552,-4.932762069404774,-1.3300325588401734,-3.930819918593194,-0.040061956802079,3.0868803352395595,1.6272624729398046,-1.0772812877591822,3.3343656918397917,-0.9650025465096266,-5.564700086197867,-1.6352206043914173,-2.022290872948353,-1.674629755203954
-0.4755818640284293,-5.4592319388913015,-2.0500438198700337,-5.544586667864413,-0.9429204230839616,3.009627458044473,1.7866855065493183,0.6623545389994183,2.792571643892072,-2.4378518553564588,-5.427454180259548,-1.7504140482040995,-10.798920304738658,-3.907774938868613
-1.7358395927957098,-5.480389696877109,-2.932896267778528,-7.49185964435976,-3.17391013544157,0.9843334794833644,0.4727162739750525,1.9866475102551804,2.014069119438978,-2.4832993328201063,-5.329895439247451,-2.2517926313541885,-13.6965324405298,-3.6627160842058935
-3.4878222298528705,-3.399087241307598,-3.714489511931341,-8.931608179368272,-6.327081493895314,-0.9191985214401583,-0.2648773762298795,2.857987075467195,2.130435009086902,-1.3746188377233195,-4.324944555593667,-2.950567488877663,-9.169800680071903,-1.3838668247694097
-4.815250166185868,-1.78771290412848,-3.785227312687008,-8.982173303022934,-8.892196982843881,-0.9962000023126444,1.07375056917604,4.516097778804245,2.455383600747015,-0.7487669664527499,-2.6831259163202623,-3.0433099119353333,-4.055333656762375,0.8361009037646046
-5.047436760483958,0.7166999369297,-2.4782461211907627,-7.26399320887079,-9.213285108796882,0.7034877079448325,4.20463569601946,5.610237775899873,2.0734310615551266,1.32817641008459,-0.7539375546519286,-1.7857325708479015,2.199267312292692,1.129357962675121
-3.920740244450292,3.530881588375888,0.2393879454549559,-4.278509706810809,-6.82057658979825,2.701190600956668,7.354098128728424,6.062393856304239,1.7341960821977067,2.813225889992169,1.2808061751128377,0.8041207228295466,5.113851045761596,-0.5745671031566193
-1.4341396792376813,3.441208289041248,3.3710821320890183,-1.2715522761412732,-2.957388754034202,3.5822013340594623,8.598090144136549,6.110766412001242,2.166348730422003,1.860544881745625,3.2498583711434685,3.867654899235484,2.104716924126334,-2.6002670928367966
2.192421252131984,3.776854615790223,5.428057298887804,0.4911897185611558,0.2690740200596497,3.1671296429384803,7.141260005339747,5.096465542961614,2.377338869197011,1.942801928660127,5.207141205404593,6.30697845930494,2.5220804596097355,-2.945828774487522
6.308670844151674,4.558279291566322,5.617458985286655,0.5808721545129352,1.450054240153717,2.408601334833328,3.7617638429155136,3.642649997631306,2.640006218603533,1.5772573920079709,7.381408535864924,7.495839784460832,4.909941482463516,-0.7408246932488716
9.78575832167896,4.11549548725735,4.591741664309817,-0.2862317948635375,0.8652482693048835,2.3283336016132115,0.2924056031101543,2.3733667872724533,3.013041112764351,-0.1415943430923568,8.762567226019108,7.527530068010055,4.6042637628149,3.3349991522949622
11.475347848902302,6.2696161108418735,3.920872412039511,-0.8927853512749593,0.0783193117929244,2.9695406873237147,-1.571581020777714,0.7747293159917094,1.5212169847658887,0.0010225541290143,7.930537713746365,6.905273740671422,2.661714838280756,7.641154942356291
10.96904878094021,9.226998898198463,4.686183474670937,-0.6295856442951013,0.5645006616546162,3.2030481054542683,-1.4224862952118578,-1.0762360487188114,-0.6234206838022442,-0.0859647142278952,6.109613302915398,6.064602607205973,-2.265866997113425,10.504391987403306
8.944749935656645,10.401735570976072,6.5135799320636565,-0.038998758247871,2.5321803575491515,1.572150178219342,-0.3688905346286297,-3.1415586577305388,-2.382830211520355,-1.7445723177120254,3.5545240148252266,5.121154260252116,-9.818185848302983,10.94127827428197
6.697909686320012,10.23664536462293,8.005366925848907,-0.1209176796552764,4.846105635886058,-2.302521970003649,0.0495000021427785,-4.112810070729342,-3.5559311055613305,-0.66428756084813,2.279320466014831,3.9828610188852656,-11.776693205912151,9.055198749559043
5.248058230827709,5.9974046632162015,8.152359278642063,-0.9681525832700136,5.990070285410749,-6.802807832876312,-0.5223849636884452,-2.4998366248227524,-2.535229812752094,1.7168852371641186,3.880536469157965,2.6793945415980858,-6.403487325618185,6.04101638619284
4.824526486106786,-1.3122075415358163,7.315453287637723,-1.1947482493841726,5.240767265435494,-8.898939572701384,-0.6912047419110898,-0.1570231261634177,-0.5223558625471756,2.90041475668808,5.56098407399466,1.6308578101162574,-0.6161912773407664,3.63693979724102
5.058930882060473,-9.47999467405067,6.757990163223028,0.9001623275839279,3.151485726476661,-6.278899452745051,1.331789250776758,3.2708999167977204,1.741700443937227,7.044872587528202,8.043832090606138,1.533365778007596,7.655101766651933,3.094001189902404
5.458667141372334,-13.029501051449714,7.160017252625337,5.2754359056791245,1.0489754171827066,0.4670269388248833,5.5337673371625975,5.715219995311686,3.2882155903291928,9.106856166233154,9.202666308850503,2.748739974495191,12.631352455066654,4.294877602783544
5.607389193320397,-10.141074374728737,7.645159934433092,9.350224258229565,0.0118249104079168,7.6879348800128255,9.349124909210726,4.435985746760179,3.0310753109069464,5.73128436177014,6.98911131306019,4.603140338537564,9.231427958818276,5.833277425550875
5.097668190901892,-6.180143006804078,6.4556490671716205,9.772525320316234,0.1617105999622019,11.187137645578089,9.540708619284562,3.199927255275173,2.999677241323489,4.163689367412604,5.481404865721986,5.410374277668833,6.168559847419886,6.168330193846533
3.6252957912414807,1.45913500755487,2.7905766551836315,5.500046772245071,0.8051768945334956,9.532173898944096,5.259895699354917,1.6343117212476532,2.752771296441604,0.487004646474985,3.015383632815245,3.651237584811232,0.6047255019647051,4.926003463747257
1.3666193245388598,4.506687109938818,-1.9843961781200117,-0.7842268178055392,1.2380110169794951,5.178848880424905,-0.6647543882976663,-0.253492395215068,1.6574123246350885,-4.528380705537232,0.3183495384712549,-0.4370239844839929,-5.591552491686621,3.15528542084253
-0.8434740877639708,-0.8018030382896377,-5.154251981595088,-4.662264072233988,1.451758956790286,2.216506855349316,-3.7437737532935778,0.3723597492000888,1.305380044081497,-3.3775833816981216,1.0945109415470164,-4.463056709626727,-5.084259756986734,2.281859310679188
-2.0086692562603403,-3.539421957980567,-4.986966190297382,-3.804799592099199,2.0541953975020526,2.728416291134046,-1.5568461783743484,0.7786182186420938,0.2777716806252615,-3.5665071829478,1.1020051514860705,-5.556394247908431,-3.4235870963948685,2.754727133806794
-1.8587519111436104,-9.79820516400902,-2.4289556455132377,-0.0209473676369533,3.4336011952639414,5.1471602161530825,4.137322433998731,0.2992812839026769,-2.007037120689162,-5.561308626947556,0.5707183985599635,-2.9768042992566883,-0.9747236076999422,3.665659250710627
-1.2164416506864733,-13.99037136430529,-0.3884112346896131,2.514410172597131,4.966773495258764,6.053024805489853,8.822413265950598,0.6155906633119046,-2.556752067932999,-3.1524039997082465,1.832498568414512,0.8216840039222646,2.400818922925159,3.647857315887725
-1.2919709704413869,-8.109849168623109,-1.0810789523065658,1.1674380469093215,5.166141366270507,3.5307788878525947,8.88260449652458,0.1559894813407588,-2.9276181000946844,-3.7970717733741273,0.6651101164756801,2.0764920915196345,1.2200841983136823,2.1456411562158806
-2.452332770307983,-4.520353706409816,-3.9038613201133305,-2.879393788715136,2.872517627174883,-1.1616466452083325,4.288984632651614,-0.7726207122300224,-4.349766403116113,-5.790909959545695,-1.1262418138561574,-0.861326351277997,-3.12917709716698,-0.1114800673895217
-3.684488135944577,0.7766880846763613,-5.952956867564657,-6.025924643860126,-1.4592909634137197,-4.992715242233972,-1.8193268862461416,-0.7195344240349902,-3.8913605090696906,-2.5994468916811453,-0.6719759549651857,-5.765514613209188,-6.17305421421208,-1.7615620214031846
-3.413337177319788,6.554668798935136,-4.788730516755217,-5.711829508990105,-5.660080545758149,-5.9768147131815805,-5.940000787137462,-0.8945333807995002,-3.799004639197233,-3.021915681945372,-1.7221268236339635,-8.310856178569004,-6.379105066730777,-1.917401288919072
-1.0565678408867818,3.3370797976501105,-0.8371072384233873,-2.524008975664927,-7.307536398024305,-4.661034162368078,-6.804864474857043,-1.0939262479068412,-4.294374815498344,-3.6385755915102096,-2.037861914456104,-5.912051362939382,-3.0911968116312054,-0.7958004413958877
2.1449232082201632,0.5043002584160455,2.893221369747107,0.7825025124737426,-5.657535017002003,-3.153147948752561,-5.71704347061293,-0.4415779304456318,-2.652459379463484,0.3401193830895623,-0.1635567742787499,-0.0639060492997654,2.7228092362421688,0.5397681172922679
3.92320326857592,-1.6164793054275526,3.4970431439803,1.9683957019239395,-2.3234576684090467,-3.001025554727139,-4.76156142291482,-0.1502157859098511,-1.5958647045304937,-0.2766685507500228,-0.3064552937653771,5.007459064433688,6.730296905605953,1.0076972167913327
2.8451927823581684,-4.732771433650359,0.7125031561288022,1.017744073293199,0.0214084119757989,-4.010092295880347,-4.783880596621657,-0.0366199088993232,-1.4017984304830522,-0.8161607237057411,-0.4789542723282743,6.048130031413516,6.206616801682586,0.2692674368972678
-0.414079638243483,-2.795515629541026,-3.0046812520735395,-0.4057713411258605,-0.1734525665264152,-4.837281814686958,-4.926376512660384,0.6296370374586187,-0.0447322096620526,-0.1568632858577159,-0.2163570795460767,3.342072242442814,3.260089921359408,-1.1019483818927895
-3.6025472423932188,-0.2460607254747635,-4.766178097575739,-0.7571818107450321,-2.238579090961716,-4.447353978489422,-3.880046170408571,0.9864491516797044,0.7414407703610651,-4.183964970681762,-1.8703973579778808,-0.064026792565734,0.8951847079575366,-2.145399196625701
-4.803525349594457,0.8936974590248455,-3.64126203559501,0.1820962547323903,-4.205216015180627,-2.9764716471011123,-1.4566981833319872,1.3780255919469848,1.1514703873868566,-6.6086370906923975,-2.84077528216078,-1.3954302437373247,-0.0585842965872655,-2.3120091946296544
-3.9326036479542665,2.960534242260254,-1.0409326641945975,1.5558092330127948,-4.684234632313736,-1.4046688467277324,1.0886380591004254,1.9629984164129184,2.344788808921303,-6.580152734305171,-2.6833780465769803,-0.3762459622182259,0.1617807483452314,-1.8578642895496031
-2.3859499475380765,4.294380809396512,0.949481675525954,2.557415572576673,-3.789005803693973,-0.5789602215793579,2.267224863099507,1.579001132972505,2.2812195851235293,-6.745317962319063,-2.913410462221079,1.243309578786624,0.2603685076707198,-1.463416989712627
-1.2968258190762256,5.243631275188354,1.4821603872494222,3.24943482395467,-2.380736097876514,-0.5492854318571183,1.8316972244072325,0.7871358875563166,1.284509639565901,-4.818923111236997,-2.5733296342029206,1.9110426688856637,-1.1699024539774483,-1.4559144755495763
-0.3625742500883167,7.439490653206326,1.3499048115279564,4.387091909410698,-0.8141530869382336,-0.7124792864036706,0.9671384271751292,0.1561107861760752,0.9048097799691934,-2.1684824602707984,-1.7582825716603387,1.7454712838284614,-2.8765331102618763,-1.4746928100740335
1.4051064960734134,9.176430350333945,1.7725418072985395,6.472416932677879,1.2072668132978333,-0.5138628939724086,0.9396480618362624,-0.6407243079909998,0.0397633275452582,-0.9552833782320468,-1.728843836547128,1.9097971527250497,-2.237995388119949,-1.010346583010751
3.889709109260295,9.190805239250407,2.982634064797029,8.93378480001164,3.579594672238988,-0.0234167892745507,1.6117872377069684,-1.2374937280454936,-1.118209099418375,-0.0111608761931346,-2.010550485264701,2.919928633102151,-0.1483253703973767,-0.2279024662058262
5.319262344164108,9.631286118584368,4.034953710996161,10.288444647378,5.098281625756973,0.1492775700466495,1.5204336393104771,-1.4085280526127402,-1.466464529807918,1.416100369536252,-1.774003804875407,3.942544977740183,0.1842274436923425,-0.0106653560470935
3.985334170301469,9.630665505363435,3.9212578772538063,9.339653664218885,4.36176712361736,-0.4517005357849015,-0.3649049564671394,-1.9097027860662776,-2.5915542162989875,2.648792429811868,-1.9479189644683048,3.849357645165525,-0.9209287061861836,-0.9509996476585192
0.5282991159332253,8.22265822020604,2.7617969785168386,6.420322022184624,1.5196796866406643,-1.460075045425815,-3.005928957447036,-2.637026450196107,-3.5883302276337323,3.3367965455487263,-2.2177910272778045,2.738935289976132,-2.8343617175968823,-2.3277924789185294
-1.974306188634361,8.332031431834668,1.8060057997836176,3.418815861492385,-1.2051232919412986,-1.771761380285355,-3.787369101843847,-2.251721961847699,-1.88228494946778,3.7969413500219935,-1.23430315567777,2.088151269731987,-3.609650484240136,-2.4075874883312123
-0.7699252393590736,8.467825316713366,2.185972159259878,2.325324402415524,-1.2303633508245897,-0.4708793188316176,-1.0635529913813078,-1.816261319411256,-0.0764811091110608,3.881367127413553,-0.4076031461267626,3.1997307655791865,0.2646919011067448,-0.0948491957432615
3.5448194406342743,6.706543951777876,3.6622441442772367,3.53453498394613,1.900843924427714,2.1645866705228456,3.664526505610078,-1.6348177725352218,1.83694166109149,3.030608679259619,0.1279573372751636,5.536552169785489,4.941554068121022,3.6226458270808015
7.04740844317373,5.280197598641479,4.666456499177043,5.52382137607302,5.798980932896401,4.576838469681924,6.409295342429259,-0.3009610224327224,4.5231543618360845,2.982429546849364,1.2907023050341533,6.781314787587587,5.660075068397227,6.077831521874527
5.949484853343072,2.4855270621962773,3.721874710190143,6.267945285910982,7.196185341619638,5.022455626619912,4.072636443668488,0.1967225134816815,4.282941609428956,3.7573612490765096,1.0433574335706042,4.792357809531985,2.6639881478129404,5.052974026375891
0.2857265760265592,-2.9458245654284823,0.9317141000137976,5.031114249662147,4.827233615430979,2.988343183079349,-2.4377076506995268,0.2167627244512547,3.034904870861162,3.727121706862084,0.043204599645645,-0.2819494300342473,-1.9241274553871732,0.7291691354130618
-5.8434420455522655,-7.756487016922835,-1.9137111589407567,2.851449429681841,0.51960472079009,-0.3235708025284118,-8.421002027667033,1.7680744682422072,3.1629724841451474,4.38454030540372,-0.0677924798718737,-5.715215153087501,-3.445839849295216,-4.365538563533868
-7.8047183176516945,-7.849981088798913,-2.786521854961938,1.42140220638791,-2.4534607292418595,-2.887787411332047,-9.059555621359603,2.132084625679056,2.326955014677732,5.250577243880852,0.1531180630526714,-8.099197862991568,0.1157252001466979,-7.30392349366733
-4.402290466862274,-4.126321043755956,-1.1279822391020993,1.6122074576979628,-2.117877813614344,-3.343116012242037,-3.432158086317809,2.24897094496119,1.6860524986026917,5.264234968895538,1.8619386921505137,-5.877686697044949,4.358592418376281,-6.806407363126391
1.3334033041670512,1.5022776947553962,1.7227921282837304,2.9845838834872502,0.8130695151658607,-1.796449326355669,4.681732220644426,3.648664579063524,2.3163612720280264,5.906178007247434,4.830119265832784,-0.4974311515669747,4.43942922041254,-3.730382040177938
4.966057969228183,11.618901774451956,3.675999627404885,4.402287040886407,3.822839227979637,0.6349829774823572,9.894439188383748,3.4312893246193887,1.3838238528539164,6.706693746146022,7.725160971973578,4.625494327048051,-0.1794301675402319,-0.00469592299706
4.204422604772708,12.951499570470888,3.4744165607143795,4.823657510185376,4.617932161212256,2.8711631510824294,9.42362220570218,3.021446836112061,-0.2180998549142841,5.458762735165903,7.588556574376946,6.396526447152564,-6.076843752260492,2.66666054135327
0.0813279176107926,3.165092654247081,1.32556408578926,3.5887327294371154,2.532155416527548,4.420688524045703,4.837968399602948,2.715278741425379,-0.3325464432138929,2.6703941950548518,3.351909174408655,3.883281090126081,-7.901573587845656,3.2991444323627377
-4.702666084939148,-4.670309869174437,-1.730660588542431,0.4019379018467273,-1.466305891813036,5.051523829310924,0.1405466164200479,0.6878102114010718,-1.1162800092753768,-0.5417992199667201,-2.077094134408456,-1.441056121895549,-3.74157773411823,1.4850981638356124
-8.166359111459927,-20.604352238280224,-4.813731130859491,-4.467001347360139,-5.666299101001268,4.286121187818271,-1.7522675248438553,-1.124243532026568,-2.4661346471078094,-5.691100708968762,-10.119691921216482,-6.928612126347744,1.5438472095399454,-2.6149339796773
-9.96218269174926,-29.71538091649763,-7.5386680718475425,-9.870588737718178,-8.52421465706923,1.5881705318905084,-1.0202517839002834,-2.357562255793975,-2.498239781085027,-9.267218406303751,-15.43744343346608,-10.422470430389572,4.362786821280609,-7.973658319796648
-10.55606434318531,-20.360438708822446,-9.60613516934703,-13.977533989987094,-9.199253647426865,-2.7721907200010385,-0.0418590781730259,-3.6004126366322184,-3.1505486681454045,-9.569772781130776,-14.979538083540316,-11.270806423361709,3.797002979640657,-12.731962777707231
-10.113402959142393,-15.124358796896193,-10.433390226445194,-15.228775006868656,-7.771311932862119,-7.19052015358562,-0.873102376004141,-4.484118777588908,-4.809825138068687,-10.829318624632696,-15.81977616941356,-10.261391795060188,-0.5749412999400288,-15.081567840882354
-8.40647400434257,-3.958713176668386,-9.492388901348304,-13.428135537882005,-5.1786969398166605,-9.46427461346038,-3.526001863454045,-5.425277970500658,-5.105361543837529,-10.854725107932154,-14.707332303429611,-8.807085750915078,-1.831955619138501,-14.50388280857936
-5.630137790153485,6.536179522096347,-7.094011964447287,-9.99715291707512,-2.7624335633469013,-8.466603927154953,-6.335564201570982,-6.2892881259017095,-5.716399487153649,-9.537586420455495,-12.306783200093893,-8.050450727440989,-0.0001386528288696,-12.206597658467684
-2.973917875304604,-0.8337031057518536,-4.6837438784171255,-7.078010020549057,-1.4950146255432202,-5.264857072068963,-7.677719926277536,-7.1087640092276105,-7.974108832003111,-9.895298524966098,-13.337147348304972,-8.376743932896552,0.4087955777216179,-10.189214632170264
-2.134114487056637,-4.851450919291255,-4.059800509760194,-6.157489954612977,-1.3824681475183738,-2.442150012134027,-7.310337328318099,-7.814174400911013,-9.233850028316082,-8.866286181365025,-11.988698744456546,-9.431757628917108,1.6824316476393515,-9.699403978723222
-4.114351786882708,-8.665305793705821,-5.996053127591591,-7.246499186489899,-1.5936672521426374,-2.0021825373999445,-6.290274674725527,-7.930613480574562,-10.749687070642109,-6.0651356745508735,-8.68398907421844,-10.484530265978162,-1.3126713417080134,-10.480489283546614
-8.389937863784887,-16.178436509375622,-9.473580988145462,-9.13065332681393,-1.3150872142955468,-3.692492547287911,-5.8309651875624215,-7.754950872725038,-11.827126333977477,-5.052706623539872,-7.771931727790897,-10.914220485955028,-5.31458994586846,-11.415960455837428
-13.155106246437285,-13.69888335063707,-12.32319245310339,-10.374605409651975,-0.6123165716254988,-5.330303996529409,-6.239965175604223,-6.590084526256493,-8.535318077116832,-4.084390787837221,-5.290242439931795,-10.585794765658395,-3.695249156780191,-11.748453033321622
-16.39459158031434,-11.44836184387025,-12.83817564508963,-10.29882967242302,-0.4523089960650832,-4.865451252546484,-6.738128902459614,-4.110830928989803,-3.838972100171093,-1.619718581025485,-1.3731719158525093,-9.852812794381716,-2.688038721577129,-11.520773471027098
-16.883463718684318,-13.322657935608582,-10.972901575902766,-9.275472447262745,-1.750658502272474,-2.233789463245495,-6.109272664594705,-1.4831373410981872,1.1667977386652284,-0.7300036472649707,0.3932672530750624,-9.069467240833085,0.5923534947751938,-10.840106585209734
-14.437934608847744,-9.531352953430687,-8.0400031551547,-8.203032652138232,-4.256251836081072,0.7508837847788286,-3.5775264281150427,1.563558142922472,7.433316231178527,2.2282597096511614,4.759588673492831,-7.910302425568984,4.784102419867828,-8.965362056535989
-9.487344048183234,-4.368152005267813,-5.183965029915852,-7.577711553643281,-6.350394284519053,2.290874155432375,0.6558090651002644,5.690953317336607,12.417434287440855,9.448815171121462,11.335209110069057,-5.167937743803368,4.738404988824887,-4.4978766694836345
-2.5808679321731773,-0.2470899701756936,-2.1069423837716315,-6.878422721472059,-6.096253559527566,2.35898422073052,5.459697677953256,9.67939754736278,17.140228405644034,15.948025903449318,16.248627009663764,0.5043135155087821,6.879804488396602,3.2562749675901497
5.66326992196794,9.662678609313009,2.62801680546187,-4.813945971900089,-2.744608234766133,2.574255203060739,9.349549550137718,14.40933925220586,23.85041360280861,24.456045793859783,23.92543897678924,9.271253392308536,9.430192757914606,13.094196310132649
14.2306493228899,16.056011473885988,9.860022120837636,-0.3664949114747573,2.570631449849694,4.3808193076342175,11.30562477649116,17.39298636836577,26.37640033791291,30.353583645043408,28.64938816591002,19.32627027366968,7.530996908802717,22.263274109717145
21.53131442939402,14.77421965870348,18.2671633751364,6.104229188855359,7.553417098966431,7.413211343290989,11.36337241147304,14.70427796565217,22.20394577324664,27.271259524160865,26.34282112138477,27.53329539510591,2.448827369260178,28.227609016901862
25.808650743760797,15.434964048525568,24.58239425932014,12.623545618809215,10.296160463989484,9.687685216518895,10.49021818359978,10.538816650227602,16.856780247317484,23.13862928525028,24.086168669219656,31.204716097346232,-2.4734705784547355,30.265233698999246
26.02062509928237,12.833219695441212,25.681353875853915,16.565701186776923,10.38922611005787,9.408041767762818,9.713208577404613,4.794698862109465,7.0197479763031385,16.615717507109885,18.431241007761336,29.66368642458217,-7.5025477745633555,29.44519950062214
22.548467145879226,8.808302616527646,20.922709580295777,16.213922552577895,8.77962852023382,6.602648208266608,9.134924912775851,-0.8198923674528995,-0.7068287348541923,8.99133495478282,12.029344864355318,24.366367749464445,-9.029975820419644,27.166670297880323
17.08956329063485,8.416855864460638,12.80073830099603,11.808428113155555,6.703924188637909,3.0636557534116555,7.7554834147905,-1.4400599264308476,-0.1051241898124779,6.153970688735542,9.101435274637156,17.61151330116362,-5.539088871136418,23.865860068314124
11.697671415887338,5.141738572492328,5.344859647669544,5.367659304095063,4.769624511838801,0.7671943743829646,4.440615824311724,-1.9561312255085856,-1.3402641084739568,1.811877682890358,3.8378548746119217,11.04467228956051,-6.303482892202357,19.215673035653456
7.664904742056954,0.2614431869361661,1.5275068953373214,-0.4862768673369331,2.961065521101005,0.3458241186719615,-0.7068372069556768,-3.6173724890754952,-1.6796418969353542,-4.879312949074221,-2.651192350505898,5.172920783943348,-9.24390251687232,13.464883402828685
5.138285783284564,-0.8048897153500764,1.6446073606299212,-3.791612975697878,1.36242665183648,0.950288081705602,-5.869405516288187,-3.7454613051193713,-0.0887260326309563,-8.03772636158762,-5.839407905719868,0.0283026016354632,-9.34974187714502,8.278169198586696
3.6799126531872135,2.2277790317966595,3.68805395101154,-3.8867683593730895,0.6219555498672524,1.3592901721394668,-8.61612725759431,-3.84035004341976,-1.8612117982778595,-8.124483074627264,-4.3009199514560885,-3.959411982837717,-5.987292486115246,5.874142868477987
3.1094344379046994,6.935678327327716,5.114908178764372,-1.3603738709984676,1.4868126683995144,1.0818440925004662,-7.81708726268322,-3.9748575628360734,-1.7220780259475092,-7.602182889278724,-1.0570494653975735,-5.894393162947441,1.8828224629890649,7.052416583898896
3.6993035581786966,14.284505860542446,4.510778682342236,2.320946721425431,3.762089980554781,0.450415917144535,-4.710602245295233,-1.91419568524933,0.9621138455589608,-3.516314680437259,4.755853545310397,-5.262273651393656,13.061959241278103,10.010359072843688
5.511078539660679,18.331886748865944,2.061113626683741,5.286488703099068,5.815365924964856,-0.1075548905655834,-2.0489921430591567,-0.0928412395286778,0.7230449333950614,-0.1935753428288928,9.226501803696186,-2.8260939538029106,18.87762454843972,11.336093688483682
7.667970395058322,14.779480335435524,-1.1098256201839676,5.936361797329235,5.429723076499071,-0.6262715324954828,-1.909331753152913,-1.079184583401577,-0.9633612920851292,-1.7713010910247229,5.240903288148091,-0.5525088106230376,14.029096678416582,8.613490057011598
8.571467839594165,10.86477392339032,-3.875567018871165,3.81324174737628,1.5878317217734943,-1.3528520447348154,-4.002336846435868,-1.2427846340984503,-1.8293660233040328,-1.6354758674189993,0.9927112118946408,-0.3719201597023129,6.168684556678113,2.47442819602209
7.09948809886307,5.2548082870779655,-5.592777629762801,0.1425279095321299,-4.287964219571505,-2.0694087335114237,-5.961656716186672,-1.1403310900743384,-4.947814959685999,-0.9671505872659788,-2.3679360191851537,-2.692866436343162,-4.172163242303499,-3.815852525377301
3.705350614513425,-0.7245574005613005,-6.059914471595466,-2.6572264283401097,-8.892227086958307,-1.9081664299817431,-5.392837573579809,-2.6185299641882014,-7.365591104234872,-2.9108162634528787,-7.477403864580047,-5.968633431569151,-11.365180293794367,-7.048461068746011
0.1891846885712418,-3.621022470191214,-5.36570015280212,-2.5684020818634323,-9.257428422142151,-0.0688432154571616,-1.9428256908045407,-2.154866403390624,-6.890836663880473,-3.7949621915885423,-7.0766925863615935,-7.85845003735563,-8.632773245327797,-6.79923341625295
-1.868777481579052,-8.595660329790082,-3.9178821028032624,0.34505798359916,-5.0346513633148176,3.1563072627312687,2.3473258136687107,-1.301039905830292,-8.106878551742676,-4.898401392458542,-5.247473678067172,-7.142605369321874,-3.683849385421564,-5.7728152470408345
-2.61584311260828,-14.80645106437924,-2.504605705181379,3.617434229263729,1.0056860301222326,6.092505167294123,4.645733409072506,-2.4520920540504543,-8.997454540366695,-8.924079924902927,-6.8221660111379405,-4.768482745964061,0.7860844042366679,-7.345169881349078
-3.852585631741064,-16.55124709861048,-2.0595566273380417,3.975617890624375,4.788171647065034,6.594900971494862,3.497175454495021,-1.8769286246620025,-7.501731907697744,-10.071875615217609,-5.607804557179463,-3.042429619415655,3.911148735161627,-12.393110415627708
-7.278717225299406,-14.2103086815786,-3.108498125503866,-0.188719533974405,3.776361697172813,3.5692584455500027,-0.1908295720506672,-1.21227865668475,-7.16508094317579,-7.851059543195708,-4.059652215665786,-3.611913935801784,2.290658837316145,-18.23179607985877
-12.595340402322366,-9.676902228401284,-5.301948036832802,-7.367199433998008,-1.276610419691366,-2.0592928524686283,-3.9555885042182695,-2.0471490631878617,-6.026430834199718,-6.906161425210461,-4.716630176382098,-6.026225566537666,-1.5306187307885797,-20.67536065398168
-17.30294110526668,-0.9249492212649676,-7.507485969463962,-13.72047184171604,-6.970955629018231,-7.701673909294614,-5.524250216642409,-0.8353277356044233,-2.460536846662188,-3.420238781454474,-1.549366117352435,-8.181161603475612,-2.3036639117380986,-17.471919350905857
-18.51670976410562,3.73172913513627,-8.48097718987456,-15.5617508775811,-9.731856967155675,-10.571614129981745,-4.067006246278849,-0.1077431447960632,-1.8193851978035431,-0.4806375076258274,0.3283301046262844,-8.23859886874302,-1.5029880426480404,-10.161352109943728
-15.269187031449162,2.619062106685948,-7.628016516348971,-11.70064842240607,-8.188172130364295,-9.29005904244112,-0.2251561081275666,-0.0208395483263377,-1.836004154254141,-1.5570939201481435,-1.6075176379889595,-6.247817423789248,-0.855726058680178,-2.8541033603430463
-9.282408969218384,3.56859023810222,-5.287998604022354,-4.001843851878316,-3.738667872917501,-4.624224553276097,4.685432464329058,1.8142838178050729,-0.1202852646698143,-1.2745417637834988,-1.2922641600845777,-3.99708480658704,2.127270191397712,0.8615473168130698
-3.5649535210190013,1.4934050412827249,-2.3934405869364026,4.041313942249508,0.8731454993955179,1.0316765972060606,9.391044022735311,2.5946710082276887,-1.3952620555479356,-1.3991475298564853,-2.8906588311095933,-3.289732133336833,2.329097586043341,0.2170107881980039
-0.1339688525572313,0.991615546050178,0.1466060424597621,9.479572575434307,3.606618676379124,5.054046565859426,12.822919145413948,2.9511084558135217,-1.6326592046591406,-2.802751762089416,-4.728299918469904,-4.268852830875604,0.5481378628888383,-2.8978198869653724
1.157834989013506,4.633791689310163,1.8733050906593025,11.289980190990311,4.163572053182152,6.009342627891205,14.013942721307457,3.2843216193164326,-0.7688570444550656,-3.246990087932787,-2.6163218808457915,-5.294756301617248,1.0017555261758568,-5.901732334724958
1.8818862420323903,4.771336792626645,2.830463771502377,10.327117157888456,3.504330338636098,4.279704300409509,12.279679803028108,2.261468098581101,-2.9149497417965744,-4.402698237848363,-1.5575718653192785,-4.403897295625708,-0.4444573884251888,-7.267310307903781
3.3405142499926868,6.5217809992429725,3.3712878128350097,8.333074167275592,2.695896855010713,1.563311439363661,7.7778410394977,1.5420972315057009,-3.555789357260764,-6.626071716621559,-0.3533996494337327,-0.9793755468343353,-0.7203055547912722,-6.7397769776271605
5.565264271687299,8.226216797343668,3.9125357326591583,6.938830420355085,2.2452914795531385,-0.3318285547629731,1.9008622455410045,1.0285502163380962,-3.544605556320769,-7.90693048290021,0.7116285449533776,3.798370327477488,0.1356396932837292,-4.493962905687425
7.659090770351758,6.492446223970034,4.70298826067033,7.13788921975674,2.2390941990747573,-0.5574048038624353,-3.139977106990889,0.6159790796002083,-4.411500806790662,-6.996961040580909,-0.8493378029326959,7.945980282892226,-0.8749800367380607,-0.667782465269104
8.766409281495829,6.835301803194013,5.651653338848249,9.110084080737646,2.720891460039333,0.5322679790554314,-5.501334177008699,0.7350777843485972,-3.4449275674969693,-5.843617995487748,-2.480089079606689,10.096031706282288,0.4426031039867135,4.091164513310716
8.605978842348353,5.946328769528531,6.337177626854095,12.17127740597654,3.681290986954704,1.9829810130486445,-4.849341357332801,0.3117103305330422,-2.8479760243039247,-4.423088334081539,-4.702381804794709,10.141170069405293,1.7663923749556838,7.981124234667444
7.320550697156726,3.5271441661475587,6.29764381185147,14.93158206226652,4.76379033602229,3.057654545015676,-2.5087403237703843,0.1066558318760049,-2.7624859424158967,-1.606268744965707,-5.367840662427215,8.819547117915562,1.8720212328741928,8.649883980405846
5.21045515894131,3.367090893296244,5.447162906584193,15.870079205206586,5.258753655483218,3.5688944088366883,-0.4503878684707088,0.2083199447963387,-1.461419180501379,0.0705534871527137,-3.967683586909567,6.933676124769363,1.7135593212461822,5.069753008788325
2.7797652718103807,1.6191411680422203,4.242380206986387,14.185707380558965,4.592968149173841,3.5949686432490875,0.0711581452828165,-0.1263589344819779,-0.4901556508126848,1.5003046078751714,-3.325243484167362,5.0060171633776,-1.966922324141496,-1.0286677051475497
0.8314268649400365,-1.0203043083291623,3.3786900770276684,10.367411410393462,2.830379305377246,3.0665426554275523,-0.8480932467490137,0.2135406552440116,0.8194434931111065,5.112356581403649,-0.7857606529978552,3.4584395332599867,-5.749889313743974,-5.950199754239696
0.1455044219134937,-1.7494189342309678,3.250468062788239,5.999976413816823,0.6146885175552157,1.7577539395982311,-2.235057731285927,0.2086470280075035,2.417922046243441,5.921378592856706,0.643045182487505,2.749373773332989,-6.051639688052201,-6.8383966416107
0.8773902207922566,-4.051788256400545,3.685081166540311,2.8983208800711893,-1.3732103574518018,-0.3170187093281118,-3.218447470833339,-0.5689954345073407,2.726340552585702,3.6506253557040313,-0.3951045088493626,3.067735001778985,-3.6284966300187538,-4.058116436886791
2.3352560409021903,-6.888972511967847,4.176833271800967,2.141456162279012,-2.826705215452166,-2.614919209323829,-3.601438068305799,-0.765341690011927,3.143366450402876,2.2902197259346524,0.4821130432868094,3.8872317620750794,1.916582702113732,-0.8039449816948601
3.460928265480499,-7.99529246583845,4.308530522470783,3.536486501886176,-3.709784635922867,-4.316993237476197,-3.6891002870179737,-1.5160820578637586,3.6535881992331367,-2.201322927869979,0.0472130776663525,4.03681620828605,7.034656679243489,-0.1669352969982522
3.527943335093666,-10.351056936921507,3.887670626933904,5.676913718922169,-3.9393406775132913,-4.956551203888085,-3.790881993022131,-2.2749499447274286,3.02737396897843,-5.696752868642804,-2.09417874118487,2.4630521813680493,7.040415146401317,-2.450383083754569
2.3440889099167785,-11.7566837599791,2.742966832321396,6.520187429463799,-3.391863184666069,-4.802544652383689,-3.979076028081671,-2.06772793095113,2.2958810568505195,-4.428447451947635,-3.218437543269357,-0.928730557932627,3.1182603633230617,-5.304566262448608
-0.082556260625179,-11.051326060197658,0.5941038603489666,4.347180391918303,-2.2708059900477133,-4.578296674583765,-4.21773598397599,-2.300186569999084,1.362690387274698,-4.865891703507052,-5.862546059350689,-5.146605091303318,-1.4858450413725317,-6.360092465920946
-3.778294624057912,-11.821237025317226,-2.6828193366278734,-1.2165219964504117,-1.2968287600713655,-4.768751853469437,-4.530110778513462,-2.3977275308295587,-0.8437462232300225,-4.502521886933715,-9.975567388094738,-8.822613252543738,-5.424431090799308,-5.534251176139786
-8.511776772966732,-11.528919703535456,-6.62748772326136,-8.737694039312647,-1.29555228711883,-5.199722622687899,-4.93851675707856,-2.0128024710243237,-1.980141913094113,-2.708858960355029,-11.280935476953909,-11.093934526050935,-5.573160603081817,-4.725333032406837
-13.369221493045426,-9.735261311683772,-10.161988706812172,-15.608860501407731,-2.4614989620689163,-5.293247528370547,-5.297068730330456,-2.1438824173017474,-1.7388163824714389,-3.199268269301739,-10.64309933812894,-11.913227799538063,-1.7187363154073758,-5.512337917538083
-16.916952393557768,-8.880046428853289,-12.155911591100743,-19.55898320231417,-4.045194579668302,-4.699882420665702,-5.295157458084681,-2.131020921327229,-2.1359837301319384,-2.6141376887389707,-10.329833781723735,-11.698898810253295,0.6569654691534645,-7.48960107584421
-18.039470717702823,-6.181877056837366,-12.148609373988268,-19.97193003477089,-4.869518237280014,-3.632716285765575,-4.673413042057165,-1.6998387265783437,-1.5412006392982296,-0.6355501743376761,-7.70367382211642,-10.84533543605341,2.2465696776021216,-8.890816040372552
-16.7125165363416,-3.247257732322825,-10.583471466107673,-17.962925139382342,-4.268660891460927,-2.579331475108776,-3.4174874640758524,-1.6923664746134204,-0.7898226856389465,-0.1344790672673367,-5.6887032492866805,-9.560962300120751,2.963032783188939,-8.529230089439025
-13.97921569698966,-1.9581284099511584,-8.38892416616404,-15.249120005150932,-2.6043959620943777,-1.7636961970005385,-1.7433242012027197,-1.7795863768571103,-1.114838691565179,0.0847584161862107,-5.919702294115234,-7.998779766407317,1.138219130950378,-6.836724955777036
-11.192678086642994,0.298687765425635,-6.334802737618276,-12.914779162406631,-0.8936523803666248,-0.9856891316303612,0.0507553602972041,-1.6527256458105009,-0.569057807118831,0.6259204070173998,-4.554044199731004,-6.345268138998911,1.0291322113210066,-5.101321782988406
-9.234151732638654,2.423780987599421,-4.707276399721224,-11.108921942638023,0.0870958768383038,-0.0055315521907122,1.6744812030634622,-1.8933020297441203,0.205014766544493,0.1314383708587275,-3.373826573302797,-4.731906691978169,1.850106905920926,-4.062038714990223
-8.257128914454292,3.3269459175399527,-3.445884372713688,-9.627434138479728,0.3761217290897098,1.0101816239864174,2.8420212373352056,-1.9649646675430192,0.3440204802842914,-0.0214246701027065,-2.689682460602169,-3.159992068169619,1.593858440640365,-3.439388037236961
-7.900791335322356,3.284991280079485,-2.4633931729609726,-8.479650035994927,0.568617981349731,1.5447310392747884,3.3043723544138057,-1.6373380189482991,0.6242836107895575,0.386153753388178,-1.0769322151512657,-1.6155333793620228,1.1119249054626523,-2.609869898768181
-7.614968226543784,2.1348969896059224,-1.8057589796823696,-7.820213408848851,1.0556349891984231,1.259753539515696,2.9838534756016424,-1.5264144182355257,0.8612370566363045,0.0118910731836778,-0.0829393308763895,-0.2470781869383227,-0.3723344264762401,-1.3676007567101474
-6.910730270379681,0.0829165728363624,-1.5512712682356913,-7.546383328435684,1.6087510292589062,0.3855417065702387,2.084091090102248,-1.243609134495771,0.7064426051776677,-0.1653120100868022,0.7396510765158106,0.6687897967134955,-2.230684391432783,0.0463451742641485
-5.551781757835409,-1.5818400556251182,-1.6044784846039617,-7.237144204169262,1.7822213304099757,-0.5028490040724591,1.0122424622888984,-0.7858138680787203,0.6227185758657665,-0.0216547884282507,2.2457647093211315,1.0053274299547788,-2.572507198689531,1.385114590264653
-3.646663086611941,-1.922867476520378,-1.6273768109527804,-6.562030874176134,1.6551817322710214,-1.0905566060024174,0.1310858995319357,-0.4521935694552978,0.7638047599698515,0.1125494332282729,4.041604907642986,0.9971143628187152,-1.5568680261465175,2.615866181208013
-1.522670280313699,-2.130091972015075,-1.242058127901884,-5.617848041909147,1.9435083559078723,-1.6086298460453363,-0.4593417235201826,0.1062152647723202,0.6092345372381726,0.8059301556060372,6.226981195220361,1.0925040366422063,-1.1640509194872402,3.787397728522474
0.5507070097871578,-2.697699073551553,-0.4021431890696458,-4.762106465489792,3.154043639015525,-2.453342208233505,-0.9335308078394348,0.7884350436924437,0.3185465499319905,1.5850201687352528,8.646885936335254,1.5449380441608458,-1.9396917107914224,4.945411524728317
2.519295591909893,-2.85665323574466,0.4131171164182792,-4.15202984115621,4.640421615458036,-3.5565074466682267,-1.5451601401593988,1.2043609664589123,0.781780737503757,2.32513640107707,10.00151814024552,2.169823345373601,-2.8770923584677965,6.251238563919966
4.4039273081843735,-2.14120668141418,0.481017962132821,-3.5714315937615133,4.791800429083112,-4.242152645345694,-2.3707912174756656,1.507799670381223,1.544329334090069,3.691144368236738,10.450442331035182,2.553025186599381,-2.844279766567006,7.961970825973484
6.063240344761786,-1.0849489358193465,-0.518140000830865,-2.7284081984137,2.4744115669045907,-3.779354139827341,-3.172489284672268,1.8078278585224816,2.3577542775923064,5.263514230346928,10.735528414138628,2.5170563382764684,-0.3355041813512034,10.0553729381175
7.200510726736921,0.5925485546962461,-2.0604540875687256,-1.6288403940918492,-1.6231730418694053,-2.079796154988145,-3.484898363040256,1.9004287356760907,3.97401640007974,6.992951452832678,10.043490732026893,2.3604011039203385,4.061676734021603,11.908525800539897
7.65299389126988,2.283791430126436,-3.061954941643709,-0.5688423773117606,-5.246990070448104,0.1708995298021287,-2.9122771063833044,2.0085836399155794,4.809920761809278,8.331152367271667,9.556489019121042,2.605024859180517,6.149937126041968,12.598160445726704
7.612314255514576,2.526277969963217,-2.7429275735562424,0.201454755327644,-6.398335583535835,2.0614914989540765,-1.4623370011524486,2.1385847903553983,4.903372403609499,8.330239810147864,9.427713164905107,3.486084039113212,4.4120836171132485,11.701191715243509
7.48578097208788,2.6010964273811066,-1.2848682588246962,0.7244319974083417,-4.991350973694085,3.120227817370635,0.3583243968596292,2.038704443631861,5.595626240358398,7.893654078525566,8.244594604095642,4.692527092127454,1.3771038298593097,9.769037927431016
7.5431650299075805,3.0591602132842217,0.3749558883646244,1.2389507081578532,-2.7248428504754987,3.495053588516271,1.8306398233738768,1.9013026175555203,5.479925116342436,7.140909557429679,7.116082252563937,5.615940249519621,-1.869460454862512,7.896938198763733
7.742729301014622,3.386297969135292,1.4078694417515685,1.9083867602903428,-1.383590032940976,3.602625045939387,2.509156545119998,1.8550360068924407,5.1804987261127975,6.443010064223686,6.380109768254768,5.859798451113244,-2.8680495991823696,6.797392202692773
7.892703100667356,4.112495524732967,1.7445782658807047,2.6897556212296525,-1.346475011947172,3.698279021323268,2.49785656950932,1.8252347149648287,5.208157425459267,6.347217173056173,5.521862373398077,5.522641283288296,-0.9073513782467972,6.329795591545627
7.910087660810536,5.032856123320316,1.9139921968084508,3.436930100841604,-1.6917020707717398,3.7708999113614334,2.269134198366116,1.80678562497588,4.291193239072126,5.956415405338484,4.97563809599159,5.022634465491782,-0.0556461468530968,5.896100424963613
7.880001755145633,5.626446002785412,2.3666361046752886,4.070266129600789,-1.4934925913481312,3.738498654226152,2.2142516852952028,1.8243779139823424,3.280458677989483,5.364191375325216,4.642719725728738,4.689872184265253,-0.4804919250112734,5.155497016663038
7.911660996846615,6.086874066840249,3.066128041443875,4.63197808278014,-0.7616161417684566,3.632290430700717,2.365642144827797,1.8051021734094228,2.7707575862230303,4.866813036807381,3.996807798193849,4.539497145309383,-0.6941744691402416,4.269434507272855
8.013993313783542,6.6771147605729855,3.706088402541317,5.212358991299533,-0.1420248854597758,3.5690775300189728,2.5173091615159766,1.7492836578437638,2.2141765868019934,4.350595684545893,3.258067570146317,4.39277463454461,-0.9364049562739656,3.544391644556926
8.122626930906437,7.212391886862543,4.156877308101508,5.851136859718711,0.0035544031535525,3.604446459874055,2.5369467795958744,1.730986181408977,1.7537726241649845,3.978128688990747,2.734641157168601,4.141520246774379,-0.281839542391339,3.02195116819457
8.191288371330781,7.609813655441877,4.574470925169491,6.502714298763942,-0.0328327074255927,3.673151494764589,2.499934456899962,1.724525283849742,1.5013395770756288,3.6924814392818246,2.177720128072236,3.851136899693932,1.147520761927784,2.495498155042016
8.220771596775375,8.225220453783267,5.124478868744241,7.082702723769758,0.2031228572575214,3.67838004886544,2.5426993285772905,1.7224933238645943,0.99856657818874,3.347239606056598,1.5590132987070715,3.6355147445479137,1.4726734256188865,1.8274677844088263
8.229600955117668,8.945043358642131,5.755246516699443,7.554582914483421,0.7300216506222403,3.60808171386024,2.673462635281253,1.7390588711936223,0.3461752562283456,2.971553328139379,1.0213640777515811,3.5030591310943846,0.8752126324221554,1.1107779499263888
8.240677840295007,9.571331606837411,6.313106892782688,7.980805755672265,1.176440480208591,3.5425470718738143,2.7856313010331597,1.7798289082888887,-0.1294696180997693,2.653094268219464,0.4783544233326195,3.365015353916021,0.3476268061312638,0.5002536152870052
8.288029120720125,10.388307619165854,6.792687371981251,8.476065174282864,1.316367719317214,3.5587415039605927,2.8260281450056937,1.841236847504013,-0.661494171427657,2.4016053389671,-0.1078884445807491,3.1682531996499246,-0.4806249118136799,-0.0143534055586598
8.388881321693653,10.57353072853152,7.347707295524867,9.0835635578904,1.3500701144717038,3.6449471770958697,2.869404513252432,1.7651137393311085,-1.0845917878669524,2.048137287111289,-0.5593253394187824,2.9631562668653286,-0.948456156722302,-0.5833141651756564
8.479755083630906,9.847826559015218,8.029120363494958,9.677366016292368,1.5943416246158817,3.708426772375585,2.995811679139722,1.5662039138547772,-1.2176714822005237,1.5492515415204855,-0.9052148201097948,2.819395311737239,-0.8953955350018633,-1.265778837232796
8.39752225737119,8.944640498696852,8.599406874039207,9.994370035436171,2.0325042252717878,3.643184216977467,3.1337758441358616,1.363962339210444,-1.3025288027394442,1.026106936680674,-1.264726733460858,2.7081489826574616,-1.265702216011554,-1.8958733413581204
7.949196466347093,7.378457136534395,8.67871295362802,9.77359155463852,2.330979519730974,3.379323829008018,3.0904732439623737,1.013980315415426,-1.2426721571486474,0.4120446395981858,-1.4951244476123036,2.5117717346604858,-1.6980934715720706,-2.2098027683567603
7.012997280821367,5.820977312933712,8.067582317701739,8.882800586257968,2.27503309700675,2.879623561333915,2.7436557140973763,0.6708031917184185,-1.1678518287122286,-0.1794372509434744,-1.6860934381873312,2.1510280557521666,-1.6409016847453828,-2.0974684581680005
5.607589399851783,4.614828910960089,6.907129559061094,7.374217371850011,2.05136852730286,2.1394027797148265,2.1735866302048645,0.4306168027057255,-1.1919200428698349,-0.7160219005787655,-1.9503128607287927,1.674255518006615,-1.2938857361442893,-1.6936562237839858
3.911879895933216,2.77772819946642,5.547716233597973,5.485002485421218,2.014200109760914,1.226109580222568,1.5831938170518065,0.0635767403640702,-1.0757122837542423,-1.3525785292713897,-2.1186079247362475,1.2024410192546924,-0.2317153040629237,-1.2276939227536197
2.197198335489934,0.8744538529919021,4.277767952483948,3.5598901664467477,2.210978427027949,0.2930157659038617,1.09017978824797,-0.3200861316663067,-0.9305955856229092,-1.978654568409465,-2.235221079857973,0.7908999214459245,1.4081388005602549,-0.842044735151803
0.683764824248069,-0.9295087870161696,3.17814131684632,1.8871797282061216,2.3173478163493035,-0.5064864317748174,0.6439507848841473,-0.692349224124162,-0.7997831104738956,-2.583176786340827,-2.465806002110142,0.390932836861821,2.1571819084358657,-0.527975171160981
-0.635126841435862,-2.9176745393201413,2.1507428969918188,0.47435331705175,2.0880502384598145,-1.1595147543588462,0.1388877515976814,-1.1920140021779364,-0.633466699635668,-3.2065742364130125,-2.748017307960661,-0.0625319051164652,1.978667300467495,-0.2084975877919017
-2.0398623471429733,-4.650232791844032,1.0266364963575914,-1.0281950592491818,1.7351891948349092,-1.843188586877716,-0.4362108473786605,-1.774369397227081,-0.5171784322555083,-3.751030149969316,-3.020345052021819,-0.5610021738451678,1.9765293203378127,0.1516554182512983
-3.8311979001347662,-6.371558796098404,-0.2953040845940933,-3.017807786502741,1.7087624415357272,-2.747061174509275,-0.9896321814492008,-2.346695050949604,-0.3962371055722907,-4.292944470019832,-3.3915246954792333,-1.0429806272424251,2.476062359875732,0.5239351985101859
-5.9058329012405295,-7.518243363140771,-1.717222156599016,-5.379322570316017,2.062502632503074,-3.807330468086196,-1.4573315910725295,-2.4343498800836123,-0.5685571374943162,-4.7813583413878,-3.057727771903911,-1.4785632449154775,2.884236855871951,0.8661647684405143
-7.587729146252796,-7.404982010185906,-2.91326439734482,-7.220524903647117,2.1903144556275027,-4.637179353877533,-1.8923305590885933,-2.077090466480425,-1.1722781425656374,-5.0472466023698885,-1.750032411421219,-1.8936885962044432,2.2726749266967,1.1507784563208787
-8.00181531032575,-6.822675619843485,-3.4843579713930275,-7.32432404487977,1.396982692274717,-4.806943337437746,-2.3700580359153367,-1.4819790557419172,-1.9190077499949096,-5.228416902241982,-0.2005856712406679,-2.2676645936094584,0.0577180097290266,1.3531561989202403
-6.784034822383752,-5.480717090557013,-3.243413419911258,-5.096290149162899,-0.2045130383443041,-4.235731445695844,-2.8064826015303748,-0.3498921637142183,-3.015279200323556,-5.330177932916932,2.037167562080807,-2.430949452026269,-4.069861449378067,1.4421889205120255
-4.475957412413667,-4.401837980182713,-2.399711117166824,-1.191018097448243,-1.4992257589409237,-3.3026217748393893,-2.9227344588645927,0.2971973058102274,-3.74191089073231,-5.266066251273888,3.4645752229337736,-2.1395779100151278,-6.540055773487282,1.4074332126205782
-2.1928468105084638,-4.515181708135435,-1.4475743748307046,2.808754326483424,-1.2750943284014689,-2.5437803561956365,-2.4703045037463305,0.5968321613969816,-3.742234685769054,-5.179909690447763,3.329142408218481,-1.3115066933508004,-4.98455210957936,1.2880536434064602
-0.8410218243964955,-4.302682875081543,-0.8321462631676759,5.434856155442322,0.5905217885354332,-2.2212060629833807,-1.5081990633394646,1.3754896922043087,-3.8448070380301655,-5.026078059486327,3.344125009705528,-0.1957909704387361,-2.133912086109192,1.1352812120279625
-0.5848598177517736,-4.112666562273003,-0.6919188781134125,6.200272517436254,2.886060081317158,-2.188410493088142,-0.4425240397577319,1.6819039677702192,-3.641973389300537,-4.656604375314247,2.6509469376059984,0.732374411541791,1.656175367203116,0.9363525675305056
-0.9741037320581504,-4.090705124083266,-0.8837681264702617,5.613489331551477,4.089153737658641,-2.1318179005027247,0.2607359966738478,1.883498634197767,-3.352210430755435,-4.29957631726147,1.818266186032912,1.091457519742271,3.615485748327128,0.6062400466376374
-1.484573399983386,-3.724356200907219,-1.2008131714787496,4.508771181933053,3.680114886414543,-1.8835844562049395,0.4566051589925095,2.0834445550372416,-3.3880405300616947,-4.030740242783574,1.6252124557461385,0.8614595555555873,1.829431782543983,0.0900201974911283
-1.9100671509736136,-3.728970213433588,-1.537200851620273,3.404154640243753,2.4392412576871365,-1.4967318149893067,0.3999813241109038,1.5436228276534625,-3.102075789108956,-3.665657712568496,0.5846843278842341,0.3501294438757725,0.4265860532866268,-0.5327001357658503
-2.331868862453959,-3.9803057865114,-1.8800806940861785,2.372428324312206,1.5110803126905594,-1.1000213416062046,0.4575725910945181,0.9837384295650496,-2.66485689694052,-3.299660545142788,-0.7300505572381364,-0.0976454293239328,0.1232067965418656,-1.1066466130839956
-2.864240898071128,-4.036122290093136,-2.233242126175877,1.305019845904685,1.2708750333431489,-0.7606959628212984,0.7331531018773134,0.7602471462196799,-2.387073770072893,-2.986787723014107,-1.6365672769397892,-0.3735006687179236,0.495207253209435,-1.5800092493117823
-3.5043158576852704,-4.131142335713789,-2.6002211887640314,0.1569339726513696,1.1605099838130215,-0.4802866081129373,1.0187002624564483,0.4986245175791602,-2.169517702155787,-2.6919294372502547,-2.588399365734579,-0.6193400151403736,1.6933152949050458,-2.0834166387899917
-4.174509993678086,-4.31850794429727,-3.003651861220767,-1.0296028734434692,0.5490213541986755,-0.2393850687878647,1.1021902120525482,0.2702696857466179,-2.0208005566916043,-2.4495172269577457,-3.4349514660483016,-1.0059933557353915,1.8080733494886545,-2.7700844969940377
-4.8212113896366375,-4.478356513621734,-3.464989983114464,-2.209706687658024,-0.473422371462199,0.0062446597906884,1.0473748967393632,0.128248151657852,-1.9174629721273075,-2.2606756418518605,-4.094581892137944,-1.534231667680103,0.8865556981244046,-3.5920640953942424
-5.451950415538164,-4.5665545078580045,-3.957216819403804,-3.3752906628815182,-1.281304726368468,0.3235281578684521,1.1026874399544653,-0.1568699482701877,-1.758010836455558,-2.0180197643551367,-5.124503590427278,-2.0596433269528376,0.5089129881276873,-4.329758212115699
-6.115544585847541,-4.491498104323292,-4.42264881035279,-4.54053449452028,-1.57506093852826,0.718070833223031,1.3524923598361624,-0.4427676092042367,-1.5227861847742057,-1.646491487938451,-6.450993555739922,-2.486614196969356,0.8591328177403974,-4.886581300216925
-6.864060311981383,-4.090080002834399,-4.857671629476378,-5.731403923770166,-1.792969179636664,1.0712198645072064,1.5742841938571743,-0.5036505659926304,-1.216486787419993,-1.158116855634289,-7.69553992950441,-2.887715426978112,1.1515312537782334,-5.469403851930778
-7.706113683406606,-3.6222621156689,-5.343739539485501,-6.977948275850295,-2.526977876860741,1.257069570995924,1.5265984305333689,-0.5999420046086944,-0.9483208696036928,-0.6873205276122485,-9.104658126389117,-3.4071295563871864,0.7495931162655456,-6.35185195590288
-8.581521588097129,-4.3875402720558885,-5.953524227823788,-8.28474919678721,-3.68114251246611,1.353009022928859,1.32016590745625,-1.1472898279256198,-0.9785885076565116,-0.7689839167474681,-9.984710232418276,-4.072139924180455,-1.1021545375657684,-7.469004463836264
-9.41244769678773,-5.937324062099903,-6.640198226175933,-9.610418493297306,-4.5128168033397,1.6238718925906284,1.3421249424001471,-1.8710239630080567,-1.0505221483584264,-1.201487903071868,-10.106590748550683,-4.750209745131585,-3.638629944163193,-8.414627277456592
-10.199079762769635,-7.77943657630426,-7.2624424904119,-10.888875726635998,-4.628322195115679,2.167587570382864,1.7203632365247934,-2.6815198622195053,-1.0676539153786913,-1.8228365716422936,-9.947042805691575,-5.311105087472896,-5.060661588432831,-8.965390884684489
-11.007727001302936,-10.909677128831632,-7.704187265856607,-12.031110292365028,-4.698872937020791,2.6162994695975748,1.9625620973003244,-3.9466795182728966,-1.435023867577895,-3.0262530754725487,-9.216240692909157,-5.786759715879612,-6.311027550277883,-9.503918451697247
-11.7793741679948,-11.858329334106433,-7.892240778951681,-12.83558683319836,-5.792595344236009,2.4053404503061167,1.336059128060306,-4.153458417805088,-0.9497793821066316,-2.6462146553102257,-7.637736804575811,-6.306764853534499,-5.559127824965776,-10.641690283930895
-12.166324814112745,-10.675737153120073,-7.651741010785276,-12.896656160175688,-7.8418528643827905,1.4913640019332917,-0.2729245405153158,-3.224690807127664,0.6820072201976506,-0.6779214214667177,-4.627822722910706,-6.859206249098712,-2.3139234105239286,-12.278396528318538
-11.692190239363942,-10.319903232478753,-6.624499847939578,-11.72504371843306,-9.04921974228819,0.6965136110957459,-1.927052406258092,-2.444700353858178,2.119605455933553,1.167083736917986,-0.6538350442560494,-7.12351049897898,0.3620401447459138,-13.1873470355681
-10.229192601809498,-7.697366177683746,-4.527118401971244,-9.151354265014714,-7.302421926640683,1.010450928123145,-2.250414308536236,-0.5791703248788882,4.439682149932444,4.646263845410189,4.210309909081756,-6.598580022348109,6.106451239435021,-11.865705529190432
-8.336116147127012,-5.916301608904249,-1.641195060529988,-5.714739844247379,-2.4816664077277046,2.332035319655251,-0.6555279240761216,0.2466516193610863,5.89022404696672,6.393794021396388,7.344365356758814,-4.974427690666079,10.27294044207716,-8.01381588070348
-7.004673356246213,-6.862561361596205,0.9727138457713558,-2.6124443779777504,2.728964194419561,3.035836544740185,1.9319300067550105,-1.1226890119554322,4.542980689440364,5.07416748074214,6.467029309842095,-2.495625354647082,8.04327138919473,-3.1514629017751297
-6.920888959361388,-5.945703845404077,1.9468919648320624,-1.1025068587087097,4.689293783385285,1.19599424996019,3.581837570476816,-1.9608091395928111,3.305040127187506,4.564330141162748,4.836955338453442,-0.0589007416283209,5.5527478739277045,0.3744884002042354
-7.87898541708656,-5.829215195184454,0.5651851935145276,-1.730328413972389,1.849347141590865,-3.409593558428345,2.7616080514967827,-3.798054864223437,1.3410800021470763,2.3613243121891894,1.9253502088591932,1.094036669114793,-0.9776820900689348,1.1276874633960112
-8.865612324121743,-4.554360871443562,-2.5289684853118377,-3.9096994962856337,-3.783649273727872,-8.50258470211669,-0.4702557470616453,-5.765613993505182,-1.027252461804176,0.6661726096110897,-0.42382666480262,0.0560573611703638,-7.116465137828696,-0.5086238230504341
-8.709571243176498,1.1500625830376594,-5.530004849631313,-6.142443044712461,-8.13108760495047,-10.833750086711753,-4.429879464465803,-5.9963546405097325,-1.1062229660575682,1.866196444362616,0.6426462912953138,-2.988462977877268,-5.386897482027724,-2.8865688017608573
-6.7217096299018415,7.124682556454221,-6.535573239579108,-6.749798404923336,-8.17331026486237,-8.926538454293945,-7.026284537910824,-7.209764062864632,-1.6142113994167344,1.6666295969075433,1.0049053166474051,-6.496807647801422,-3.156517650603886,-4.321575946542563
-2.9220182815358404,14.55094383299937,-4.744567764070226,-4.754728700282743,-4.040842085407578,-4.549867531756851,-7.376607960667629,-8.606785946654897,-2.8808836378292058,1.955389449204568,1.0811469311551425,-8.253548945163514,0.2430105937872464,-3.85174537736639
2.084815850258361,19.40486754241198,-0.924393763751338,-0.4710098217451679,1.483663374148534,-1.4052739186095926,-6.541068138382951,-7.573915241855742,-2.009340029096679,2.5916067111853867,1.969766471666292,-6.796522462467882,3.376224723328548,-1.2693570998918655
7.339745340690477,18.87061870196957,3.1753608570048537,4.59300134376595,5.295949149023484,-2.041600074829613,-6.58978114525194,-5.647150103153187,-0.7693508727252214,1.0530000073933554,1.534556936101828,-2.567203683838165,1.0953186385025786,3.0041765482003786
11.796666901345196,18.188209630308684,6.0019180048086085,8.596105392572827,6.079785423404708,-5.691686777421289,-8.52052052420365,-2.7749954218990087,0.668797980514708,0.2485674793406612,1.5131218148762855,2.272577069927213,-1.4250842748007893,7.844871765333588
14.680817189890428,14.80059247749922,7.086584091033727,10.506112934521177,4.733212242222091,-8.927077675295179,-10.789647997338212,2.5163696884735094,4.512972393303159,-0.4276303503842357,2.548804491249357,5.379976593638265,-2.5352754641032944,11.54551070917329
15.822460039379552,12.46523397185437,7.024629250000407,10.65756574534117,3.205990796629969,-8.503533277627104,-10.109726613554166,5.107391936950324,5.85403337022408,-2.078278405873069,2.0474933577875896,5.891826570616498,-2.5747201202124845,12.59002985413662
15.67708395995955,12.909829320652925,6.689932605097768,10.216825801827037,2.9228402583197117,-3.896389802535301,-4.310723901403941,5.512733463340736,4.879740946922747,-2.4693801919540164,1.1016592565613637,4.793255033897546,-0.1967375524435927,10.71755009800094
14.932718141663692,10.44257917850983,6.443113155537407,10.018092092435843,3.941150250554866,2.530584619769336,5.1088175011140535,7.326481046882067,5.26749095370899,-2.826795614804396,0.5994133575229521,3.765912888075896,1.498423538756487,7.261123541825654
14.017534011425436,8.77746824935832,6.015907078665524,9.870081997494507,5.2334913814908575,7.589126037935031,13.325205531127242,6.602729047490344,3.082240197981591,-4.035376214479486,-1.407272511129931,3.6820485678252233,1.7293410912760374,4.261352082043828
12.951289932466953,7.674617824153546,5.055358865788115,9.001599974282641,5.660537714097956,9.586610413754308,15.581700282944428,6.10815858006404,1.4843572164727796,-4.093114152449917,-2.4004235377184577,4.100309234401038,1.4292433489016207,3.024057839112224
11.613030205544874,5.975831603466686,3.671675538818441,7.107202058591575,4.834887578309871,9.034300493126295,10.843736034718464,6.38286001775409,1.6676087069259478,-4.072698427286724,-2.159726760948941,4.024799873239228,0.5974670179858893,3.369389189606327
10.077318348806736,6.27229496705018,2.4119806272322784,4.827958081307525,3.2727507033751024,7.557237209035787,2.4729480131337347,3.5720499818341223,-0.718828546148581,-4.611964681035505,-3.0795261889565757,2.9975686048986674,0.8788761989172115,4.142795868110603
8.643566833979207,6.334001395245674,1.7487142797290431,3.160445990889098,1.849603492017451,6.352502926813347,-4.607639420712935,1.203529551975158,-2.238939281489134,-3.864060540203681,-2.842323479656175,1.48562855736391,1.589338189530484,4.352740301962527
7.573331197434712,5.318015598653496,1.679225827011365,2.510215447163972,1.1017771636586104,5.567476494771924,-7.596467879223034,0.1731020488722156,-2.5312923690884928,-2.987983766034149,-2.134779622242247,0.3606071177281222,1.490419799985633,3.8451693525636585
6.861113547567975,3.5664473796432183,1.836636930105314,2.4383188835761587,0.9418660188569774,4.804328767007682,-7.166064687521207,-0.5104357572145852,-3.0254226517712635,-2.248771651740733,-2.0310605598622304,0.0985357050829591,0.7429312554583538,3.0755850144235666
6.269649687671176,0.796014141067492,1.8990683519796363,2.2864265288020604,0.9242587244116152,3.864337120774451,-5.822601690824584,0.143931370620877,-1.8992779325200928,-0.3589472241266001,-0.6098118736969189,0.4244213014088842,-0.4364654524249038,2.4477133411697167
5.559155400588168,-1.830887080717668,1.8134056379784769,1.8574214692556053,0.7107723495264295,2.915173294947913,-5.359140762403683,1.089865370394868,-0.3553111517040755,1.5467078988149516,1.033431312694555,0.6334018457053858,-1.4974065898140845,1.9607446153130252
4.676778468668587,-3.875952300620239,1.6787106600777122,1.4045276511759752,0.3020736255066936,2.122779044986516,-5.785164989172458,0.9601471965149108,0.0262058843306218,2.910780265224315,1.8479375867348344,0.2668584751797382,-1.9757415276291908,1.3989856388407134
3.768693887534056,-5.581635935150897,1.56550369695357,1.1228747091307485,-0.0861709040373739,1.3877568055823415,-6.1463916429360665,0.3274538426250858,-0.103428404370345,4.15105882844743,2.6895054292508447,-0.4439529188512594,-1.9184836088206327,0.6958936459252101
3.034784132305923,-6.467965013768164,1.5159022918629503,0.9061222625404356,-0.2914669587045821,0.524868300528162,-5.843270366368358,-0.2928070081625794,-0.5699226271156063,4.9484470461191785,3.313547897771648,-0.7989962984484151,-2.091644269746977,0.0116520624805218
2.5291304620466093,-7.331660575033642,1.5965415711432058,0.610034280498752,-0.3601026459034955,-0.4322462137001679,-5.107494173071444,-1.1097448955971585,-1.3184435359838265,5.571987173756193,3.560626527868271,-0.4135103222308274,-2.5943301986535063,-0.521889953783294
2.057721741388228,-7.365251959981279,1.7834682122748973,0.3194128383940153,-0.4792612486118059,-1.282583909734349,-4.563603517624358,-1.287941724476846,-1.0963709176042906,6.101938848183843,4.141287783031063,0.1796220609791987,-2.285845333608133,-0.991858324758816
1.3117405062362837,-4.076895023185591,1.7941525478621685,0.1367871173152579,-0.7704290528044879,-2.000697239374631,-4.63188459698857,-1.1688250884133935,-0.7183981047110162,5.657160904845432,4.485362259743593,-0.1058117989746634,-1.0259365461369978,-1.505356958106738
0.2160981345551249,0.4231495192126404,1.2386956124672397,-0.1665029858295028,-1.1284153659379823,-2.810652241590475,-5.239495867403434,-1.0427213634135932,-0.30622619341355,5.184860793525894,4.473661679095152,-1.6758305597007208,0.3566702233447684,-1.748905872043899
-0.7949148623492377,5.856118179901293,0.1154809326708488,-0.9774662118715084,-1.290910193397444,-3.7133044888012208,-5.802479615223987,-0.3870485781724587,0.8547191177313966,4.324926702638592,4.5602651734795,-3.364489297470513,2.4295728533496246,-0.8774702073071978
-0.935729347455812,9.637236232589943,-0.8871659749802561,-2.1531722059379064,-1.1383531996868117,-4.019262720949349,-5.420273231631924,-0.0374572140836385,0.3885757164315588,2.875444951960767,4.359524005244627,-3.082484603454759,3.507492545057312,1.8964338258591624
0.3200019774931206,7.770785216407558,-0.819480425050358,-2.697817186777833,-0.9355400924061784,-2.6819020238467743,-3.3628338294911373,0.99782839063344,-0.0411407499932596,3.705278915460012,4.568576364434782,0.2727729783766008,2.7632987297394664,6.398753912922295
2.65583113725922,4.380267187171357,0.6047575452757172,-1.515202102954909,-1.1804507322791622,0.5815857235525428,0.2968928588480182,2.8086813268042725,0.371483147967482,4.650614748447721,5.007532539834183,5.446912767762797,2.871493997788185,11.143873744680375
4.942204004756874,0.0675932834965798,2.514660712612198,1.3379360851157005,-2.06893204918584,4.465551597924197,4.472734871140844,4.127987516023018,-1.1925008406532955,4.537017203288457,4.9347553916557,9.566006364064286,2.775856444785525,14.077763216570837
5.956248721551063,-3.3267693662130453,3.462104209328956,4.289373247576634,-3.0871274099251806,6.635083762200388,7.676135699725279,5.228793069765634,-1.5474833959724683,5.182646974101473,4.793435273281244,10.489405105410007,1.9269822415898312,13.937168614992132
5.214091218816876,-3.67437551316868,2.622771586873597,5.375617962393889,-3.2733671876409147,5.484638266490229,9.065934313088974,4.840282687938214,-1.5673866870628026,2.7429783473298697,3.8383991725873945,8.545251487510427,1.1617210082288407,11.105246200042023
3.2329048143849377,-4.703145797928735,0.4862476583317772,3.883177490986249,-2.04945602477045,1.5553607099362168,8.976900082593353,3.1821696424596304,-3.728504823819503,-1.694523838973922,2.1784284104749982,5.981083583593055,-1.061754640556543,7.255050805197712
1.06632094034628,-5.760101635349373,-1.6049756880289363,0.9274816709467544,0.1665953755014868,-2.796728776640407,8.424401241207384,1.7276662386991133,-4.151339960858611,-4.602734150330352,0.7024209660447134,4.793858422944972,-4.19012854443145,4.136343080157168
-0.432504777843576,-6.416451663461645,-2.58330411779729,-1.5723231049233135,2.222078454275284,-5.247387795111614,8.137844589820212,0.7422877284516068,-3.750540422467002,-6.909103080184255,-0.4001221576650012,5.168717589307633,-5.21856391966907,2.5522844418540984
-1.0326387263086048,-6.650585007020692,-2.366698432947558,-2.4446251662595486,3.1762704106545314,-5.167825754196919,8.10371722331503,0.7573922679503813,-3.202762486073645,-6.449386446185154,-0.4514111498113818,5.898704489388855,-3.781695420906476,2.2259300569432696
-1.040543027292891,-5.317615306652585,-1.6197606157767197,-1.919436741396165,3.0098257972348605,-3.64866072930672,7.95196935931515,1.2423590006622431,-0.4703189302071917,-3.5358282913274093,0.1105319902913909,5.969199980544126,-1.7670989574848135,2.385028743516809
-0.9300762349442876,-3.606370837684557,-1.0024444299455908,-1.0199468379485204,2.4190144516650136,-2.134729359115706,7.556916966754994,1.5940145780026125,2.402154388127493,-0.930729850098127,0.7116560121905198,5.467854556836656,0.9220533911152752,2.398796323813631
-0.9950774726078144,-2.22759115431113,-0.6744858967730423,-0.5156607118968246,2.0398545640168138,-1.176589536973946,7.147207264537634,1.7328492467206231,4.089969940136371,0.8654802238124487,1.1110492786904744,5.090064856251114,2.2016182368591592,2.071853640560473
-1.2001031213155215,-1.3136494441016422,-0.3884690702295259,-0.4345356988755604,1.9630951026181835,-0.3946457541077706,6.929064061586328,1.691125933958262,5.644029058080451,1.7827627782511897,0.9888808065791144,5.157407423548374,1.0725813723142397,1.613763365810943
-1.2835805575929091,-0.5574117148061714,0.1133148009516311,-0.3483755860236002,1.9272762153008216,0.6773387788316363,6.815920223932402,1.8281600926873836,6.904883992890724,2.493116814249027,0.7182518802303244,5.378929893889897,0.4292925229108812,1.423043185036715
-1.0449162521166926,0.5648763897162161,0.8498978424354711,0.0837004223875368,1.7881432248167357,2.0198484731358626,6.616290888297522,2.0872082131505936,7.809827074983641,3.470018994205943,0.6245590160315531,5.421161636917713,0.2996545540130819,1.7349093288470492
-0.6372953886908821,1.2410267078302168,1.6208231961366266,0.8231159189354127,1.6243494654393835,3.3035379433117544,6.347777190315634,1.841224395763424,8.03627608437832,4.50970313005436,0.395086238469721,5.346117909799647,0.4836108770642219,2.24658540078744
-0.6069760695545305,1.156609582238117,2.1385055309746037,1.522319436646761,1.44225726959351,4.27032468718631,6.1800199333071735,1.0546132708412288,6.288199554868253,4.991940178071509,-0.5699669556989637,5.308477825234613,1.222618265935178,2.0563798695349917
-1.55115348027355,0.8098083453503595,2.157225105977848,1.812903291741673,1.0009150067937291,4.670426170031779,6.052408122177004,0.0495165503068779,3.459079824493909,4.973039584698939,-1.7825485342910965,5.02250073838595,1.2180379322763926,0.2041150889320686
-3.6112215114336,-0.2843237326678368,1.601940122763699,1.5944400527701337,0.091472319257857,4.001662126034241,5.517757540304979,-1.49144941053423,-0.4129826172443214,4.635985569737203,-3.161939620815672,3.8262630610689015,0.5984328468959113,-3.475925632371709
-6.251831712683231,-0.8275995286913745,0.6646898617613748,1.0857226683582284,-1.085633916825192,1.7596010799004709,4.131855984669978,-2.0320044673254185,-2.757744473990088,3.919031639029127,-3.924214684588629,1.377169928577886,0.1936185904697057,-7.969602469593858
-8.567368104876032,-0.390145494708586,-0.2408925014975613,0.5431360930833549,-2.0049152335547578,-1.7564324774060929,2.0069622618356817,-1.231480814661296,-1.3158864909418635,3.182332736357195,-2.831030378071304,-1.839648013207668,-0.1033545232580711,-11.661601206700038
-9.877931999759356,-0.1526044590784678,-0.6994856023685005,-0.0986396030979168,-2.34348167201622,-5.036834015323953,-0.0784051850224589,-0.5054290299710908,0.377837523048727,2.2428919439450823,-0.989621181063954,-4.821015810949774,-0.1066669322585482,-13.480046574589236
-10.111915697312668,0.4779855811769807,-0.5302368005184883,-1.1748321927983785,-2.325112868814892,-6.215548550252054,-1.2004712156177546,1.150231268287203,3.0681901578779174,0.6545093960869873,1.2135643505123974,-6.83750874071602,-0.7366565200895632,-13.566848343833472
-9.687781348534331,0.3148761906182832,0.1648885150908192,-2.697933482834892,-2.415599545637134,-4.665575481320023,-0.9570997008219138,2.027313790279915,4.931868636989004,-0.59992713515294,2.0110178578409967,-7.849128861011167,-1.9101717763417156,-12.872847289259813
-9.082120270656231,-0.4129516008097126,1.1386497779383653,-3.851312419085792,-2.6913798696967,-1.7582039087839565,0.3085105882439825,1.340793497009511,3.1116436401320144,-1.0325127777096426,0.7283867780908851,-8.174559676559223,-2.0185947932799286,-12.157692698500108
-8.508829782892208,-1.1317219237850165,2.118873079718533,-3.4209272376394786,-2.6725812910283544,0.1630383889571511,1.762103142525195,1.1267489581260155,1.6646730127314435,-1.7807957561720396,-1.1200753557277576,-7.95149941943048,-0.9791869312670048,-11.444776714931034
-7.9393234464686895,-2.770866253484827,2.783914844340476,-1.102496166485082,-1.903654957671032,-0.2465478953265698,2.480714844796488,0.1980861361288537,0.0414102009037641,-2.252619929968789,-4.082533855817981,-7.091676207982905,1.6979702958153902,-10.439240412142857
-7.332105590507528,-3.772500545742053,2.730813718694648,1.5899211742240809,-0.6536356972740052,-2.2700186414248678,1.735421499819127,-0.8589714416910463,-2.037399183855741,-2.80155827628089,-5.395417227905223,-5.750657380360019,4.112822305303013,-9.31902425970839
-6.775844610526132,-6.110889859331374,1.6466085377970678,2.0919922611648936,0.1364546312302046,-3.912408129014441,-0.7100676537638844,-1.6366258381628316,-2.440552755398776,-4.8741427446198005,-5.702557783525637,-4.608512967833093,3.819274548242312,-8.866266934690842
-6.417250771497916,-9.738190790317567,-0.3905149267771115,-1.0778555504960785,-0.258589774306504,-3.643819440685739,-4.248207351936513,-3.3514303155736744,-3.1712430164085728,-7.098592636423289,-6.9403946825621405,-4.456182915187945,1.151226581793161,-9.63187544392607
-6.281269256189663,-12.240736051712648,-2.803643735751127,-6.711598755939798,-1.5101779950746277,-1.449296056623762,-7.401254910993572,-5.072060568120534,-4.589885790869673,-9.168746994767556,-6.564936165197936,-5.41920909773631,-2.493242938972355,-10.97704684596116
-6.188702421485472,-12.76318500043837,-4.804742755147473,-11.49024141075578,-2.376906758948113,1.5093438965574215,-8.554384044847883,-6.115261048182698,-5.333416151418034,-10.402996576694049,-7.248752393717823,-6.67806922885492,-4.267055747352155,-11.173887212184182
-5.874544398567068,-7.6952605621248,-5.861613946909156,-12.407911913712208,-1.781076604492391,3.896373778432413,-7.181587654172354,-5.997880879978043,-5.6543620225077245,-9.41839794898524,-7.638807561373011,-7.100949718193917,-3.192475359137376,-8.80002880154878
-5.224058663629775,0.6025901021453692,-5.921308943482778,-8.968153656002494,0.1867342328064865,4.831244931592391,-4.499071288516774,-5.068537508711885,-6.133246929129565,-7.530735292708662,-5.6456912428879455,-6.245573695495455,-1.21294061465841,-4.277401300672118
-4.423558614399815,10.013110451119994,-5.249211355122561,-3.3711756868117355,2.2850680069044635,3.947279265546484,-2.6799239233167675,-3.901639404056534,-6.031714925698958,-4.902236789986042,-5.271636442399047,-4.759966911439378,-0.3347220101531224,0.0090148223554926
-3.858438178556252,15.16342654585238,-4.168040254522275,1.2065298824060058,3.119658919422605,1.4060383598116957,-3.0765573401603703,-2.9922184162246674,-5.331540627787135,-3.0579755941454665,-3.9500279306959567,-3.7878471575618775,-0.6780695834440527,1.436840055273155
-3.783839490551841,11.08397074147194,-3.0082957109681026,2.644264951541871,2.2012908986314343,-1.915678338867604,-5.045059835796934,-3.007764498416161,-5.506974252230564,-2.632059246205604,-1.8401930982433083,-3.9492042899418287,-1.3635441717283352,-0.6047425038477101
-4.0309705721181,5.182392221521187,-2.2119195872288486,0.8049999312632004,0.1832237803101364,-4.509820736695723,-6.571783133755286,-3.1269107414284028,-5.325181129952254,-1.566723048616495,-1.6518409642182124,-4.850373433464824,-0.7617923212185559,-3.9628153578160585
-4.037124577612815,-3.274683528034478,-2.250592270885786,-2.8402549731028195,-1.7752745599537754,-5.018955807855363,-6.173214999040685,-2.9592590803180685,-4.201064329166266,-0.9648831264750856,0.5739813226554229,-5.503194361207516,1.9992498782550396,-5.297932469600674
-3.2363593298393845,-9.160411554908688,-3.2677102752344567,-6.23648648249992,-2.8574021279533106,-3.26500955827088,-4.237906007075328,-2.7513509475633606,-3.7369688771127625,-0.4481823840957406,2.5115373233275218,-5.181936614740611,3.845081513583688,-2.7300596709042253
-1.5127110091243523,-6.519606634065717,-4.805763690994812,-7.770706912989619,-2.9782863874427328,-0.5073751021462094,-2.533921038243278,-2.338603876900552,-2.0262197167023928,0.7218312353474434,2.2120204321816948,-3.947787013381173,3.506446353550817,2.712481962999842
0.6835962179894643,-5.084189313438963,-6.012410936511735,-6.959288416278632,-2.5710556931246167,1.5052644342794572,-2.448274206853309,-1.8618272711438684,0.9501288357493854,0.9760643309156412,3.273637024866584,-2.462217836225925,2.821218360010547,8.054256295727615
2.647733794269122,-2.930286420762891,-6.241847732761098,-4.572864984325431,-2.108843382358774,1.8826015882757936,-3.759056241856008,-1.5423451915109596,3.0068350459609103,1.0571816276960695,3.245087555568734,-1.388874394577659,1.332644525642385,10.777976523953352
3.879103572175037,-0.4165128085987235,-5.494702345806246,-2.059599733858565,-1.7827351814693309,1.0989577884566657,-5.047524739515591,-1.264872014386573,4.607814802789176,1.533384282348026,2.2612917506755945,-0.9307667170392762,0.2028196753249762,10.512966440447578
4.308448602061933,-2.947517702899584,-4.299750910067292,-0.5682908826732955,-1.516535488142047,0.2634838291419328,-5.133483806478711,-0.8745226183678643,4.765808276307833,1.4536778108551702,2.615345603710481,-0.8313991583064961,0.2929336505148362,8.719632506792621
4.203406982486044,-4.040710571215891,-3.1958964288996725,-0.2755303606720289,-1.1934438138951435,0.0210099694277658,-4.0021923868564535,-0.4803435889412322,3.3160714600081884,1.105502859088017,1.937462927860792,-0.7169692716950138,-0.5762488788073884,7.029567590313121
3.930055020078864,-4.079103306372174,-2.3534044915805694,-0.5427426911123483,-0.840181330066347,0.1757522421227371,-2.4705480666656534,-0.1460455582526383,1.8343926825394228,0.8606220484697897,0.637969070443799,-0.4398039790331296,-2.0316548862085964,5.968532208998212
3.767852750720877,-6.842176095532119,-1.6290113697944475,-0.6627196446504939,-0.5957985998888127,0.2185598988877615,-1.2265036623897814,0.2251350336292644,1.032781940893284,0.6689611762192771,0.2744873463385636,-0.1426658949945007,-2.7728032334601664,5.0635310846610295
3.8081232367376288,-8.659232010040316,-0.8526651410934143,-0.4330771056025924,-0.5115818474844467,-0.0135430153701605,-0.3238569914056306,0.6090972104773932,0.8077001348620416,0.6306444296783209,-0.0774187638019448,-0.0281264733116266,-3.1293585923564504,3.809270970656083
3.923848245334028,-10.422736734416851,0.0099017468605886,-0.0923686156496899,-0.4409179432985262,-0.2779954842307965,0.5461543471102814,0.9466080122140552,0.4594268228242691,0.6699201805997462,-0.4252765282679866,-0.0879150270278543,-3.077887535626764,2.284512842057474
3.8654753391780936,-14.910121237476451,0.9055870822790908,0.1046872090384525,-0.1902853220851561,-0.3751884872962172,1.575633372359503,1.2890871404916129,0.116852233041769,0.8392624629511942,-0.2628783598578751,-0.0865853387661026,-2.2693144998597004,0.8894640785250658
3.5154902043030543,-13.309515418243214,1.780275379749252,0.127796770048965,0.2205346265287122,-0.4343742859604393,2.726738725667756,1.5830774339809834,-0.4017481761362106,0.2106925591273451,-1.1093778191815336,0.1570870466503997,-0.6571018990464338,-0.2518155817791978
3.0927211497395675,-4.841119030803273,2.577621554098121,0.0886301913851284,0.5087446938758013,-0.6633123991363146,3.887129784868908,1.72463127395433,-1.2796999198622865,-1.3171269832848638,-3.0921308840695336,0.482001690450101,1.4355100788656894,-1.424292439043546
3.021711185740632,2.8727287991335158,3.2385186894473605,0.1349046736680463,0.4275084593145664,-0.9171476624298868,4.877889913353938,1.668622637674004,-1.7528625896116936,-2.645593735386832,-5.043815397141297,0.4705916827278429,2.033609189271968,-2.8692430393847133
3.47877835759822,16.806556931391114,3.7777684858122704,0.4978219707957301,0.1060310009016252,-0.6943333645678909,5.267588026336302,1.5705710280563825,-2.154492687560916,-4.745045601313296,-7.796349216227272,-0.0815339169225772,1.5422106231179664,-4.338769907490557
4.057436076467898,25.68761650277644,4.308788234894081,1.4555911612644454,-0.0221137111352653,0.3246998838184698,4.394719299614396,0.9136417144903772,-3.307342343074269,-6.412686169431247,-8.654886708180598,-0.7900532836646228,0.2107438608276416,-5.207409876233547
3.992650322239312,20.39760367993733,4.852634020527447,2.9766176088042187,0.276218700558724,1.7318829026814129,1.8354814890232396,-0.8456351346184856,-4.303492738453772,-6.0388112958949085,-6.629338676168151,-0.9085642354792663,-1.2042065833968607,-5.040982381868469
2.82022738329728,17.38772252367486,5.0622368996630565,4.334109068786226,0.6449921694909886,2.470835667464714,-2.040056080494584,-2.8165776110510112,-5.099313117350384,-5.758616438761804,-4.595542629450708,-0.0735651803941648,1.0779469807655393,-4.029971977859384
0.8469484987876292,10.092922522002446,4.272738902190064,4.331460790702203,0.4104250356428096,1.6309383603691918,-6.011805936722561,-5.348371684489638,-6.662898707953369,-5.176064603633993,-0.6219887608840958,1.1776560811482062,4.441977434309543,-2.8250994756723973
-1.0276460642970893,1.740109668777002,2.0823135753971203,2.3114544364568994,-0.6487236657251803,-0.6417319912878297,-8.590877271120366,-5.891190538662731,-6.303602222385919,-3.177981338339907,2.935992913869421,1.7947793132763143,5.652558133554063,-1.9183308660997564
-1.8920677963558896,5.575977323132799,-0.9226928652299388,-0.8063861462767417,-1.832392592483168,-2.902516380088569,-8.76742363007281,-2.217432244369561,-3.759996444462832,-1.2742701103570555,4.013511283009206,1.3304464610680429,3.884512596501553,-1.129628680452603
