AF3,F7,F3,FC5,T7,P7,O1,O2,P8,T8,FC6,F4,F8,AF4
2.7563180827231624,5.827417664848374,2.8622663735537923,-1.5305058560167772,10.290660870560364,3.324582478439088,-5.908206764903886,1.860238154646908,-3.420331188006034,4.941528553387201,-5.5338836483269445,6.197304950415789,1.240102905737825,-0.2258750660253788
3.143503644687168,1.7800907206121537,4.100336972071863,3.253396716933956,6.667806693936817,3.967375193325809,-5.369715292612082,2.062116083954668,0.5392205855176178,8.547040186965704,-0.3755779267175868,7.65248733463229,3.2045180210148523,0.8925298556202415
4.446788198674017,-4.508415193300174,4.870240885753824,8.539573374882815,1.2166852461598725,5.329067249741585,-4.50694902291426,1.390665328708261,3.4686155625237425,9.011315832989558,6.601061788827387,10.753019556137712,5.111800825778686,0.4766791611951809
5.098996102925704,-5.903943393626635,4.540465765719743,9.652152090759463,-1.317779722030942,5.435013191717212,-3.894821541777124,0.547292484890608,3.804994542034967,7.13001996098046,11.446497599484486,10.16764319571229,4.949775835987492,0.6482408076936134
5.222928731980745,-0.9307590005577868,2.38183249483647,9.630305579262124,0.175462453359091,4.315054664898802,-3.757418164604832,-1.009990403588988,1.4146936533461285,0.8325974890850221,7.400339885622501,5.620313986490402,1.9058164824023696,0.3962907241576577
5.333656971385917,3.955801511474866,1.3558388936999255,7.601410544814175,-0.5156013518397092,3.2404368389479314,-3.907681257827795,-3.047823157572194,-0.4507016184635194,-3.131919582998209,-0.1720459074595299,-1.6011113330195337,0.2071030541251331,-0.3305113121161344
5.139080776104942,10.83011018246312,1.206647940680794,5.151477176159376,-2.161057495711475,1.812379979117958,-4.139268379643008,-5.632859710947513,-0.6472157835202855,-4.976336274723833,-8.004395991196716,-12.971112419834682,-0.6957849347474886,0.4579438361199522
6.212271752941604,14.413482779846522,1.31398982846064,5.995576411042325,-3.2624525357578,1.062532927797356,-4.542031988041988,-6.442230541223983,0.0547158267769865,-7.142578651938239,-11.333840032061635,-16.68865808301363,-1.379917464298848,1.193777392977187
8.698801739086559,13.601301486956991,2.265962060796069,7.872508379678029,-4.6569119306790085,1.227903892246262,-5.293876877127415,-5.2342731993408345,2.237931763872413,-8.203920772850712,-5.838413752955651,-12.031146052242397,-1.0687074041643871,0.1772714087831811
10.088716358745916,13.425341701832853,1.969445626513416,10.524997216534342,-3.1124074355654083,1.3197414979371649,-6.137551847464946,-2.52229765630704,1.3441344050821311,-8.658732544102733,0.9844731623616754,-7.708386138300142,-4.16198585995077,-1.502698587622854
10.63486701864822,12.387039145023715,0.3585038295321029,13.466416122962602,1.703543299914755,1.64272217919063,-6.2319294247832655,2.427734106049829,-2.044382462008067,-8.439927310930546,5.451504282853114,-0.9596266144500673,-10.856998126623914,-5.278655651673801
10.08252821195132,13.165820093841791,-0.0898557075911933,13.99692838150219,4.896207278097045,2.4203622161290683,-4.759001314042605,3.62179321184026,-3.1937438688242903,-6.90186921498694,5.827847721426204,0.6119659821107241,-14.078958411988904,-7.460240023055121
7.851753329051512,16.544586409590387,0.2811630716026662,11.816309680903773,7.020225029480534,3.582760336441458,-1.8169934817433775,0.7285636452125783,-3.5379934265097512,-4.014120830262088,2.2835857256861805,-4.613578352800638,-14.41160944107187,-4.289222228681419
6.882308426184529,18.3307645044897,1.5489824565600296,8.443431943315995,7.648535466475778,4.781187895380093,1.3395802970715636,-2.434508064776992,-0.81007555417353,-4.240060369292428,-0.604403725903288,-6.156741239614759,-12.680870415007666,0.1492196363553508
7.086146027479808,19.222597113466747,4.2181818449879,4.3486734118514185,5.6946795347781975,6.016646821768027,3.14187830147035,-7.312417444021463,3.5769576085140637,-7.837411655488119,-0.8285651126850053,-5.870256057783917,-7.327612343125099,6.83452631076546
4.759939688393872,18.28625222381869,2.7246148786619617,0.8190301099253714,3.902964394809563,6.413743801701363,2.994895057238299,-8.306716255398484,4.860692081032283,-9.50947576479354,0.794766325198331,-6.363872063600818,-6.440096222244897,10.782037311400089
0.2709030564807833,14.68284954241092,-3.2107182590697496,-0.4412871971869793,1.841844569888074,5.781828778544807,1.832117225869681,-4.608824536121203,5.136535996970331,-10.109672328572886,1.188847975946289,-6.095436131227101,-10.220353110514608,7.122976921510067
-5.898528676039599,12.188899504115067,-9.837215433571036,-1.6179972114145884,-0.1804970159632918,5.7140652445880775,1.3514603635601996,-1.894044832654989,4.634578861392677,-7.788550601850208,-0.6081929068031471,-8.732494244881712,-12.786387308091893,3.197693259185076
-14.53296886068356,10.484642336815131,-18.4667867706264,-4.027591027908454,-1.6580161934888769,6.019998031854613,2.562253769726116,1.219828248284383,4.79154312267345,-1.3673614421064153,-3.979906072834112,-14.59088660413536,-15.846922665687542,-1.9335914432905128
-18.665733803399476,7.442599606334289,-21.87537438276571,-5.7238980452468144,-3.0672626226209734,6.179496604853809,4.943267289487698,3.4143422590341106,6.487729153929688,-0.5677055640940623,-5.54422346884316,-16.710303451731033,-15.302132876273337,-5.344430791620609
-17.87489474814731,3.6830290014509295,-19.02752793850569,-7.590198872838609,-4.102007855618476,6.468887826505716,6.972169379408079,3.786040439063964,6.932216780416524,-5.238013282960428,-3.2855973792006177,-15.513114789299047,-10.062567076789216,-2.1618091026572253
-17.750576046707067,-1.6076049462837203,-17.06355668778806,-9.849332924678247,-4.682829183648837,5.942612001605319,7.535111903013349,5.9308353333804495,7.343438696224345,-9.500491475186545,1.0922867250754569,-13.348231796328433,-6.0992807258487325,-0.2034293593802782
-16.707834892501058,-8.771254814931254,-14.160170718059964,-9.944900676819309,-4.737405625361043,4.506159556374569,6.937131311997389,9.397033633164911,6.363114082182257,-15.338660260842593,6.435888788596537,-8.758845981087733,-2.333168597451852,1.5987307999800249
-15.704242313635966,-10.298865049334864,-11.791028955365483,-8.358598653905217,-3.849693092368457,4.09208625865138,6.626219427300807,10.157270363844267,3.350342482478535,-16.168168381006414,7.127956223215926,-6.948572414557369,-1.980593956629279,2.8549596173249294
-15.4843546326511,-5.812400560133084,-11.024841991125918,-5.7868647097636,-1.89923720043251,4.592669963072015,7.914922234618006,8.507328271027955,1.2951634817568154,-10.78546864544248,2.384675359170952,-8.301012682088828,-6.383344600296361,-0.9882039305489472
-13.548850754643697,-3.372773881088116,-8.569025766576026,-2.199023880104624,-1.4181573356109294,5.089768079115943,10.834833780230213,6.116237387816334,-1.7241255409161746,-8.12367860850387,-2.0279927283760477,-9.72115409599221,-11.530938974443629,-5.003889830921665
-10.26103347087115,-1.5017726677159933,-5.02402737992709,0.6170609166755214,-2.478264108366508,5.965626780208396,14.052088433898904,2.173086090588836,-5.4110821366512605,-6.658656045959423,-7.618499114404298,-12.503028875233058,-18.629146295755067,-10.022038594970024
-7.578416270269495,-0.307305227260667,-2.7975503991189075,0.4505018817327312,-3.761835241285602,4.282261124726507,15.790683658578546,-0.6907697038275972,-6.997115309646728,-5.396088756242855,-9.527201188362987,-12.018064661431888,-18.729814232627312,-12.291537932252073
-5.242294140223351,-1.2029996609100717,-1.6046938634455092,-0.5331150169955188,-5.879506320822999,-0.3074428392762112,14.91724533602568,-2.184808343309322,-8.445863578181973,-5.8168415451654125,-4.757215821427099,-7.676630829304119,-10.535424177056806,-7.041254570105938
-0.38172989614425,4.910759047270597,1.5652511748543445,-0.3531023325006658,-5.3192869148999975,-4.498913851542192,11.405754087220105,-4.959356623585557,-9.865134869179228,-3.5414847027872995,-1.4388686235942036,-1.9344780655174296,0.9172913388574148,0.1207167350043399
6.880078915549409,18.202073294583204,6.48112152613223,0.6191358941412226,-1.7013201917671634,-8.95719115267379,6.1022172462771405,-8.420109690848115,-10.235827682390974,1.3854263109851783,3.922880000852983,6.531784046810945,18.30650959113662,10.041749431943249
10.299413498428429,21.398741498128505,8.28120288275098,2.265040447408715,-0.2479264620193147,-10.859110514146677,0.2563868497197497,-10.154309461404733,-11.050073751124408,2.903837322451136,8.494429973344541,9.929159535437662,26.01609402073006,15.076437879730394
9.981209248761518,15.308342030684852,7.191549953556164,0.8063181192558118,-0.3221511508373568,-9.38163026179037,-4.805107974949266,-10.305332142464133,-11.813027800787332,1.525907709439255,6.44273612290787,7.547983754729449,22.611801958093302,10.091641736040296
7.806022533151964,5.709154355152823,3.518380972262624,-2.080307770083301,-3.067227002666109,-9.586804867568013,-7.936100069495301,-11.023073768897506,-12.953342219749684,-0.386865793855864,5.617007964666003,4.587633309028221,18.6112766873005,6.120307386970908
2.268769680383539,-11.184652463365335,-3.953347147978183,-5.068307326334616,-9.686169408718234,-10.764300927073243,-8.581407554338181,-11.905913727196973,-14.837239290885066,-4.002630974225563,4.111149015877638,-0.9483514652089944,10.018312399688782,1.5804086431684743
0.4444364784863067,-18.067940675971613,-6.31703777315623,-7.373133180148844,-11.810195119742705,-11.25450908336946,-7.208964671208434,-12.098685682806847,-15.388261914522062,-5.621225620991493,1.2084861692246274,-1.4101692629710552,5.828316899835787,-1.7589851401682424
2.7356287368466905,-13.65933444854722,-3.252535968314893,-4.988382800702197,-9.555658165990543,-11.864714812689773,-5.267547692822497,-11.894455945509725,-14.308022678333147,-4.841504535402051,1.2365190266041584,4.277943190411016,7.574732850872154,-0.2567202344783414
2.9292731908251204,-14.032373064871614,-1.0111619425094849,-2.7829984177018843,-5.514345832653947,-10.748506951769263,-4.3795946271651935,-9.515620685818886,-11.20085631767084,-5.937162213855147,-0.9934977264621916,8.103601551374837,4.978080151622946,-2.632769342076315
2.532433607575041,-15.42670202578478,2.390726777690257,-2.403824405030962,2.274680055212183,-7.6776666139465055,-5.196628215053668,-4.687803795672595,-6.716452477513671,-8.13427828737586,-6.337462375465067,11.91135546906247,0.1963534812940706,-7.766512065966941
2.676690589712266,-15.459380811179232,4.515438630172271,-2.2932601551713603,5.755649629623179,-6.261245900828665,-6.845682273384867,-0.7055773555659236,-2.887257988904277,-5.755388723904845,-9.14375918436592,14.3343807758984,-0.657563402094746,-9.369415705533706
2.612337616636013,-16.19394436713193,4.503155137911029,-3.412231907307689,4.484799390437919,-6.25935130892664,-7.54687800761724,2.7339844936741007,0.7952829039965158,1.0439638012115868,-8.211428652265422,14.084120683012634,1.4610373687152638,-7.277649203575369
4.884428699723022,-10.845529078122356,6.567778205166324,-4.375825479862202,3.4638002275736697,-5.113209966846406,-6.007518935513387,7.300400554056277,4.445105413493504,11.177342348060936,-4.226669718767736,17.396300967904622,7.628221167030088,-1.858949055825793
9.71434753801875,0.949291652012184,10.059569515879849,-3.4367874115552786,0.7830518394568616,-3.4253151477423223,-2.48951172538474,12.426003664875044,9.409536387479982,26.07367301231317,3.7525452978902023,23.87900119940544,19.225285478099813,7.144535814341655
10.852192903475435,4.203877682930489,11.100577872676746,-2.0212219544941368,-0.5709133587033698,-2.168373559706024,1.31015604433292,14.350224975398836,13.72202302772986,33.307262160553044,9.010285242534986,26.360711963466468,23.907641503622703,11.63991847462899
8.46091588788497,-0.6072650789661175,10.064512685489335,-3.324946885502837,0.0039379480990485,-1.0567557759980624,3.443243993247027,12.844851961220426,14.676311463947266,32.10192202564405,6.38943588772538,25.571049483423025,21.45058803843991,7.436658457077942
4.999789557591239,-6.0166338193320845,8.201029262429186,-4.158069801149258,-0.9779384872300088,-1.392163966720654,3.004213359889384,10.254477820139105,17.051213729139448,30.021007966745128,2.0833032829858267,22.07100899698701,17.328059322449807,1.4442340053016842
-0.9294981814708734,-15.175524382896826,4.733328915759542,-5.2813759809443726,-2.78137176535122,-3.4464683851186764,0.5931059449059912,5.608440186116758,18.45502609794261,23.977740066575933,-2.5486263395096085,14.30313353345735,8.573317271124296,-6.712876111595114
-3.9628359614648514,-19.42072525717092,1.8782307089181105,-7.93826665454445,-4.877762832805345,-4.713341205871052,-2.2451659230067698,3.3266935042704437,17.410706959313462,20.199014757459317,-5.24582916471279,9.983284821888557,3.685567795023902,-11.296613655902094
-3.6476904522324776,-17.53958713285304,-0.2111055822272113,-7.84188417529852,-7.744232207172068,-5.442153904007285,-4.030757097452428,3.9583021041241806,17.774765686367264,19.65288055444693,-2.137477559187268,9.20845256797882,3.374009291784505,-6.389376054634058
-5.0459958853752775,-18.335460283367134,-3.681369139442277,-8.56397757201443,-10.21113453143936,-6.483906708600053,-4.056422175514794,2.1024523295099136,14.089439108524983,17.48030885889639,1.4413148102562752,6.825304991774437,3.3317959659544525,-0.2069918334956207
-6.979116313141172,-19.73576215341177,-8.079562936666127,-10.93903758595938,-12.247979614667004,-7.377310123812102,-2.4559509792314254,-1.2874328034392486,7.869243028277266,15.33938096818061,2.4896206969622527,4.453191097189291,5.769655092964906,6.093864165476168
-8.340734963668279,-19.148999609033822,-8.857847860839861,-11.15532920396243,-11.274047516856353,-6.395828184432921,0.1713419115170174,-0.4309482825150115,6.001072361993285,12.645972321117505,2.1786109831996168,1.6875480191290655,4.532016424569116,8.846726929868368
-9.745009821917137,-17.541994670137004,-5.885355302360365,-10.64543878240243,-6.699898023730535,-3.3490344039436333,3.174993892377941,4.3197173639072295,5.919558637473181,8.966045338644179,0.9040421342842752,-2.031959696712654,-0.9303324234897412,4.315175115096024
-7.961960733565098,-15.202197207459138,-1.641213671048828,-9.635612716381418,-2.112660396798533,0.7677744381194624,6.059553673648932,11.659632295414529,7.62600941291023,4.023977284780886,-1.008024037955774,-3.866317048916126,-7.4648040837342995,-1.4812530322030686
-2.644595898517251,-11.887742376500247,4.991612872206558,-6.184812217339172,3.180516113053544,6.466676667415911,8.495340256338109,22.92023530900348,10.870241457231216,-2.543860607987158,-0.6851157420502405,-3.881962715233983,-16.686525046857238,-6.233798882392834
0.334761570706119,-8.774232175468555,7.891777817898529,-1.904524197021355,5.503533047492659,8.797305581558136,10.255321894153203,25.785536001009472,10.899420236590942,-7.112069315451429,1.036649997049936,-4.16263641647394,-19.26801136123326,-5.864397384621434
1.4480841730439271,-5.969900841266307,6.376325010230235,1.1657223788538975,3.893239751679232,7.271512292414857,11.15070166504038,19.364653308966748,8.410462215138747,-9.612213447599032,0.6052751475479302,-4.189476103797241,-14.31055196079026,-0.1606239628767829
0.9267117842598834,0.3272717803862421,5.48104005138373,4.360281869302055,4.055760279570207,5.735369939060048,10.982848901543314,13.286756015952102,5.083093030992366,-12.02640609616043,-0.92836421791653,-5.343387420177135,-9.965766176881504,3.7820623274861327
-2.568969520922141,10.127996379581552,3.667656263935202,7.165655611353703,5.028977958818689,2.940165409467954,9.553880808381953,4.638601240781369,1.8811573192887885,-13.5185871117587,-5.109419073846414,-8.058620673908656,-4.015888396895102,5.89267619513453
-3.850281796537017,14.051286297322005,1.7834232192397677,7.458327490248831,5.656006156645888,1.374943755711907,6.79621942597435,1.1483748095723323,0.8448095460603495,-13.693265612985131,-8.658756520938487,-9.469331529788764,-3.1634093065759825,4.011844740120302
-3.060516626008228,12.200034317394726,0.4205328049393231,7.683232405470601,6.826644177160091,1.640997960572122,2.9888531557127207,4.61230021950873,1.5977644521330638,-12.586201821036209,-6.541810918987458,-9.892003092969428,-9.080469020750686,-1.4630687633557844
-1.9440799960787976,8.661287505562822,-1.6932867845519606,11.458764642292838,6.965573054948592,0.511315925629616,-1.129501193936783,5.130600509729037,1.9471816212459947,-9.799964365567682,-1.1506271458313175,-8.992598852759631,-11.761449208934792,-1.7814259324341564
0.6327732987802216,1.28133210235597,-4.184153249378178,15.499737838138632,6.0490882139913,-1.362004046854672,-4.565962418949327,4.744288621807649,0.5399680354511144,-5.164553123414185,7.770524745655583,-6.132668169012098,-12.909742602832573,-1.00465341048214
1.3506752693143629,-0.4140269784309789,-5.01649937175764,17.199346184480017,6.63523523756932,-2.403215345669994,-6.591242503941617,2.2286031756933773,-2.492426246844924,-2.790141625171232,13.88038615733711,-5.747578894884212,-12.505383953296038,-0.5966516185641375
0.0182627027285587,4.479493577306784,-4.097494690800946,16.58674811971652,8.572481046891966,-2.9564879944875706,-7.247180507841601,-4.075057148035463,-6.046116386492304,-2.8929113658096157,11.452663419845766,-7.850522946486646,-8.785806186498634,1.3310132094122966
-0.42399000664801,7.044977588339652,-4.024363167943521,10.254928807544015,9.519330572000891,-2.6916343978814625,-7.419174469987878,-8.924921314668868,-6.632560840537987,-2.32854128681843,6.252454974623163,-9.200803706984525,-6.095714843307019,-1.8677897334948448
-0.6622680578542953,9.455496218335677,-4.422842168818455,2.7951130859197035,9.86538957667782,-1.2985948648354342,-8.316359501436002,-12.97734820243164,-4.377212896147323,-2.042728541740624,-0.824063428555216,-10.688171402180323,-3.9498180739282023,-4.102979858213355
1.951046025170908,11.233105679559726,-3.11463739360871,1.8546306260718468,10.279687512355052,0.0247963485044248,-10.654804920351252,-15.989181021561336,-2.200991470323478,-1.1458125808567683,-5.939138457157792,-9.728050213618127,-0.268476947691053,-2.610716422863604
8.113814046021815,11.106287375223935,-0.3869420554267163,5.729710858505385,10.388982401800968,1.408945154409443,-14.095572758996315,-16.914479313333914,-1.410078905257588,0.7871963954265648,-4.1415243372202735,-5.652688241728107,4.30051223588227,-1.7102033940291954
13.226715595500606,12.576238790386574,4.048601731639658,9.870031953747883,11.466925848734103,2.677247433869644,-17.329372656726314,-19.14685588033752,-4.802972567340453,4.44114348088129,-1.1295932748098,-2.857397683441179,9.163416020869407,2.72040732355814
17.926064863398448,15.243940123515864,10.68661984178102,12.433468003085896,13.637486678579837,3.563888102270535,-18.759904121063407,-22.40101583962937,-9.736606038899485,10.335163581643574,0.735657947365308,-0.7291001902771055,14.495812773695809,5.74783708690447
19.440427719427145,16.54191024795846,13.735698109668528,11.402387582742918,13.083112583423194,4.113493953988471,-17.364562820628628,-21.80849729265345,-11.040757033378496,13.489025812698278,0.6099804052727961,1.8593397196404269,17.68565362917934,3.830750724839492
16.588356763465363,16.902720606760507,12.949560479635698,7.208636512150025,9.821950718600156,4.135475032386133,-13.244669220954696,-17.610063166981153,-8.102411654348131,13.897997226738733,-4.462408256470937,4.170395319392373,18.36773393252635,1.2029982206865495
15.147003501730524,18.678084599953014,12.333756193953151,7.470864100326492,6.236408692090629,4.728614490525854,-7.590559523539569,-11.20614891590573,-1.505634407384298,11.06354375464921,-11.985370902232612,7.955523222702904,18.78613889470665,-3.2127204571590755
14.288431042573349,21.617639444465784,10.557020660315963,10.954056028760418,1.5160415271494625,5.897612776881764,-2.101730556286671,-1.498345087908019,5.118012177831081,3.5574041302125545,-18.753965083906294,13.31899618829545,18.238349214942986,-7.449532128299144
12.807518088706006,20.065930992707237,9.02107882813792,11.28003547168488,-0.6512613908021794,5.899383995707659,1.850335112976694,3.603176273288841,6.500592925925496,1.2037842731168973,-19.21295806824816,15.353206992195329,17.375908473002678,-7.699462358012788
11.675524483851303,13.97815242198056,8.22411914298282,9.762544419697166,0.3215373982001429,4.856890763145102,3.9015799639216775,3.5064415547744834,3.058475832060897,4.059145899474397,-12.58217931265949,14.070248167599772,16.478405895921007,-5.414725794118619
8.544810908669687,4.256356106110734,6.302100775296497,5.296264063118357,-0.5752122475035196,3.583082304501927,4.829276427876646,5.431972885198349,-0.6594916748670439,6.696277212342956,-0.8604343808102688,12.733475550119822,16.203677750663953,-0.9034993031778502
3.3512674406907204,-10.631366298969333,3.6795641029681594,-0.8026630695234018,-2.524313533463236,1.7426365596441642,5.990557498559477,7.615228567498361,-2.676783450796788,11.281051840782569,13.237347382682662,10.312745253772226,16.929490475698245,5.258996609993238
-1.0771505717927448,-18.20005594413755,0.7751765868889574,-3.9441987552810542,-4.564115484946525,1.3945354882880412,8.326823541873031,9.2147440891739,-2.208004267407913,11.02979011412259,19.6321452406272,7.619344431814498,15.75335921139404,8.76801391307009
-5.100308998347642,-17.787138356598966,-2.62622393945695,-5.521847955441981,-7.508942220235758,2.7933478859437835,11.569416375349972,11.137355560815584,-0.2150614840092539,4.958493504091652,19.56970333386014,5.065950945575104,12.789518621769986,8.3475233391345
-10.162179283839762,-17.56243621381514,-7.152499379188779,-9.926241472753066,-8.263094232206699,3.400103955769828,14.276111839036435,10.846140651885552,-0.380964103222077,1.1668600728154102,22.88778819087515,0.3658437418360291,7.389560667709752,5.993627858714232
-15.825676697699208,-14.55449093592266,-12.853926876760143,-16.76613471549979,-6.664801826327729,3.6612571040432766,14.803710992263266,8.279770714737559,-2.784718199327655,-1.8773919392898637,30.466948167310505,-6.3006186443243815,-1.245557532068169,3.452008958171619
-19.79398215942893,-12.862815107823966,-15.453252220527665,-20.731639888341384,-6.221652280764496,3.930697757884568,12.575066497867248,5.968524142434156,-4.850256376450758,-5.484768670404914,31.674434943113173,-10.926046850838786,-7.033574164947423,1.5983728820950138
-22.003324658579885,-13.477737118438172,-14.725046561466474,-21.01203329782038,-6.370810596528342,3.798410868283868,8.646323501629183,3.46737903924858,-6.390229617163604,-8.43546500078524,20.186650687170225,-13.6180703379884,-9.980929800990513,1.978133591285394
-24.3443957584582,-12.290344635020778,-14.496418559599013,-19.019174341114848,-6.688684812756095,4.393516951419514,5.027896436173922,-0.3119792499095645,-6.503999151916321,-15.030140230472744,-3.0727385118580104,-18.028119775052183,-15.28029278294792,0.4134947776091511
-26.31053198317249,-10.456709233588787,-13.834264595425823,-15.050738999832848,-7.787933259361619,5.718279441763191,3.212179093072149,-5.0278655348778125,-5.990056470854293,-25.454163155568693,-40.50888048731623,-23.460114246560543,-21.799075045985045,-6.132734265662467
-25.054083021700727,-8.156067210782187,-12.53252363035332,-12.482873235581891,-6.899038639675214,5.566940652826555,3.0842577199417747,-8.418517975139443,-6.98774590214359,-30.00166923274605,-58.90331249877104,-26.30239013956963,-26.713660815467737,-10.117548061451645
-20.520819765550858,-4.9582512535719285,-11.101841019836789,-10.798328995038466,-3.941541931345696,4.011872993885298,3.1457456250012696,-10.382255277579413,-8.027726436381869,-28.93057767177132,-42.916514255910144,-26.81623261694759,-30.545521106823905,-9.967133803824796
-12.641337901556575,1.430039169091217,-6.391940659835402,-5.1516866754875865,-2.320085820041287,2.0922671591658037,1.8886644425544747,-13.390483892425706,-10.283134604654856,-27.597447955050985,-24.109887305652546,-24.379109937076965,-30.623301802957915,-8.508656819917478
-0.5548219567567366,11.386698106601338,1.7309736582055812,4.338234886216817,-1.5899074854145692,-0.6627652762588998,-0.857421121716798,-16.988922903457013,-12.998372861288235,-23.98448535903282,3.481861818022444,-18.03002176041599,-26.12466039080521,-2.316384084562976
4.354218027868839,15.15549149229372,5.152717513880373,10.640518750226803,-1.6777932089649945,-2.037396974920133,-3.782943996303693,-17.74205458247116,-13.516513811543811,-22.23016129099232,22.216809245356544,-15.1654236549917,-23.978486328916887,2.729828100440121
1.4268877635804949,12.611319569558594,3.975298653784591,10.918657229680647,-3.2746468339667016,-1.777045937685218,-5.271823529573256,-15.726298628609802,-13.622471279622909,-23.12528028962469,14.940841539059344,-15.835806018513477,-23.70301539277419,1.388796220781237
-1.2857488148530816,7.568041766031512,2.6721387823045366,9.09269319529115,-1.5837795824969734,-1.4737848065746468,-4.816234929254824,-12.10438512384673,-13.05573308614687,-19.196161945495152,11.275736668785628,-16.090802461620818,-23.420793397106223,2.233413468746
-6.487210726573283,-2.3746617276369566,-0.5099122793372636,4.63903323601093,3.5355064218180843,-0.5458911234252597,-3.3930013516097217,-6.05421172673204,-11.569620932176964,-11.193547977910583,9.138972715583044,-17.584833348049997,-24.571162171642037,3.3040992937152245
-8.439366319550752,-6.202508973914198,-2.8678937197091106,1.1444571506042496,4.8906067196443015,-0.1445651191649993,-2.504257159383716,-3.592430250317848,-10.877473567209291,-7.527803036420783,4.931492790953871,-16.871773096835327,-24.020883028057767,2.331577207088722
-5.863577441696372,-3.0858342004243937,-3.862924743906995,2.590282479279848,3.1362393811980214,-0.4917664618854175,-2.8384332395912963,-5.199406386385935,-10.969020145133031,-7.431041329521187,7.265680010100057,-13.43379208388561,-21.719122032151866,4.666185271629209
-4.702833901164703,-0.9245078832271548,-6.776871287300761,2.350364275828289,-0.5922139035708583,-0.7017342165918322,-3.8261646299231655,-4.1951710692721225,-9.916099123121574,-9.614323590809596,9.637759428953071,-9.26477273151056,-17.32784103841117,7.120843544904168
-3.353072184064824,2.9231946737719965,-10.962027382434524,0.0066788843822841,-7.81722617393134,-1.1063100271869253,-4.440624928237268,-1.817384165021589,-8.299962054341622,-15.902648418815136,8.398622910779125,-3.3832669220178957,-9.969851728212472,9.330892825821168
-2.6187243659766524,4.155959349444768,-12.45356110263625,-0.625186307985896,-9.757052140050774,-0.673749916750427,-4.330531033303432,0.3737932141046486,-6.850811400026591,-15.846678474542108,6.884470839304649,-0.6800798346801028,-6.26342007514009,10.392556007698415
-3.277331903713629,1.6580992820023157,-11.370505846474211,-2.8344003285932917,-6.027231316199298,0.7513391433637957,-4.0658937718426245,3.3651003251970875,-3.5574209551778027,-9.01453106730134,2.212341890066331,-1.6348103359112598,-6.292246951402628,6.370721958198968
-5.061030038989159,-1.4529736751414448,-11.10193048462786,-5.7287892366626885,-5.390563478180868,2.140408768841524,-4.257180207782685,4.336743851997922,-1.19093921544089,-2.682983528354133,-5.444436377722309,-2.879709898302337,-9.138199508494251,-0.988554073776842
-8.537750103380013,-6.578704420392092,-10.92170220705376,-7.353319358409077,-6.134432904692954,3.750597067260487,-4.576792493590178,3.0663232238357847,0.6989201562117301,5.494820793349757,-12.666541994356376,-5.669537851060155,-16.57214140475554,-11.329162307798276
-8.756480008990613,-9.185306291414316,-9.884186356218573,-9.618656120172894,-7.402918476017996,3.814309954740069,-3.893895294656396,4.103656967985703,4.528405300034338,9.836336325827345,-16.1783764196547,-3.0561784712868167,-14.13417663338836,-16.960837472647484
-5.49208254323848,-8.78155384272463,-8.434817157200149,-10.422837124371007,-10.573500978436442,2.0146587981473494,-1.5455598643580064,7.043996467784621,7.512419073540649,9.072157300529822,-12.012454504533272,5.88330226734922,-1.092006371967427,-13.48223679127818
-1.8347081492513488,-7.092939881545591,-5.676954273470492,-9.572950491820658,-9.21076694428451,0.2072514954466295,1.5861375882019697,9.172268929650414,12.100757659446666,10.39558432826031,-5.172940313940003,13.012072362191846,13.67615387351272,-9.025602838693626
3.389772238505959,-2.80858187934396,-1.473475667736714,-9.378429722161286,-3.118864537138459,-2.082041439285172,3.5274824641648603,11.245231256715128,17.679313144038264,12.33571425570236,2.4891754261045014,19.91183859594793,33.6520557386476,-2.7787869154196665
6.34886944433069,-1.5868341154433752,1.6016085899251007,-9.213453723968565,-1.6975897010962415,-2.704784794985545,3.016328996036627,12.1900300160776,19.76400965877786,16.029263346001752,6.814109751219299,25.26415490887991,43.23529944299912,2.030034515319993
6.460585773279608,-3.724290435473681,3.5927857407745507,-9.081469629634398,-4.059492250363483,-1.2038906301895362,0.9417624837295032,11.547002592705253,21.31105351759471,22.71535255099324,2.913465426309509,27.59356915967146,40.347126501083,0.6161115958865309
9.309417694295853,-4.797587420272874,8.577002386093303,-10.470586300283266,-7.501988759804708,1.2076230137986983,-0.1606671959646881,13.305346141792835,22.81810942933991,28.319738363913665,0.5845371023199921,34.33260130267562,41.22953293059776,2.2825935231646617
14.116347761209868,-6.048778811864288,16.282969012706427,-10.71978842100044,-13.870602852782811,5.246922617709839,1.7012171622181995,17.347136815986698,24.019821184075635,33.3812192406563,1.5550351175113122,45.10741677907166,42.14932280182944,7.064712569876361
17.809950556933963,-4.316095891407825,21.53065394783848,-8.319398592127238,-14.044174601666963,6.105658536286184,6.110041137158198,19.25543903639634,26.54068544594926,35.880890678621235,2.7956430673867625,50.21730349557831,42.85115567845004,8.791006226982816
21.170774489852597,1.245674220700995,24.778733298920333,-5.384590064167751,-7.336878698556758,3.3784128243107703,10.519478335925768,19.60711970003962,26.991353970472318,34.83145350083364,6.065134235811266,50.469243391886685,45.643665068240615,9.350711972362673
22.88999307569364,4.301919327555443,25.36146550239125,1.1245146487105215,-2.9211684276334915,-1.1704123543736846,12.472225204795327,17.64846322839887,24.798905579136804,33.213465433306546,6.5690052309330005,48.18113888561554,41.94947035291779,8.545976200770774
22.379966509200923,5.513147103526956,22.005225079177304,9.490394593953411,1.1257093438037382,-8.907312117184485,11.661205011222677,12.38547990507496,21.14204553804924,30.228637168913757,2.3640452528465774,41.31129341409297,31.95896833464625,4.101853756221972
22.517568169289813,6.188202960127241,20.50715338125837,13.383733122798883,3.2765259168374734,-12.514968120120027,9.903305477061568,9.120411556225584,16.920708875575343,26.57574645664056,-1.948159941591724,36.404024740498656,25.975944010138228,0.1171046843008642
22.932239870730776,5.099047333610095,20.571770065765023,13.7488661973067,1.92720620136073,-11.54287418602079,9.14716955417156,7.64706195609327,14.77675441709192,22.66276114188711,-3.675436863701296,33.65634094426812,22.867793488414964,-1.0300819852840524
22.561447971513143,7.341364454933659,20.263689184659157,13.076663630842678,4.580162207371252,-10.96142850717091,9.525814158011343,5.074882505534818,14.045180061188894,17.415625609794525,-3.283128349522792,26.988890133344388,18.412613003886083,-3.061850759550716
21.865091581244936,13.137091925242224,20.784052541766837,10.79662574899532,10.752471038945224,-9.033931341600717,9.340647067142994,2.431547809306794,12.36814871932113,11.115913529340666,-1.1328526455022945,17.631579482145654,14.431270277811208,-4.6793386431728425
19.89022590650288,15.654411013416697,18.86634225398644,9.922402628265608,13.710027140820465,-8.026027658568214,6.918553916424787,-0.8599857623976467,8.00856784815621,6.23461481882322,1.7671605069018048,9.879970988726226,8.947973511092265,-3.81879719429644
16.485721988538792,15.69074001981299,14.302458009580889,13.486460682590284,14.516657504500552,-8.55507012950747,2.470764203423215,-5.093961934262814,0.42929659515391,2.9039039743866937,1.8961575542474096,3.1800427072591653,1.5605145199950652,-3.9200998343348967
12.710740850776933,15.212705230301518,9.144939330990212,15.573243185949838,14.162600314296386,-5.997518309946526,-1.866002185501724,-7.766806716501367,-10.674090221202835,-1.888634007130897,-1.7058445664508988,-2.9610716948730778,-3.86146833258486,-6.358721815862954
8.341739709133419,12.96980386965095,2.6245959919676185,16.729072326500972,11.443801278799798,-0.7857193813647121,-3.85076877339971,-8.903363883920827,-22.58843709849842,-7.671041143597297,-5.056466947328735,-7.647588325304951,-7.6199747008288625,-8.713752503090772
5.958872163641978,13.831546811278304,-0.5043223929939381,19.23109714790808,10.989448648149423,1.4458427048715847,-3.123082390941102,-10.49920662443322,-28.261809517326785,-12.616387879207464,-5.961763746361505,-12.226819824681108,-10.439324605811228,-8.633873761843692
5.990615526958602,18.174740092276824,0.3754995555739163,17.770501201904906,12.916250878116696,1.1402136720155085,-1.5404154343733056,-12.08460476711936,-28.487467222414896,-17.107064054575137,-2.466555073726836,-16.49040210233535,-11.49847072813628,-3.730662085070201
5.067211572414477,18.354518276413188,-0.2206659319364944,14.797583716606685,12.367526546895778,-1.376196424649229,-1.585699882471732,-15.406919675753198,-27.124392640384343,-21.17287463792915,3.2973493555824938,-20.772118037101848,-13.616365029656018,3.74973930654381
3.800238388783349,15.108409947416527,-1.2059911795346263,11.929564572999062,10.154123491107828,-7.418793476663351,-4.265907871847354,-20.93947818054338,-24.27919891445243,-24.50038304714916,7.235733198895427,-25.324519747047283,-16.832130377138224,11.517448886365823
1.813313638099863,12.627297507791791,-3.5886768411097263,8.00769421745481,9.31058632145094,-9.2017141066171,-8.301036863538176,-22.647773838440397,-22.90837206728982,-25.50451012124409,7.08855491718319,-28.33300617915448,-19.08522984969724,13.399375716888832
-1.5098016854033651,9.634340026700524,-8.364005747011461,6.493275260598474,9.25364448271102,-6.561752168289034,-11.226911997598576,-20.64955846432869,-21.965388066164,-23.86929536904148,1.8389506897792025,-29.838956467237573,-20.939493847309556,6.87473633054312
-3.1756953771714884,11.299267339670685,-11.04700884113794,8.520214676052769,10.926889114863886,-3.5403426430514418,-11.40634402800027,-16.9150999370526,-18.835181629875457,-19.97579147784508,-3.782720254139321,-28.634193298889617,-20.191847032936085,1.340524398139804
-3.305243707558692,18.636438538048782,-11.97672768983715,10.338738484795565,14.983990323207534,1.6648643989346863,-9.260585967491298,-10.042031852368003,-13.843292601659908,-13.223612069160776,-7.620437106332357,-24.12015166778245,-16.36042857316703,-4.205140103068608
-4.2802488465366,18.844724110808865,-12.701598675545872,9.707043245374855,15.326620424199715,3.528616998081445,-6.785380637543127,-5.553717885344799,-10.205032334567145,-9.950218251870432,-7.396329737638494,-21.703045361261232,-14.426272499809883,-6.934771197009144
-5.602803112106173,12.577598794953868,-12.361064582249703,6.5570749916418665,11.93794807743576,1.3830658266307638,-5.870442695033331,-3.7774108778521462,-8.559328629586462,-10.55795494523603,-3.0933661075755143,-21.26068788930448,-14.034717850375008,-3.861036461843955
-8.246567061878727,2.993929127714998,-11.884009228024311,-0.123814480751667,7.570731432993348,0.1630611584919847,-6.8593841822292925,0.5592004959845011,-4.597781155719187,-8.525129880345682,0.7609943529114263,-20.81368053451672,-13.45673629547791,-3.4734282519079067
-12.7020044564823,-12.75550999538671,-11.325536762078425,-6.127889850920024,0.8167686854860875,-1.472567803784621,-8.464943950799029,6.326065040991761,0.0071010207751109,-5.161458264701387,3.828358881262748,-21.578775624837498,-13.688268678471744,-3.246373868573327
-14.659212474455856,-18.78884771249733,-10.825438446080913,-7.69913998057896,-3.2381655298220933,-1.2038890321362763,-8.96615734294202,10.510985221880404,4.231799953765272,-1.986073218083472,3.6129199899170943,-20.133659119263918,-12.215804491257083,-0.9327885012009406
-14.204731295161332,-14.179480799416464,-10.650715808532846,-6.46794036308822,-4.101706269631322,1.7976438259517888,-7.599402378498842,13.624476592314249,7.74092042701669,1.910047108265602,1.1571034286766926,-16.258713162558344,-8.846928298408734,1.2115376316738395
-12.097168030120342,-10.727890059660677,-10.209764802142924,-5.273128435139107,-4.977868959616936,3.6744766609840656,-5.019264967481643,15.037965516472957,9.388369112647224,2.507444484061776,2.1791707861818264,-11.05242111431834,-5.298892006634148,5.327486590593508
-7.27658286577844,-4.792704752161679,-9.6357496773658,-6.527682334652411,-4.552655939371624,5.091686157928847,-2.583564106513544,14.080302762846769,11.076694108378623,-0.5758862953904025,4.816276945771203,-3.5978020775554294,-0.9788959328124348,10.185587400581364
-6.457711051578036,-3.792822279504528,-9.91780948285637,-9.909765710955924,-5.621169264926349,4.767337775187225,-1.2083326572098887,12.796357294294014,12.845961722116291,-0.0457002423875905,6.172743499749414,-0.9104834176274416,0.463779927603055,9.160551511690024
-9.94414039409948,-9.68527630738762,-11.07990360695889,-13.26849632985457,-8.598528596177406,1.903956309145139,-0.8099581642108458,10.860852841100217,15.623563653789647,3.5443506667656943,4.47869032758447,-3.487890407089924,-1.481639372735309,2.11267028074844
-13.626582911858426,-11.094108031324822,-12.600558126879497,-13.47184078383845,-11.89579819389972,-0.5991584740985816,-0.7271418558728904,8.185014933275502,18.036280133735744,8.699194326749273,-1.9498591185897955,-6.678927342695443,-3.680658129424817,-3.5230001545718026
-19.091516451702077,-9.879777970104284,-14.723573741695557,-9.840921818254138,-16.310423161031846,-3.227694614745156,-0.591830304616078,5.11738436008517,18.18241058506404,16.97935557207638,-10.362163182024563,-12.215902101199683,-7.0991632240461,-10.105755608498136
-19.350443530221767,-9.425403999220933,-14.164683715490424,-5.449908934488065,-16.084151892621566,-3.10598355556032,-0.7281310548986681,3.1852017181261965,16.892548905012692,17.98388230334371,-12.764683128572129,-12.601756186046256,-8.094548128053823,-11.21676892927006
-13.44919064432175,-8.036686379398924,-10.579587094026866,-3.1851998226007665,-10.652113203119235,0.5622198971109029,-1.654688424723659,2.704567576855656,12.864734835254794,11.087020068413324,-6.563259271516169,-6.769952740911013,-5.98628274205756,-3.266105996455214
-8.55062353768188,-9.99578410340182,-6.757931775669673,-3.355512190520603,-4.143598704193245,3.609118708262881,-3.1910498356492347,0.2179846390770922,6.6372241324683205,3.281141436839598,2.198338218025211,-3.4408752707691725,-5.971450059879548,0.1638889788761862
-2.9588892223371928,-15.812493599693918,-1.8796989609375685,-4.6218687522389,4.918384899150419,6.844800611035439,-4.139042576970248,-4.005366378167162,-0.7887165072043381,-7.9190382730551,11.917754931144431,-0.878840974612456,-7.218686939269686,5.075854247820761
-1.1473343406747727,-17.058861482052112,1.261589802821689,-5.740199465956001,8.00164786975438,7.67917230565983,-3.0396073231618743,-6.520320247284172,-6.156372309530733,-12.769707880643864,14.360762132379064,-0.2981892751484104,-8.660671834857194,8.08621184283217
-4.576184427458788,-14.28235554097308,2.078761798622415,-3.882452571861661,3.937082849757081,5.174230405539368,0.5196659730485145,-7.774839724711567,-7.316190702890066,-9.751140200664322,6.232209183816439,-3.2330567063441493,-11.141090874701476,2.7099091510913182
-5.524992492472681,-8.733279990135326,3.896969683742944,1.2793310337117825,2.100729715290888,4.30877747674121,5.201051368769068,-7.4766282438520815,-7.479508359883537,-9.974672182760983,-1.1417791289109624,-3.9714866930761175,-11.351360264169712,2.070049739523382
-5.209713771034522,1.490005091391445,5.977072839486497,5.765406912899875,0.4635514895237625,4.370447931627191,8.564235924104274,-4.871524898127926,-6.604536878564758,-11.096149928035508,-8.422235540376661,-3.061574249105874,-9.094226807499156,-1.168640928564212
-4.162742197992097,5.880997663948439,7.6653364621273505,7.264350724257996,-0.2240773149216265,3.757878706883949,8.686209888700095,-5.7640417247438345,-6.692312651424658,-12.817633494000832,-10.628245098408176,-3.178392973445397,-8.855067219458219,-5.37648543280253
-1.0321446658670108,4.066627540779519,9.37939258393279,4.9148788838223805,1.5362614057127586,3.2545316247269027,5.526323503179047,-10.260071262721231,-10.178825053509472,-16.820945691108694,-4.034636805124355,-3.3769106079960416,-10.093040900699664,-2.5145700921587126
0.3292360312524786,1.898663143707039,10.508473662265803,-0.2055276721709916,-0.5092496887603143,0.9351254947266612,0.9816845853749,-14.89432954957569,-15.23656525351402,-17.76693990416469,-0.8697926755932326,-4.338187798209279,-13.26175308560414,-3.3029278737399066
0.0904771874702573,-3.0954104014718515,11.010374737634486,-3.8391476812624616,-6.032407231070998,-3.4340058760550294,-2.394389278923036,-20.96536453691284,-20.454014217469823,-15.87377523948665,1.915519731897021,-6.369544458515939,-19.34956535037519,-1.3042239989330735
0.0609131990675665,-6.266027821655197,9.97339628946678,-4.0380220735421615,-7.578630452916311,-4.478029485563933,-3.0458533469871263,-21.6559707890406,-22.786754740720983,-15.273222420581195,4.1592436648409405,-5.582733605003193,-20.361260540128484,3.12501486903467
-0.4962285666277052,-6.919121697430825,7.127371869924194,-2.946631474009969,-5.880163867184315,-2.2814286662137717,-1.2746725124390537,-16.037090984595174,-20.58761649927472,-15.093470412368092,2.122468140317708,-1.9005331647506265,-16.14003861815743,1.8666579720497487
-1.9231682440555589,-10.327747556831168,2.796412057705787,-2.274753612262077,-2.642174749940016,0.1359162860370041,1.2023552224999603,-10.212878340370604,-15.64850784016074,-14.327206181879204,2.322295569328777,0.7376991762091446,-11.408624447103303,2.8794103788389123
-4.159614926729823,-15.44725747014515,-3.398094597195665,-4.7137307484323365,3.6500607117135058,3.91313842060572,2.575502859565802,-2.427672547033103,-9.97225457795939,-13.543492736125309,1.5089638506024194,3.047953758641066,-4.364630797075645,1.7425365324235793
-7.07480953643036,-19.937143316086168,-6.58409955688814,-10.735605288049276,4.225643821670239,4.341858716517851,2.161806135542172,1.763773069623518,-5.795772444568339,-10.050322279677166,-1.1232235653697664,3.733028824106741,-0.9319826990986674,-2.0581111745304046
-10.75087188785043,-24.40910235400282,-6.397488577955094,-16.136918942048908,-1.4667143208305045,0.7354481992293371,0.6827220934619476,1.1200950470670228,-3.354264311360764,-3.572265987779839,-2.205699079408177,1.9653892755473443,-2.011101116029614,-1.6997653504827732
-13.200790853376123,-28.04190415312901,-6.181585735294447,-21.24094267090295,-7.486288570482498,-1.5618889830717155,-0.5250179269236774,3.2844878071632966,0.7000935647580142,3.4658073492652903,-3.8626382910494392,3.0353669679683675,0.0897116022863913,-2.1269853649394057
-14.227393968539852,-30.394771877497035,-4.722517451964451,-25.681939901827064,-15.928634171752396,-3.6610817333876535,-0.6716954432107514,6.857030610341059,8.040235366209627,11.700953567346964,-4.820055825298879,6.684298182518656,4.06848783752873,-1.0951381398399995
-15.143646227243533,-32.280633244704624,-5.113511213123616,-25.934694185688794,-18.54055941083625,-3.6522835378000056,-0.0507997330825613,10.626420611622963,14.334195573719636,17.769524716429157,-3.887084420821325,9.657346255472635,8.358838208181885,1.7446350095290044
-15.418192182916677,-33.32936419414308,-7.902485658275141,-25.807926274062453,-14.025302510084904,-0.5037879353598358,0.5239085557801886,15.758168364827736,18.35151640247319,21.020552609392556,-3.4578317769283995,12.919078515998926,14.174889541694776,1.8281009839446205
-17.74827607401089,-34.563071383992416,-10.4051082559447,-26.864618157361065,-10.029183218663304,0.9224833161853284,0.8357489611313511,18.953191451004923,21.112346138424176,25.42913912356581,-1.0159810888488037,14.342557003202405,18.28158489625797,1.262714649449554
-22.46800557856785,-36.083809658332086,-13.470113018313992,-26.190253636626583,-4.379094914737721,1.199560368535098,1.7796466266058122,20.13218738927409,20.813220790770465,30.118188217654453,3.743119718595934,13.333330825475688,20.538759970159468,-0.3533691568019996
-23.27052784936818,-35.26977473594564,-13.98358764360236,-24.27190756124478,-2.235828772579021,0.8122207083494342,4.597423157149345,20.951768140969754,20.24292104529131,32.66825391184184,6.722144320530759,14.698596167069663,23.882766314070004,-1.9295646039510947
-20.42999142696088,-32.17922147028171,-11.380690540408011,-19.21756596262705,-4.978140108265677,-1.180273957102597,9.41713858017688,20.66466665758393,20.86002841056965,33.416069619877895,8.084252465130147,18.041393252119367,27.683561447356865,-1.1317818211534096
-15.62261925898551,-27.85005754954138,-8.25774297244453,-10.682384069074113,-6.211265168605268,-1.5504914838040131,14.523236646436755,20.324734126006685,21.848524596361187,32.265424898846454,7.6588089301369475,21.977968688219445,30.960728771232624,0.1440713286730792
-7.422115287111125,-21.69100216972639,-3.7246966628942566,-1.8070523226790445,-7.412184912296427,-0.3403078917675198,17.26471515891675,20.07567574283859,23.05507158418968,28.67889609763584,5.450495628112174,27.46169697447934,34.071908921544455,1.5642641244357427
-1.5197059271261473,-14.278883934564655,-0.2580128792570136,2.690035048289364,-7.720852972653198,-0.6510072830861671,15.996144339364752,17.32925586265158,23.00283222984652,24.94672291202753,2.574341252540217,27.780771154133717,33.484248821811825,1.5440416215961577
1.8290800574878936,-5.629906930202568,1.6921297961712187,3.2493617010655496,-6.159300500902594,-1.9629121799776377,11.384859322452918,12.1625023781578,20.858152441054287,20.98661277509951,-0.2001816542358088,22.381347072734144,28.73386120229836,-1.4812706205622723
7.608864596142363,6.478840138961815,5.428077265056964,3.978621749982721,-4.994631449782903,-4.245575083246159,5.905345711585553,5.221584039777937,16.172548320770034,14.899244624996294,-1.4088728898688294,17.095011711912512,23.98732881769361,-1.799299486927552
14.65486654957233,22.13218585271905,10.378705068250971,5.624203867208063,-3.7289300851771072,-8.072039445219094,1.9581004050652224,-4.103055518023796,10.291884902179168,7.060414269064792,-3.986461057144047,10.365756633023874,18.4336084521538,-0.2884108789697556
19.077876963722257,30.40019705606232,12.314701335511538,9.37713205813531,-1.8047514565876508,-7.937239371196743,0.2499121656393068,-9.33223479747749,4.847868866033677,0.4866992511635284,-5.931169120798032,5.935395037165328,13.515087433055434,0.7835198078029193
21.200866376437517,30.829524619083063,11.381382874148986,11.83283255988467,0.5277910694513314,-3.568902920042874,-0.2728331477514345,-9.96174635639436,0.1822133137050543,-4.8340630808342615,-5.790512391878951,4.91329065157156,10.066036727923168,2.78912721758157
21.76178208905228,30.20328109803732,9.239163145677932,13.589633768716205,2.3560420341915598,0.564378680857407,-1.1177785247576288,-12.28457713299753,-5.822586571647307,-10.394390037900804,-8.797074038662526,-0.1704535043884484,4.309145846207314,1.238421934213073
19.87536402529123,25.896584906696663,4.928240428247429,14.431722317254216,3.622811280682906,5.677039410751747,-2.879840972921821,-14.870011268850677,-14.246941666870748,-15.49069853526586,-10.02271858219249,-8.473135269915316,-3.300955973813575,-1.644073478186164
19.00985810585769,25.528105436755105,3.5511997014802947,13.603657655831109,5.796163854094209,7.95315524138234,-4.929784313863518,-16.10112392117914,-19.719772882195944,-18.05884444699529,-6.6838343454973215,-12.742257435640932,-6.638482814909144,-2.305030473293165
19.239387659933342,30.26839311296603,5.558672539137524,16.554495751766652,8.726872466539978,6.450611795024579,-6.147604917041605,-16.738969052218938,-21.573845231541647,-17.90464770533323,-0.7438307836749205,-13.796722840645858,-5.835656765217968,-1.023703671087818
18.43369560070976,32.533088090108,6.432703403580011,18.83488594703935,13.159868741752268,6.825704442719167,-5.832311043401106,-13.811212597758097,-22.921525193440427,-18.605132097552552,5.702700221416577,-11.520583023682406,-5.604188240035371,0.9241482978124024
17.34872387862541,34.227210151418994,7.353587937175614,20.06297295945059,19.496227490537382,8.107924140480616,-4.0467517382173845,-6.926220790109847,-21.488876085371967,-19.80589539923465,11.33147673625082,-4.294153146792718,-4.763833010012972,1.3012124902564737
17.932891858259094,35.78601489763802,8.659053634987995,22.649318990552857,21.00290782608701,8.683682075090356,-1.3822606591464108,-2.9498815029728664,-19.140561252916125,-19.13001100858924,12.172979111962324,-0.5141387298148067,-4.755646701372771,1.196979971799964
20.223262879701057,36.26544626399337,9.809403671951866,22.27139282722961,17.4178782744116,9.3779610638654,1.4144212175878508,-1.566118166268925,-16.93584164969208,-17.125956111929987,6.698489774463246,-0.1261842418434854,-6.383653437444737,0.5370705181588687
21.052043462629733,35.576844737771225,11.355367539785128,19.565259993869635,13.644707598132287,9.364590193563624,3.658114611344111,0.7420244931063084,-10.851079031822431,-9.953507321350632,3.072698152936511,0.6695474353817767,-4.678676319016542,-0.3929852402776559
20.696070135120223,33.38248092670104,13.19493153841352,16.405821995181853,8.166928502919637,8.531410292520224,4.842841420659575,2.607337928960402,-2.101744102527856,3.1533907110149406,-1.7410291585144648,0.0124327666163589,0.0619439068398378,0.4776116621169197
20.492384167353222,31.37432994055926,13.415065108495355,13.873160853982576,5.564289452146493,8.166571582313372,4.767884262741035,3.5184901915578557,2.418814545202537,8.44563388854807,-6.128673415120211,0.2348438270480272,1.9907969578267224,0.7300514866805148
19.848891222278738,29.46561454393371,11.890458575338652,12.908876784970836,6.807851520781392,8.144711039079372,3.5802741031679943,3.6449585471436143,1.9100016014390329,5.997769926710035,-5.726670868449152,1.584929490685081,1.6944558527416431,-0.3770522973068741
21.20678707785864,27.233033220630062,11.21548439117612,14.963856322160906,3.624124622622594,5.667592183967828,1.6062649349868678,2.724155293649977,1.4897965006060498,3.65601719780949,-3.882729496316259,4.110651073372948,2.4848683815065558,0.5491122830683539
24.867746095213136,25.042984791515064,11.043968809735906,17.431147938751515,-3.0687256552640725,0.7321597997967758,-0.8904362426023056,0.6192696360492799,-0.0491820820465179,-1.55410654442045,1.5146721861514345,8.527663430278661,3.3822271788922555,1.3957225318528883
24.310873392636967,22.67097812196388,9.461833968212124,16.46200210061766,-6.152143635768837,-1.924140992342683,-3.7060492407052834,-0.4398811796712688,-0.613136864003918,-2.913272283134777,6.0320487377252565,9.222620838441127,4.197068696664685,1.2497754504129264
19.69511218353655,20.180047836759854,6.7971947226174425,13.656220428366964,-6.647738678752046,-2.6067512814647285,-6.404791016619498,-0.3677281627755125,2.204016314205852,0.7798459667889475,4.9800924224256775,6.050774158932815,5.3078382590380615,0.850080535562512
14.295911694964028,19.887355831907037,2.9386949787924936,8.744948880438708,-3.301743374108194,-0.9188883568522366,-8.162764498840247,-0.9475882626029996,2.6138519956174715,0.7157071284059053,0.3834266903746978,1.1945614624740106,4.065577571301226,-2.786434899364028
6.724300087945867,22.02119351307277,-2.491266108103224,4.169400374234115,5.472903487682027,4.335914295285008,-8.191336625482066,-1.6945227072091242,0.9725455364370502,-1.5777848037837794,-6.795118745416925,-6.74687575910002,0.3152049015749855,-7.42341290180198
3.653504013274728,22.36732837795392,-3.5703426379588,3.824995553815695,7.917969170881514,5.5860790796559945,-6.543973362122543,-1.6997762234532865,0.2961185992424879,-1.9960171094658228,-9.967253948580108,-7.969449666057939,-1.152334404104446,-8.360429879189352
5.905078249427088,21.27559439591712,0.0795347517725791,5.342827669317039,4.033297469082589,2.831977221354629,-4.474069353260944,-1.089936796199821,-0.5575243997518171,-1.6629711578104178,-4.860041043882741,-1.6569374919524495,-0.6585974018696323,-5.491932681785834
6.817754927815972,18.16577905548724,2.92638178923668,5.494774000588878,0.2962088598076174,-0.9540899443809094,-3.7211263655654103,-1.4451457317716707,-0.4484311558696295,-1.137401842649833,2.2229637498438737,3.436933310298514,-0.1045904894756876,0.8309569382232268
7.983958018395066,12.005099076332542,6.261651251076996,3.518416831530933,-5.8546132086592095,-7.536539902522406,-5.135653432719522,-2.7228195817933543,1.209084554181336,0.104727719708566,9.510433959616732,9.564562623038356,1.4684727071246677,8.54135366016743
6.347024479518799,7.34000365669567,6.065633699422729,-0.1588071659116846,-7.445971147012179,-10.661383614118796,-7.862690719137177,-3.43086919849455,1.8395655967978777,-0.3977352914326757,11.434758246591482,10.198484006856038,0.54926054695036,10.926373162925772
0.6682769712194391,3.902641387205528,1.1254997578114794,-3.4250397119786955,-3.4025004224678663,-9.856746767582388,-9.927670786241109,-3.840849610175024,0.2442394935124506,-2.807811031019943,3.948227978458732,3.531498359938218,-3.2252975922399325,7.017451901685266
-3.6369469003611328,0.4582657094750662,-1.3256638720366365,-1.3625033898358647,-1.28394551446639,-9.648797808360644,-9.764992231700036,-2.6707402210418865,-3.4372540351941594,-2.989536055120043,-3.804170448374691,-0.631729710679397,-7.378861993779738,2.0304703917519182
-7.502558912596234,-2.0441408762321247,-2.304129365164455,4.175931450406628,0.5846765900078424,-8.559743503852834,-7.32033278909185,0.4773836139605754,-8.72721155056669,-1.2769923462444028,-11.73877647262804,-4.041577307270361,-12.8052614502086,-3.103878753663904
-10.473188458108462,-5.271108090869126,-3.5284656700531705,7.117047034964883,1.5705307214498974,-8.227175272847742,-3.8010848673745983,1.2537770861837536,-12.176672324891578,-1.4382108189004192,-14.366080221453124,-7.306022792827646,-15.324439208180326,-5.0159341184932265
-11.57130633377602,-9.211896611687695,-3.780387660025737,6.555615412778962,0.4909549346423422,-9.225768251495976,-0.4979383552621002,-0.2149188937674069,-11.685513979894075,-2.8979658865515416,-6.882015210297136,-8.81655855712951,-14.337420811918763,-2.0903994898602583
-13.761332669100977,-12.392975507988494,-5.92572798877412,0.352883093783058,1.6092970740126935,-8.241564512944091,2.074177551136003,-1.5591170864840358,-9.302810819039728,-5.921795337782271,-0.0187083370959648,-12.771194121683772,-12.716866051145606,-0.5258145703378949
-16.7060038572287,-15.080747730778995,-10.093854717967403,-7.4951882340269105,4.589268881801654,-5.652960941414364,3.9803147439317774,-3.6655078240708896,-6.395873688476705,-11.282148875285133,8.510956812898295,-18.93585050232605,-9.284473317465483,-0.2770207026544002
-18.9807878305433,-15.529494604854548,-11.702259651947369,-9.803638028748791,6.156772369533052,-3.7045457405504103,5.104594344259837,-5.333411642665177,-5.096724341951157,-12.884798869373054,13.52429629859145,-23.104595451329807,-9.824616736651436,0.3110369020235993
-21.03395418427816,-13.297298735419531,-11.10154084472426,-7.654851686421527,6.925473756671289,-1.939259602260988,4.886215016190597,-6.2738969440773324,-6.825809260875339,-10.59109638824801,8.492520583721902,-25.81554169764783,-15.039570798945388,-0.421482351709925
-22.32224810342272,-10.902798322299349,-10.851600436042776,-2.1499378814792083,7.539950534585867,-1.110439208594676,2.9448558582748987,-9.171022875908903,-9.024472930843316,-9.086961171541509,4.776644514929054,-29.177022350957888,-20.989784575520105,-0.9304517097192206
-22.62998369806879,-7.875369934163508,-10.135369072343286,2.410434313947535,7.481919468156424,-1.6824923808553092,-0.1251964872537456,-13.839990978581913,-9.976074136703966,-7.100312922640541,-0.7002210667504674,-32.52143280450836,-29.23996136862421,-0.8060754325435422
-22.200489843722213,-8.54693947861135,-10.40842378978425,1.4802503526650883,8.159408967820335,-1.633859114892139,-2.8052960639254856,-15.835942393531669,-9.435754113983837,-7.337560838513919,-5.953542373042806,-32.7009235891317,-32.35805278944284,-1.2836373285985545
-20.80390953243732,-13.781729226377667,-12.08937050011959,-2.31957162271006,9.630939922049574,-1.2117878637158324,-3.7069726509819754,-15.336184185691662,-6.802464257906181,-10.660896178150193,-3.363688290488338,-29.627362022784062,-29.39780207282548,-0.6222864207029083
-18.21151967085831,-18.80249742485809,-11.638465136147609,-6.2822650017509,9.810732368978272,-0.4279944238054228,-2.70682007625073,-13.718191952177245,-3.7690014771073415,-12.45696085595311,-3.246688898134044,-24.260194664322047,-26.02164956028413,0.7077908847860361
-14.327071887037466,-24.804886348525724,-9.301148128588272,-7.86140071253655,8.888912668133141,1.1214620689229686,-1.0803634910873727,-9.968545209860324,-1.4830910390256076,-13.44390033847965,-3.888526926843525,-15.73349101303077,-20.258294334330653,1.7956274844074338
-9.616570440017362,-26.17025208186354,-5.850896708598393,-5.900254709448733,6.928597892843914,1.2841443748349055,-0.4778081886918375,-7.23874123915698,0.4471275123419078,-12.38762690627878,-1.1365661604344397,-9.21118766595055,-13.434989611396798,2.702480831342366
-3.998304096999558,-21.7007867130342,-0.5328331088919896,-2.80235732216787,3.4618597187734577,0.0542172337097179,-1.6429127784674868,-5.670043579085402,1.236945056311363,-8.315223882774701,-0.5745211011757645,-4.996244111150846,-6.110173401674865,1.7475186794543405
1.8484828788702383,-17.21369603473932,4.114359897945873,-1.536788462721264,-0.1495288876211643,-1.1645774656163794,-3.939748309878855,-2.964990152233569,2.8888331357930146,-4.472795127207485,0.7261743708966653,1.0236855402767011,3.582016273134905,-0.2774603386197375
7.774081000195539,-11.10225151467639,8.03147085037362,-2.3836280591361314,-4.00580853490673,-2.816762624906241,-5.956222855751896,0.1942134337809457,5.6519927277565,-0.3261630704060221,3.913718639803716,7.689236243600254,15.2332127631081,-2.2574976677408403
9.748119400519592,-8.882117089083149,9.37592357580969,-4.536685170321838,-7.186560474644271,-3.5742590606995246,-6.547846057108036,4.154819344208423,7.63313702943261,3.387086454028108,3.112601603006125,12.085344969184836,20.438047568311248,-3.6525712763722233
7.0834325474889255,-11.78265453024886,7.246314944793733,-6.939867086219477,-9.293441976118642,-3.1600800031042025,-5.491968251203247,9.20196729895112,10.557852657481872,6.029149586131304,-1.6877023289874489,14.39128090274043,18.596564036004903,-4.308780916571617
5.183536326414564,-13.018846674685884,6.139508457829608,-6.639105651828015,-11.466702168423868,-4.097484743175484,-3.431571183357228,14.668945716390628,12.844074745542995,11.10756351200893,-2.4163360702089123,17.775774000707855,17.81984532515222,-1.2312979546826186
3.074354899331739,-14.06797986175278,5.484272859756837,-5.021590650428165,-13.342737508002406,-6.135830621446657,-1.349877902768661,20.715858033403716,14.1737733424142,18.437109408022646,-3.145150037547356,21.795537064001035,16.222132475376117,3.663518084179352
1.1594132705471143,-14.515267746760289,4.292606997362427,-5.004408370051242,-12.590278218659606,-6.382616007690248,0.0373288949916457,24.1795049389024,16.267074196587583,22.36905564369094,-3.38856502632816,25.3152338970211,15.444475505687592,5.571128119589066
0.410048030716608,-13.312316844467013,3.357986748745655,-6.962405665620851,-9.063772685207889,-5.09278852903225,0.7141591306763075,24.65155278234841,16.888500436279088,23.171684435691123,1.5727787874649168,28.86300255251662,16.8297500564677,5.304773871123846
-2.938554387057564,-15.74838706694296,0.3851412793479925,-12.285305950924796,-5.679583888734833,-2.641295087084905,1.4261299208118032,26.16233314999818,18.24816587211061,21.59463801944036,2.516308915176757,28.71593134745078,14.336717860100917,1.7587131396800373
-8.651450361708878,-21.72148650706025,-4.71328322194529,-18.913669364022844,-1.983688671161286,1.6114227450604093,3.188366922896193,28.013150534279948,20.733389228174616,16.273769129723878,4.438430961251658,24.45290963625925,8.483387351385655,-3.059311178983356
-10.962564460211462,-25.50298584218775,-5.6415083526133465,-21.750829329379364,-2.406398943980128,3.2173195482516443,6.35734667073416,28.50701832221666,21.612550025240346,13.865600202886686,6.784090410613877,22.531755039297327,6.808636047171398,-4.445273243916621
-10.156624895819192,-27.88171590843923,-2.409184948852791,-20.409338130808045,-7.956819975256296,1.9663241600253931,9.940684028516827,28.18344759990181,22.27067397103897,14.500070965846264,3.3841592918392807,22.356148180201533,8.749671824448443,-2.0041826718408435
-10.683274011285889,-27.35701010772791,-0.463446375913148,-17.103144484049935,-11.632243579067262,0.8986978966930811,11.988245958712312,23.500480279281845,20.513621815504603,13.784040202764396,0.8229211354327255,20.935780604415665,9.432583992565649,0.8255449102485561
-11.533360834518856,-22.611377918719597,1.392951487920284,-13.760673653205792,-14.510257066658085,-1.0117353811162404,11.137042848269004,13.892693968524824,16.089077063412766,13.145395127185232,-5.904274977796772,19.416321962166418,10.174973318775404,2.284226426019609
-12.433834602063044,-20.705732198050608,0.5583815450761423,-13.122551289794394,-14.793809961917054,-0.6345243723579399,8.12414447012523,8.620395662433818,12.232861437541594,12.280143285812091,-10.500409691425704,16.61807989677339,9.52027940880959,2.1718703075606225
-14.04330754691857,-21.23045090326977,-4.08176507123239,-14.588902343373483,-10.993023336750523,2.611136642804308,5.676390866684926,7.344747880187594,8.9159959558881,10.744032251015517,-5.48638232258778,12.20612379028071,6.675879544310565,-0.5300608363649426
-12.982433824804788,-23.137399618684835,-4.946562105375049,-15.408693691968477,-8.312559106977758,6.217413817329122,6.420635862356477,7.501167046103603,6.945929344545666,10.798650173888795,-0.944604857656698,10.199540590483586,7.087242209339848,-3.3364080057637167
-9.155924552511369,-28.006715145953116,-2.56668733074901,-13.947696441773864,-5.983487136863015,11.089049166359027,10.431219783008656,11.206113456670067,5.441643046361751,12.403755369047678,8.310409173046061,10.542518373639828,10.514520330758597,-4.170066252418361
-6.811542103171926,-25.016405143876725,-1.3058786165984184,-10.742299279928895,-3.3147177509994057,12.79809021553346,14.750361189246206,9.232944414062056,3.492561593920306,10.434151885130657,14.569977128294193,8.659642544689508,10.088698547125944,-3.116757476308524
-5.413762657665113,-13.640658854576309,0.1609975402582336,-7.591195839553502,-1.1891683325362763,10.727444721960392,15.646785970306894,1.1034789175169883,0.1531975301573045,4.953816819711373,8.712968949763647,5.16102080637006,6.458221480534542,-0.3258376905667505
-3.6938327420011903,-1.2922811915939725,-0.8741566852508192,-5.434049841409651,1.088032926836208,8.14278436264903,11.792829405706016,-8.01404814821463,-4.558832640872552,-1.6574821461154188,3.7566817500840304,-1.346931548308063,1.1481265770660132,1.95873042427426
-2.4038449277738443,14.531034381885371,-5.183789595889444,-4.227519056334927,3.314237541821773,3.826836549998524,5.4704512559770535,-20.353273308366592,-8.18762538067426,-10.55897900773737,-4.540337927639971,-11.946742110202717,-7.254191487471176,2.5307856416702625
-0.5203015846902737,21.6122540199993,-6.55368881982025,-2.375451503886958,3.2701583802303644,1.956077166547008,0.5925733834788218,-25.6305728328304,-9.92005817864118,-14.63901382159206,-11.59808305468051,-18.014300046442614,-10.922047103229318,1.1931236556832825
2.014022438234349,18.064158499908395,-5.484071751119178,0.656550373935115,0.7662446645494799,3.154549858286916,-0.712115109255052,-22.63244429092144,-8.295580675592278,-13.155694155276766,-8.933520615371442,-19.64247760131164,-9.397522714163012,-0.6316877574578894
4.701570689267543,18.10030913538033,-4.906360630552326,5.10381163093794,-1.0340579835023735,2.8504943402329923,0.1898004035647602,-20.27142326956021,-6.900335317316778,-14.671699361519916,-8.905402662122508,-21.257456145853507,-9.67985635788366,0.2679769634495753
7.7765020615113105,18.79273751454341,-3.698564626082351,8.917203359492827,-2.5455928666099297,2.0457353447615563,-0.0045961314200155,-15.988559700363997,-7.468060912232141,-17.702102915596765,-9.085315541677776,-20.99650002479377,-10.09607646840401,2.7186336554227486
8.641325272343973,19.528212295196607,-5.107891320800988,8.671093321803838,-2.2998675793388377,0.9998499914794,-3.216125741262374,-14.58621174828811,-9.10696278550618,-17.87103633150318,-5.86072489523804,-21.972022626215583,-9.7939510456077,4.116728729333444
7.025175855570228,22.47713386252608,-9.674636410025403,7.248886259681933,0.4970451157312218,-0.943818451485024,-8.055504344758333,-17.545483045733565,-12.451469291755323,-16.25090284066793,-3.832197659087182,-24.68886782636595,-9.67547765670234,2.8978232372475685
4.940746655155879,21.4625601240479,-11.125939126910954,7.6246332243764945,2.441328746905729,-0.981509516505103,-11.0866366419491,-16.174950111551567,-14.354456499412615,-8.237936201145962,2.272862526205599,-23.351948401598797,-4.472330577153718,-1.4034205892050082
1.7222876699770766,16.779697560555945,-9.9842676098762,9.952081402259015,4.028601342201626,0.9198155712801508,-10.062037046572868,-11.655194241074556,-14.616070073378982,7.326877293916143,12.313935777374477,-18.440775247959568,6.159536411740128,-5.9557500308952
-0.6751121384693514,14.860640800364497,-9.91737152224376,13.024845799918069,4.606692558091839,0.8607685424570466,-6.094192524312859,-10.790605468142097,-15.50070910318273,11.288074534118245,15.775208326940689,-16.657595239780772,9.470001269893285,-6.16164479806847
-1.8773373164254965,14.90157295726448,-9.86459791535178,11.363352031723938,3.472089648661889,-0.7842686706071762,-2.782999429167461,-12.58303451951133,-18.41752244648204,3.578088669953396,11.732003803611695,-17.362097982433884,5.780409665068198,-1.5587561856101209
-5.046270528902655,12.567543304966344,-14.02260884370238,2.775987285992992,1.965784927146248,-4.009419746942706,-3.172363082659473,-16.083664826448082,-19.535401823140067,-4.364839810641323,6.56149884510128,-20.0704922156163,-1.728891474903213,3.490624630404313
-9.77576047936392,8.773202096309763,-23.272148519764364,-9.078091215692648,-0.3357166448131678,-9.69373416513938,-7.340974439071402,-22.590096135527546,-18.739032089493364,-16.72619406261993,-1.260397895632185,-26.271406233044875,-16.11085525885308,7.2137770779414385
-11.878293013287264,5.880718975303522,-26.53552204824349,-15.492653537748597,-2.357251652209262,-11.454057203842677,-12.67963120902968,-24.64546107804396,-17.609120449582342,-20.689609255559336,-5.473409648343529,-27.536547901583805,-21.273467429937003,6.289756532465095
-11.561642776373018,3.4009408151142293,-24.304164935878884,-11.687270533621795,-3.885582698948464,-9.115840871693957,-16.321178912065918,-21.909995739874983,-14.355629910507522,-14.114985572090523,-2.1270578911969205,-23.68212270075192,-16.393934853604637,1.426458933100648
-10.880427323192508,1.5037410962559654,-20.61470995335605,-4.359732454913402,-5.591150836130169,-5.762882427059988,-17.30671482927984,-21.47027273490968,-14.784452122893802,-14.387793524666758,-1.5736744836828247,-20.24109783623604,-10.994993349718449,-1.208252915101101
-8.970365591416641,0.6328437271674436,-13.093548341911648,1.8403068960125348,-7.138993575994606,0.1384901660871326,-16.624448734856273,-21.82822771237584,-18.07240127172312,-18.67150072572019,-2.7035624083250904,-15.380522504701752,-1.210403628385508,-2.9086715909319296
-7.129826299966265,-0.8999290556016903,-8.707203481008474,3.06942551571352,-6.937285564254149,2.234785968711057,-15.519133436814688,-19.686852471488816,-18.240684704824552,-20.006199530157637,-3.2210259182868195,-11.237781761251732,1.4656129465605026,-3.0506743252086697
-5.58588609903614,-2.9900851052209863,-7.974834588029714,-1.6430210170606447,-4.809545322741844,-0.1109675040042498,-14.078387422669373,-15.826208474972365,-14.21025707098345,-20.840001276965737,-5.7210762626103575,-8.532332961703727,-4.580538024155876,-1.8754849982117148
-1.5495030197895472,-1.2675551952545945,-3.6261180835059545,-3.4162017962743065,-2.102384113738237,-2.020780822681953,-11.507658036253108,-8.377123010468354,-6.603836518427889,-16.094229442815298,-6.010740116176416,-2.743160811636794,-8.879838813171633,-4.531432852570632
4.812152767855673,4.323553723955173,2.944633839637154,0.6606962945404771,1.6085326711914367,-5.068942718638358,-7.510872944017237,3.402404027993869,2.6107479858833744,-4.557993425176547,-4.537092075108014,5.669035434665525,-14.323971887504529,-7.338098591148966
9.367942631894248,7.17828135655777,9.96407727148621,5.9853886530526985,4.110593116510259,-5.436009593242551,-3.014978965282623,11.579028040759004,8.115787367760335,1.9627592754921024,-3.415271282759862,12.916219377349648,-13.16209484729541,-6.803652641630548
12.36983705345306,7.880286935305097,18.471613188074585,10.329355575552375,5.048138468773125,-2.286585501482364,0.6641852095237795,16.24820533195194,6.933774456816088,4.256586916591163,-1.653347853441353,19.581844938981344,-3.3808250252940595,-4.447982936007263
15.554861821660753,4.652854653020341,25.76444919922457,10.855851009263812,7.725403248202189,0.6467695641464375,3.2592085584297195,22.38297043586114,5.113153747211941,7.796994653755615,0.8525951098204085,26.126125934243014,4.748082683186344,1.7106009588208813
18.078071786440358,-4.205690736933972,31.595208539349333,7.9549872455109405,11.678014159459725,4.456147261760204,5.892479637889778,28.356608146128963,5.279956521544389,10.338472490098946,5.644692100039167,31.84456758713602,13.358558298333897,8.696895259197172
20.780214514759148,-5.83444304579578,35.4670355189156,7.151499442117286,12.882388600309504,6.358691980515449,9.811337153296762,32.52506982244839,7.799155095886181,13.744904195393923,9.195157207512242,36.75593572918726,17.318355627741795,10.160718687017033
23.765164688456483,-0.3520703124003039,36.47674384881584,10.21419796327374,11.57078122971709,5.6813825619529545,14.807552456101831,35.19185981318723,13.012547825858515,18.50033433650185,8.705707930942499,40.61640261845747,14.52522576179447,7.728264889309483
25.914460748624236,8.53711441251626,37.31355027087807,16.14164531045107,7.921786322289308,5.208750600845316,19.02432351760785,35.399243633061964,18.130358077356043,22.6159152260644,6.984657783527843,43.361313943851975,14.46334421631449,4.882347896353148
27.3693810216329,23.91637533121917,37.58827857951464,22.16918152648532,0.9353258898870028,4.112556036455546,20.4400793892886,32.685367009138545,20.404316769821907,26.58296294908356,1.8568089259432663,44.81781314524368,15.567306981924927,1.5855104888194782
27.706601788951225,29.706658312137847,36.490882682066754,24.02700372070579,-0.0393294843680102,3.897803562257495,18.599180747527896,29.017902112340906,18.91798756535173,27.260941999641734,-3.4306170534257365,43.4753353629549,16.088877251960355,-0.503905513587876
26.653911846011383,24.966018971814048,34.42943509811681,21.95790625415244,5.450598536152466,4.997790595488654,14.935064970068254,24.08106485726165,16.884848565192762,24.0707322211791,-4.315726002750424,39.05044325882487,17.52114542918341,-1.03215040187243
25.19934243337045,20.28354861756548,30.757454564287737,20.1138662255238,11.527093331434996,5.088787445097928,11.46297798366328,17.459805978543226,14.986890985967555,17.91043329964659,-3.0885420712054787,33.00328380039417,16.583231156038103,-1.9349575345961847
23.17699889417023,11.839846307585136,25.395824227781592,19.962582710584652,20.422024249113893,4.563141999938663,9.162357569515052,9.462451734689974,13.494047963563716,7.683137615082915,-0.4239083255383915,24.890477913337484,13.226186467985208,-2.8464188127119616
22.856517076714955,10.374105639856172,22.659087111653,21.374554280669184,22.104948455483807,3.936586704454135,7.508555343881653,3.457568439633933,12.559721774327066,2.0655221149197613,1.8056921300948303,18.599242969907404,10.75202151687392,-2.016782097148716
24.64175242203169,17.742801147369274,22.78350376277399,23.550398698897155,15.186986512552256,2.853554048157686,5.3809979779119885,-0.1633088753670172,8.162074998503742,1.5505762900839213,0.619540840518755,14.673699180821991,8.620323384966342,-1.2314532109082508
25.10677459429048,22.085483351040757,20.415673390968266,21.70054592258509,9.078832332848874,2.809288135603163,2.3220511003048614,-6.515604054752098,-0.429294827817979,-0.0444811140019224,-3.9393924298127487,7.65331735177799,5.285779149458451,-3.922689675498895
24.75881561975769,26.07932664545936,16.34691543496837,16.516662417222676,1.2437842943898318,3.917737203948577,-0.9954310767333254,-14.942690948280324,-11.20373357484229,-0.6894919224816647,-8.516418671837945,-1.642748998628077,1.2058518126077309,-7.725358933647868
23.39172548003675,26.12622962245526,13.35257455051085,12.407828680257182,-2.489593377174826,4.422938392717153,-3.328229883627841,-18.944917769425945,-17.26778918795929,-2.213519953660056,-8.9113056513948,-6.001343359816748,-0.9792369798423788,-9.156021509307898
20.33037332425828,20.138464691250377,10.677615333460045,9.83035005489266,-0.3900957743285552,4.61254814595068,-3.794930560406783,-18.89684027556374,-15.28720394526884,-5.360015568176554,-3.297168245031196,-5.720749039610179,-1.195502207078943,-5.810916970302326
18.1189019554192,16.948019694356503,10.172770277720623,9.625136585028269,-0.8111708922176949,3.953276581856415,-2.4196223070590577,-16.040227475147784,-11.838391442442417,-5.492067643732147,3.882661887578049,-2.9118248200090857,-0.4012306358849406,2.6471638573765595
16.599593491146397,15.38632006971194,12.413454816676383,10.297473745623812,-2.1056922702874448,2.066571958239774,-0.0565722616174753,-8.861630519578332,-7.473057793441998,-2.976501850057213,11.076408327108853,4.1007044771275485,2.109383080741352,12.959863227703291
11.220615821852324,11.58760286674825,9.120655375733394,7.862206102209428,-2.61512382030492,0.7952571447818562,2.0473701762083465,-5.798872051532104,-4.051808465836446,-0.6997985599139431,13.32683963753658,4.258280526093568,2.4222408379830105,16.712889562992476
2.106665363150425,6.870899083592304,0.2552136840086537,0.9497278764637352,-3.494812735404117,-0.0233650499247052,2.745661666149317,-7.22313807835875,-3.9256064890162135,2.099266237340624,6.638174917480574,-3.228219766938425,0.2713810263174888,10.361253857440971
-8.517463968178664,-2.228915963557457,-8.525674694506144,-7.17992975485651,-3.2291882991637246,-1.3999621698146631,1.4355630909192314,-6.343813862064764,0.1708000926208825,3.243696355461988,-0.9438109044054436,-9.88650179420174,-2.969093324298372,0.7783706496723376
-21.63676798346881,-16.45523704252882,-18.95978282926059,-15.234619033171944,-1.7798053315350648,-3.031423026081734,-1.5992397340664295,-4.972808025085728,8.153977067458271,2.116350140873365,-10.455812626611236,-18.3220290336848,-8.375789366748549,-10.392587090160722
-29.11668203235099,-23.51050903467825,-25.20024133202657,-20.03460459025606,-1.8022207717379344,-3.833662718239975,-5.14498036857907,-3.3327865998351687,11.955229583809569,1.6095527616991918,-15.491419601398183,-23.304748429320888,-11.012722243969884,-14.95460000278146
-30.051364332584573,-23.465016622173422,-26.04995852821073,-18.550340875574985,-3.175520156884389,-3.8134347556195833,-7.543886740727316,-0.5907685378703824,12.673653340964494,1.092895703038695,-9.230779142663566,-23.44013096414289,-10.612323101842469,-7.414852530082239
-33.28476246321818,-22.30882482529096,-29.56796321173224,-18.404692560019065,-3.006634940178094,-2.2317271343096827,-7.615713874173707,2.377964685432388,12.154385239093733,2.9623497390768927,-1.0834283016709212,-24.12760593278865,-7.411099840095893,0.3309688922173582
-36.97221495798673,-17.280422280466734,-34.33955660697356,-19.714505126266843,-1.6725562385126858,1.3019601969937031,-5.451853606879013,5.812537388222314,9.015986438039516,7.888582542858534,9.625662000588612,-23.779189052510176,0.05538862476674,8.117817074371294
-39.84441857294029,-16.266586705993163,-37.01397315247685,-20.326181907954386,-1.1341832689472773,2.9062231023353795,-2.4192729445702525,6.83309225891998,7.119300859293314,8.547940110702179,14.648812398949664,-25.67829606635152,2.815282922564309,11.36796740211806
-43.15979148945937,-20.188991503960917,-38.64685287687385,-22.783648790633247,-0.9906158156504118,2.611414142050236,-0.2473726425163249,5.072176467585956,5.611609957149664,5.212726803267387,7.129663298757137,-30.70887672759142,0.7262273227704136,3.715159988575951
-41.14551357065753,-21.606119802262164,-37.07033735074604,-20.873492212909078,-1.5259640034080664,1.851125057254896,0.155311830072037,1.671189714431375,3.133551913077046,0.3197186463277744,0.1191145759356471,-35.07745208361336,-2.2582829707737893,-3.2452354128066285
-33.483904236312064,-22.36473417688195,-31.657597075289534,-14.587069966320051,-3.1086606308166767,-0.2814560196257308,-0.7830037834604582,-4.259430770128106,0.46682816501775,-7.7501176853084335,-5.971554024498954,-39.74642313828264,-8.263853455020868,-9.086554063050722
-29.304572276840663,-21.848986365938472,-28.61916587751433,-10.655736465126582,-2.509887832924836,-0.8660870525885089,-1.8351832168289093,-6.778063840530495,-1.031795207676503,-11.971052405634468,-6.777293004208518,-38.97923042110013,-9.796399532560647,-10.4883794881812
-27.803310330800915,-19.002055333773527,-27.676766550086025,-9.119487083077054,0.3312537037713944,0.2844883294020459,-2.037713697660479,-5.476948103398992,-0.2920876584843556,-11.846689384066732,1.14156545918009,-31.709988158586444,-6.19350900756476,-3.1907066479199355
-27.12944112981196,-16.577536935534415,-25.618700974046195,-10.518540597387796,2.1676304029414206,0.6788937533923567,-1.3360774411917191,-5.826464146924116,-1.5568176116995582,-13.188385866649908,2.816881116352638,-25.358929247373943,-5.277097653895597,2.0192026705348134
-29.18219714769091,-14.168183822007055,-23.67035635727149,-14.400610064099896,3.589238530390237,0.9455886328351284,-0.3464624185480716,-6.530022945186797,-3.8406493296116704,-14.413306747143828,-0.310711589334968,-18.51573446613705,-5.468414279930151,5.281593643723654
-25.765231181345232,-12.648079618955226,-18.983398191860847,-15.457642544563411,2.864679370495009,0.0102423042252403,0.369059080843499,-5.808561746265698,-5.141594332806888,-14.873634982864758,-4.015987280044227,-12.983168244448173,-5.305377153943079,4.741824095094522
-16.561531627878946,-12.599346536594114,-11.049083641397257,-11.691738017147424,-0.7565522952746698,-2.5701003898894528,0.7397337477790416,-4.256444143197473,-5.210474317566425,-15.2085664155776,-7.702080043748428,-10.176531750662136,-5.902496114468169,-0.4671901407829477
-5.808212106476064,-10.13603986498553,-2.029111081035586,-3.73984192598556,-2.879344977797834,-4.087019214049155,0.9908879707270444,-0.398110627941381,-3.0148320981111727,-14.843269217003046,-1.7150621070406389,-3.206601841370333,-1.7760053173107695,0.8053182816183354
8.453037421957045,-5.416829868405663,8.88742599318312,5.926470822730964,-3.9382662924190863,-4.787057880939103,1.1809525794539013,6.138424362620564,0.0807775913304382,-13.828453787868131,8.253471579668211,7.387321484408608,7.485986558699608,5.056450781210813
15.846739457042796,-1.8068491428895077,14.839656449562137,11.216067607764328,-5.155700788205694,-5.443540387781646,1.058282870631956,9.220983125345436,1.6128420718721248,-12.547737873839818,12.63886671547366,12.9910712697713,10.43081376183108,7.3209698025854735
15.246894080008463,1.321174053153819,15.000404221274511,9.91291459502706,-5.705978315070384,-5.536704562987919,0.3863403403962593,8.817428197376742,-0.0382630007397238,-10.937557037200351,9.635468410165092,14.279343043548636,7.602771454495037,5.907842415097821
15.689243534949211,-0.0077062021903422,14.651248337448472,4.532219080448452,-7.411672759404739,-6.835979935962805,-0.6682301100630355,8.967071583127039,-2.281049901462206,-6.901915802223194,-0.7841722052773985,14.73340897666343,2.176412791547454,-2.0734315384596216
14.638973511991306,-6.79689407062721,11.975275882135634,-1.6891849394594955,-10.352634263448296,-9.455499499233689,-1.5507642408638276,8.362948374190841,-3.6357098737861953,-0.2988451257386955,-10.496927985618743,12.65329288306592,-8.407293404091012,-10.845945560027385
14.938712383408202,-9.029158338533382,10.331823725337411,-4.294929703327024,-10.900468374476825,-9.989467936701637,-1.752102287456097,7.776053778889257,-3.7758076722429226,2.8463915847686905,-12.7705943693403,12.972776361610524,-11.491817832976055,-13.108956335173549
17.920224900478384,-7.332738630306858,10.475104290605996,-1.843495860896204,-9.200920406265052,-8.625247954272258,-1.2376243331515298,7.672842004398245,-1.6466904745647988,2.5859188257189625,-7.890109432607721,16.23850094374877,-6.317657785514004,-6.938532322736405
16.922065207906122,-2.2383319705359,8.313026916552955,2.161471549453219,-8.878635077734357,-7.339244138052597,-0.4718881847586971,6.421520726591912,2.198651764039613,1.7136496119600908,0.1980262893368176,16.822128959383257,-2.590426974496116,2.719281889868338
12.69953496534098,8.607165566613125,4.714045594508686,4.301078514840643,-9.374880011350152,-5.49087255697618,-0.0398973106593416,4.276486520268081,6.113693664123618,-1.138080509672315,4.438788818200506,15.76298322426538,2.559451452476339,10.74851824414751
10.413141166208227,11.433187781415397,3.119302709671539,4.022888761217171,-9.72700392067701,-4.369890091135255,-0.2152467258419079,2.7844194436819505,7.822728696589134,-1.197920253740118,3.799490838979682,14.789077811532014,3.504555080846281,11.886787634048355
9.21599327415453,5.986478052152022,3.2642070783041617,0.7697260161594905,-10.54152671110245,-4.307172708551686,-0.813086912185927,1.812967329981265,7.142280125782007,2.031976653514534,1.037497301916541,13.116111557299082,-1.3875132814370876,6.315764870448615
7.098298554602972,-0.8898849021354371,1.6289726707358227,-4.612799846587201,-7.739067942521841,-1.6451725509141166,-1.3853157367525109,-0.6311405035058545,4.349676350810944,4.012740080168669,-2.935854942311624,9.984557372642923,-4.029606550263327,-1.1018349082843948
4.8536576116192585,-12.393616390169225,-1.2936028030391034,-8.684868280539531,-0.949697150548723,3.4712641982789614,-1.5570430226388048,-4.3826489995856415,0.5670002535319653,5.837690236217067,-3.493376436863367,5.401846932251208,-5.968128708249934,-7.656936387818008
2.8867172333108235,-15.913621398862054,-2.4866575769117487,-10.315913929459816,1.729101666688285,5.657368230698948,-1.2575049741694286,-6.04317584918623,-1.482267162062685,5.905969483706016,-1.1115477618737568,2.957398650689303,-6.560041130421886,-8.492501683257489
1.088567812478056,-10.066138776108051,-2.358902705737877,-9.1211294212577,0.7921526848719543,5.287849670103421,-0.7254548111277828,-5.734340039956561,-1.3672592974298032,3.4250350051682994,1.3748189887821003,2.775611125790657,-4.425861707268715,-4.4713812638523205
1.0084301798939637,-6.013669530982321,0.733162368361071,-5.683905317373984,-1.5400611564119102,2.8909284140703377,-0.3285409881471679,-4.406093014429601,-0.4408730533159894,1.6063956293350032,6.264210644490642,3.6785610784613656,-3.0700439098980734,-0.645122043446686
2.893757596533052,-0.7226957563495489,7.595212968461716,-2.5805202371312244,-7.013001608338622,-2.783674063576004,-0.3310754508645885,-1.2639299002245203,-0.0086857795859567,-0.0705212111878761,10.433306120460804,6.623970557306877,-1.9571532056163137,2.787939063822801
1.7461956715876117,1.7387197026380712,8.44055460962497,-1.403666622687142,-8.076684009199154,-5.184234128679662,-0.7517105818282062,-0.7928135818725833,-0.7176661149946035,0.1921118415102146,9.651074069493674,5.801961044822206,-1.9113713407172264,3.645494228982193
-2.377701543667704,-0.3880961076755509,3.1639195976011867,-2.9316907183550267,-4.303341397387133,-4.1839214575380925,-1.3816131568909356,-3.273535147054373,-3.125642918381339,3.147575427869929,4.88287508411168,0.8357711152254215,-3.63252457620677,1.4178692013409209
-7.390563428472862,-0.4801104256566508,-2.845237569203725,-6.857574690634184,-2.348270233024335,-3.634930763527725,-1.9308767637175488,-4.519181639167583,-6.623064954998355,4.859614403402044,-3.6844152938318775,-2.58008114474248,-5.339543063640426,0.3444244605954605
-14.43711153326083,0.1388588733978759,-11.802620818116496,-10.44931507857179,-0.6132836014435965,-2.0796505659381666,-2.191736795419501,-5.481473035317573,-9.106338638717029,5.833452434482942,-14.178677579188854,-5.661313493225488,-7.454979616823115,0.3969431004115064
-16.811423168145826,-0.0136195498480018,-14.159027331421482,-11.073466345479796,0.5271027976803282,-1.0919083330517048,-2.116280920597177,-5.50813034882062,-9.990491388089046,5.820061495230962,-16.362006495222616,-6.240961396748535,-8.12078797276635,0.380211898798539
-13.887519791721012,-0.0667306477185183,-8.687063928121285,-8.31135189991011,0.0971379410845315,-1.0779899455057094,-1.786897768642575,-3.91231238317908,-9.552058497797248,4.011559136764925,-8.384883816614671,-3.208017918810584,-6.918895119272223,0.6570060547956974
-10.450530743435076,0.7410158458253429,-4.250008705399047,-1.6398993102254336,2.6900301780147244,0.2184178287889335,-1.3409738422438693,-3.6002368621279377,-8.71777446874409,3.452069668932067,0.8362987716554816,-2.242395755092393,-6.207613245572916,-0.2178619037113592
-4.806047430287503,2.507589026358783,1.5187278272052684,5.512108587292445,8.190439206787136,2.4230635491456343,-0.9219634716374968,-4.339978292832583,-8.880392164145567,3.947496673688747,12.109738851205758,-2.7426722572061863,-5.48906413749586,-2.9934928696825445
-2.1137695401380268,3.4466153527478207,3.8839990035233134,8.30502249383515,10.379543430769733,3.690641179168923,-0.6768999733310466,-5.256319831599405,-9.807418370461486,2.365448941885941,15.781366079918389,-2.5026698737950794,-5.090977671896063,-4.522056941035966
-3.2529758546264467,3.683930630429227,1.2763770886804706,7.754089078870261,9.796039655217175,4.232500589111187,-0.7612040132047184,-6.911182904390323,-10.93458904591298,-0.9097638860145988,6.547664085031943,-2.4957386712294296,-5.405961621721691,-3.35984048529866
-3.042777030598644,2.7528003796946896,1.3468251800269384,4.452051800670715,7.6193347221056,3.876176403363493,-1.297308929606686,-8.845354088410206,-11.358208363700346,-4.336455460634552,-0.239272645838897,-1.6828472213997894,-4.979151634712032,-0.9301163274454864
-2.8219457219423774,0.1799594604668686,2.76731174524817,1.5973319312219818,2.5269139935193907,2.189197898470818,-2.277333589508146,-11.075675201098756,-11.275322614495082,-8.425054936035671,-8.126327751859936,0.1348376124386961,-3.953816466278768,3.2279352680255418
-0.3886238029527621,2.8072986379446,4.443829202142199,3.3797296226592017,2.109729427440372,1.830573479419989,-3.466011377516537,-12.10951623471869,-11.3946565556722,-7.817575242512993,-12.312845474023682,1.416424692694571,-1.1514048553213594,5.7276410899128365
5.134295408235142,10.9439047279546,7.582052219876138,7.375156993244479,6.7507366837748926,2.788651488691267,-4.405171517573592,-11.69977496603149,-10.310355502870548,-1.8031411104091852,-4.72559334942238,2.3636276483180394,3.858054324829594,4.308227718590076
10.8484756074297,18.593886720361112,8.96534178532217,12.729715181332452,11.034972415281535,4.493760422414473,-4.594156634823321,-9.513047409389612,-8.363559507850708,2.313471375442649,0.1969136919808843,6.264129579401353,10.210207792688037,2.548449693023504
17.512385536473804,27.21535202715798,8.582024207135174,16.91580177528102,16.69369208407326,7.607202023742635,-3.8031324911542574,-4.955825832531254,-4.820760072605831,5.666503439475526,6.963173352260577,13.147944117194516,18.385583824383776,0.5771812782106218
20.589480477045168,28.6833974307222,8.702863777254342,16.48153650623146,17.790833811948577,8.680165428130033,-2.3253488655684578,-2.2503181612490057,-0.3379842820554168,6.2482614862720895,12.604997533348676,16.59657450543793,21.41927487429153,-0.9882259688119984
19.27206814745472,21.32428022675336,8.707372326987766,14.463173149402085,13.200225883890257,7.574358641909908,-0.9281416831728108,-1.3876604583752972,0.9988871179067604,2.480976599691071,7.583304802893536,16.898721111426976,18.64555789576228,-0.978326916496144
18.364629354975666,16.442174839189896,9.832832848292265,12.600603949945702,9.467598819143056,6.270899942969048,-0.4307812968619657,-1.958892290100937,0.5502460784663111,2.707758484685741,3.187498634321104,14.844149623761025,14.78528287348814,-0.7728985523925793
16.662363658558515,12.032170874376076,12.489662878111917,11.925632023146898,5.037596490198257,3.9570528002768586,-1.1492917125759448,-5.074885346496966,-0.8318682542395337,6.376066637721442,-4.370141577179336,8.878288250239446,8.011498060204135,-1.094010869528637
16.13631356383915,9.43372220806256,12.877671266169468,13.272422943876249,1.7801885075728507,2.954397460868796,-2.6367526136390325,-5.54894957356061,-1.669445790994647,8.086269502344129,-12.120274649299974,7.200524253543538,5.8109949751570085,-1.249941096459643
17.61385809843213,10.73772437180485,11.158580016591753,13.326072569474864,0.786597268653987,3.5881758529067445,-3.975680039759141,-3.365560584758032,2.425482271498673,9.23707196894471,-10.310138947914744,10.003204654652116,9.20711594412352,-1.0858864403413797
16.13727568308384,8.373073422316793,7.431913177418638,10.29897842023722,-2.0495084881329504,3.281125676804154,-4.429749878539795,-0.6323948841447399,9.141212975353204,7.603968217189274,-7.6312093914081,11.064863269531312,11.386719974975811,-1.942730800285564
12.166062762243502,3.036777154149325,0.7521812066906642,4.63352559285755,-6.075019213038544,2.5678255866836417,-3.9164446624113793,3.8474428377962666,15.373619246366667,2.214429217269628,-2.9627652970981178,12.085165334648394,14.249933977615328,-2.759494330353053
9.361132595844078,1.5052636600357383,-1.774963412991422,-0.6572369274917002,-7.129240706442037,2.478899689191681,-2.890441383601214,6.527136967051651,18.48792464059352,2.390800805851531,2.9419879201546757,10.527122927552153,15.604593585502746,-2.701500852605703
7.007625761443554,2.844271474892225,0.0780099773449393,-2.011278228398364,-5.514013000577588,2.7167517816496733,-1.7618761578262223,7.133251996756837,16.734743083517504,7.977823453735152,2.7259252836834262,5.361237173054159,14.443144803725414,-1.9827524548526811
6.062861760491395,4.610970493131047,2.764010015117069,-0.7876507479747756,-3.7736751119527474,3.5837357789427258,-0.4329842632155731,9.087788459305226,13.56085340547506,13.400999550351743,1.5743920843826205,2.814608916394132,14.451423687125327,0.5869485400072896
7.266555989499146,7.955522416021722,7.999013426604877,1.632688201423378,-1.1441715360383766,5.2551678739649486,1.5555135806578164,11.64636912245776,11.935710409472543,20.570364584587228,2.1134212124368505,2.3070080853322605,14.906165341065996,3.935462229202305
5.422309046725451,6.640424870147352,8.363611471658944,2.507932075445555,-0.2330843445967761,5.674633481240394,4.380733137679769,14.144291470873627,12.640019035308027,20.041981586414447,2.2175665179471773,0.3741939402618605,11.9607317516309,5.185240338793903
0.6530018138761985,-0.049147490828015,3.087463672140496,-1.5277916264914162,-1.6012205916664013,4.80164340345982,7.454834005075433,17.03669257364826,13.947085012048817,10.361027317490205,3.960478959557365,-1.9705264554304325,5.795078161576549,3.824306878220133
-5.87158487887872,-5.442174545345634,-2.3889556768120825,-7.733550580131243,0.264814706571877,4.361427770583982,9.683750479727166,18.71168075552095,13.77680941344755,3.1037976366112696,6.92257216542295,-7.6283914700464655,-2.13761521185094,1.222431818329385
-15.38574723135754,-10.957867177158944,-9.948956938602,-13.509217466085907,4.915782656142792,3.9392308652015378,10.347887508384428,19.042074311709683,10.926358284173148,-3.9312617825169,6.781565008444556,-17.319333238019325,-12.69829383525791,-1.7332341600250296
-19.901360394363756,-14.948322443238991,-12.588339433233502,-16.380414272995417,5.9771579496019696,2.7457512078336115,9.811377926961809,18.324511963280543,7.360870340851697,-7.973618177026428,3.7611816452043234,-21.68591589467716,-18.447667189225744,-2.5720101203236903
-18.966103163360497,-16.213432271524987,-9.168366168170516,-14.240631076036369,4.058593663632521,0.9456666961923192,9.314628824521163,16.08541248339942,5.916944995369449,-6.810761010768398,0.6272275023455318,-20.943433909205027,-18.69478648941234,0.2770693923020289
-17.468036091582054,-19.05943734949774,-6.01457066663396,-10.408711151828577,-1.2652766070103665,-1.821286155184152,9.919891047794284,12.90897358671114,5.889727277360953,-10.724174874930313,-3.893137535826369,-18.773599096677103,-19.31943019473859,0.9642184800371612
-13.46654880843839,-22.84778330016461,-1.2488953276433388,-7.686547251232103,-11.500751411143806,-5.7389322688805775,11.529805692334271,8.662655252924115,6.5813721345366,-18.83376551219497,-7.726576466463442,-13.084318123700337,-18.48387283205407,-0.4017174804412697
-12.18660413150204,-22.735030672267072,1.025246067510315,-6.980066220478141,-14.834919218332312,-7.129483113114608,12.927234034492669,6.337754538423481,6.4698568086550114,-21.04042694867043,-6.333917511807984,-10.739949720982596,-17.251121475718243,-0.8416220938744985
-14.41066617486591,-19.01215771907756,-0.2668182090652223,-7.753812989105699,-11.002322551542251,-5.8127833940959945,12.873891172191556,6.30879837020911,5.043637780021385,-18.58729783553483,-2.8002806502449906,-12.297353271613042,-16.301356072742358,-2.0288399773261143
-14.36540556386596,-13.120548991782249,0.2417394008007555,-7.9189939509263425,-5.578257657689199,-4.08113959878104,11.26668065792542,6.482461706941482,1.4866071906984355,-13.656635210700236,-1.0541185330473426,-11.956574167866544,-13.563256207500364,-1.1477949867145
-13.280393990040013,-3.985424163245832,1.4248308614665908,-5.40136015341861,4.261814138254284,-1.0437241138130244,9.227581317403429,7.690546793230473,-2.189907627440338,-4.306403609221575,1.3428218097935514,-11.26904201253355,-9.425435054996983,1.392813114484758
-11.35299368206618,0.1543204266038682,1.9413022048220476,-1.850682120079912,8.142583929245124,-0.3165744539870983,7.991269531632817,6.454142429980965,-3.5758744711504726,-1.595499626804961,1.6657528168205646,-10.132073242538386,-6.986763062924588,1.7393727016895968
-7.71999996651113,-1.3544071571266674,2.468085017174228,-0.3177598021095035,5.054061120959587,-2.399070881239458,7.649806300433326,2.319121114354821,-5.32141216610427,-6.22444644606688,-0.6947622332883405,-7.81729271958718,-6.237645772712856,-0.0411501839300679
-4.27630934855864,-2.880136219314316,1.915799603139004,1.8496151089916424,2.150657039045726,-4.926227579293015,7.012393160814277,-2.1127050664783606,-4.767723168806398,-7.868114996672455,1.4429650449640148,-5.987024994721959,-4.326055525742378,-0.3377280105449449
-0.8366192401897191,-6.479201178889029,0.1300812885030174,3.49839277932104,-3.1900329383845807,-8.913597804830811,4.775046747057665,-7.770922304465164,-3.631666771387249,-8.878546266622047,3.330098065772673,-4.439498240652338,-1.840795846980616,0.4325137936741091
1.1242090917587588,-6.531707899452654,-0.8959558962158022,4.035385607874516,-4.960294876377739,-10.918250032403432,0.8841053883739818,-11.52533799907098,-5.552026941665437,-8.673929113713507,1.909132378467319,-4.235785208139034,-1.3191876818979953,0.1017833878363658
1.067793054912266,-2.0810765393994317,-1.3198855969847552,6.907685023073648,-2.075352532148036,-10.524037920075038,-3.264713537575304,-12.87439947978786,-6.844694411174183,-5.669417860246093,0.6778564937053373,-5.803194654124478,-2.5571087235417296,-0.3774295759646883
0.7581908994295636,3.0176574979872,-2.0373469003364075,8.163567738998054,-0.0677171646841184,-9.074246811780368,-6.034345134765253,-15.107438204451832,-9.477081693077404,-4.951254717529204,-3.056875165965491,-7.561826309058056,-3.0932200171888216,-2.375887483332414
-0.3355994752150947,10.396370594528294,-2.6779617582938786,7.947252115689068,2.6777726384411498,-5.549963730413966,-7.01298342993357,-17.440982975095174,-12.484192744691455,-6.083943508019227,-6.267093164388095,-9.881366168757692,-3.2971555382822304,-5.34261828457943
0.9495349108938764,14.756878686321308,-2.7250073215659194,8.54571934134816,3.088925622124665,-3.5058736719746,-7.31190027156056,-18.469647145314187,-12.04612973494134,-5.265525830284253,-4.916755147707218,-8.837241480403797,-1.2074150135579318,-4.931847614628667
5.106797987679808,15.446302430317337,-2.172743762129789,8.178642277256976,0.2674242150766955,-3.0847110055240337,-8.39402167905962,-18.50229316540684,-10.628805490843558,-3.211268021289249,-2.0009731135995685,-3.81245649885657,3.8674619722257626,-2.171148276185717
8.807911298771824,15.426526028674282,-1.6555137119333163,9.110662316257464,-1.4300450306757857,-2.6585519351748124,-10.55872900854132,-16.655254790390746,-8.822484278383898,-0.8533065506491954,0.3005597289257124,0.3789417779688103,5.3829658670816745,-0.2470197055965101
12.855152431783754,13.217740436688636,-1.073237544250089,10.993320501009917,-2.855557413982797,-3.0922939274524865,-12.545402964292675,-12.583147789969946,-6.8264893905590025,2.39184974625894,1.7002876650494674,4.67809043013855,3.593482700746308,1.0767200032105655
14.191022210953832,11.43077664012963,-1.098802218326253,10.964873040306877,-2.737912674821453,-2.72678103587832,-12.644781199563312,-9.76500542769706,-6.0313592926709925,4.358762754534353,1.9128940801126488,7.18457373232949,3.994116154316575,1.0171072857857313
12.046694775704704,10.29186080977366,-1.922208703217715,8.243256304269591,-0.2504772975525678,-1.4340633097420905,-10.281603938440924,-8.128077020407277,-5.207773684627379,4.862738900085497,2.45093303830466,6.916448839075319,5.490101626748681,1.4107776943450414
11.021090016593524,7.996686926108562,-2.4311012802562217,3.6749283145681937,0.5947891629542653,-0.9805864674484164,-6.611424364106085,-5.526688222828608,-2.268556261741166,5.546738043268623,5.473102934529354,8.481252953930118,9.625306872442716,6.412141152514414
10.327651317454356,5.153440763358368,-2.803646885394142,-2.022185071282455,0.1740615208206491,-1.0492008063464602,-3.617392091974836,-2.659289702312288,2.530285443048695,5.893461073939218,10.470045533245251,11.302990692226382,17.488636277793837,14.415727221710226
9.020667491219855,2.415692261037476,-3.2290855365083075,-5.711833288267565,-0.5287420837784552,-1.5830862305005076,-2.568840675226326,0.2170800226640722,5.991870302341314,5.970970449386045,11.48729488971183,11.638879245025056,17.49235768850566,17.08281706956544
7.809909643998555,-0.298543473604081,-3.52497285839814,-4.670472102623394,-2.286074606515916,-2.885531436899395,-3.215568554696162,3.28332751986887,6.787198517391195,5.943980337123391,6.060514936931892,10.023488777381584,9.447825812790388,10.594020645865472
3.2084516875453546,-4.262623707255735,-3.8113384445574927,-3.889252217707772,-2.6902965927610167,-3.373962014644187,-4.32032829272174,6.1322689833198805,6.304202791227024,5.569655828650047,-1.5376002775664614,7.053476208547735,0.6789952201087198,-1.9781134744699505
-5.039491322051651,-9.442918833353136,-4.057805152155276,-3.977349163325637,-1.6406167581584186,-3.027916441520341,-4.8660588235115085,8.720880739666779,4.63005374500045,4.912255222035891,-12.417906734324689,2.017911688718098,-11.370856583546646,-19.27645975350443
-9.01829143026093,-12.254674326497277,-4.051892408838707,-4.553245851230693,-1.2609021364523136,-2.3801185976359096,-4.734823918825008,10.810789487824078,3.7298605788388217,4.070090455241211,-17.54001081047001,0.8480970865068763,-14.629624676806072,-26.37316686010606
-9.005318072129413,-12.670973830334592,-3.779708289200016,-8.122312897064036,-1.0719041108150655,-1.0433992469623643,-4.307843945372696,12.246932084401609,5.258268866825787,3.0293340510547164,-11.39550040919628,3.941176402045964,-7.265476597524348,-16.61341966087357
-7.05093344430614,-10.94172693975651,-3.30705738328947,-10.595928603230163,-1.046922391043435,0.0670240716556212,-3.585637301571836,13.530651367812627,5.641019056601177,2.627535639709248,-5.472840167071961,6.107518944424575,-1.954524120613672,-4.759066358802837
-1.3139461369720185,-6.069391327236454,-2.571741853465431,-10.966844167936364,-1.5014857262337906,0.9291487982790584,-1.9029279061116569,14.5562147503217,4.355168590250147,2.9735747160855013,3.328555620049257,8.671876439040991,4.314674410311443,10.004469691679638
-0.7996891018330349,-4.635832942543619,-2.417164975771739,-10.778522685287683,-1.2199984979112686,2.045588044786833,1.355253547298048,14.497239852865489,3.1058440614375757,3.7447600886765153,10.038747021763484,9.161658889156298,6.416254936416254,17.746413653221264
-5.973370820293752,-6.818522068383175,-2.912500675412538,-9.63081981108554,-0.2277528927307788,3.2164035631458248,5.753618943995697,13.341974911069512,0.7631248689872013,5.204468039550757,6.992901221398799,6.639263928397383,2.0657597775028167,10.496246649294436
-12.104604605726434,-10.88382964700961,-4.803062664770099,-8.548953578102314,0.0640928749728694,3.649548336348546,9.652120966384878,10.83719540965696,-0.1864901580396426,3.947685332701092,4.266493413229184,4.775818445363364,-0.9264595516348896,3.279668068332
-21.41522959973265,-18.556403814369737,-8.438931446386869,-8.247106497951744,-0.1773923556663311,3.289553605799481,11.267444840104028,6.71327562332529,0.4789402150759672,-0.3114413113840694,-0.7046061128027408,2.78124650223073,-4.359858610636355,-4.927816774189893
-23.239020267641997,-19.3409083314575,-9.345111898956787,-7.726379392913027,-0.4901192515865514,4.064942740581248,10.100226061951368,3.301152417662499,-0.265986542945457,-1.7435099185412783,-6.723124245537258,1.0915448897109228,-6.09148291908777,-10.026275625325423
-16.438686739481145,-12.662138881016462,-7.473066561451295,-4.692008597922395,-1.1285649696267974,5.911033006905673,7.4078943050536274,0.6153464670169301,-1.7394274457576888,-0.8553155916395168,-5.695036186607435,0.2884706706107749,-4.839486630874855,-5.009581516080166
-7.421786972387192,-2.0937802290966028,-2.8862225820061957,-0.4895664789933408,-1.7896301920264062,9.42947772143221,5.196804493750676,-2.520801705077935,-5.50923650627482,3.0408700165052656,-1.1974801751612938,0.3895690867423891,-0.2663883358448977,0.8169775858573551
6.692956202000811,15.19145979757154,5.676759895234838,5.186763703599885,-2.449843134309694,15.18416854820824,4.5570424691179525,-5.57815200801761,-10.428155422547434,11.350164302782378,6.059460345028588,1.8144975143307915,8.912456525878223,7.118079047713084
12.786410946126736,21.525600030552752,9.62682849199867,10.1216611940649,-2.0115991154347874,17.180504625020674,4.81065488344542,-7.7806283578945665,-11.976752152405778,13.48720226035213,12.450847004485423,2.670789498128832,14.316425873675485,10.979872241384728
9.40497974480542,15.725746361407776,8.783709478405626,9.732802167053183,-0.2751485753163283,15.288988786238102,4.256018464353524,-9.07622411229829,-11.465264910739476,9.333558424546808,10.360340799622549,3.0346815468925845,15.96927300550366,6.014538786030886
6.202986295263808,8.376773209343256,6.249488269121225,8.819913571371638,4.06994894468167,12.88617490967023,1.8576962775797463,-11.49807526139924,-10.028775057768364,5.553430621706605,1.3511558628370617,1.7560148733618586,12.462448716243532,0.3960063879609776
-0.2053363491898913,-4.936418862374449,-0.1125785793675683,7.182024409038731,11.58171902769357,8.588802353558314,-1.6564477895951466,-14.983581853180675,-8.660693105936232,-0.1418188886505942,-10.29513413557716,-1.752096005337544,1.3708723710896469,-4.874515256810118
-2.037898707194805,-8.191098926463027,-1.7579654877354811,4.649176530990188,15.3767035599092,6.48447035826218,-4.340518001165509,-17.22358006074278,-9.307869394254553,-2.292113897129032,-16.870637751074845,-3.1392919049856616,-4.064232260876118,-9.06698484333734
2.2187519096777124,0.6610358616931886,1.8367457183712856,6.080657268864664,15.44171394080964,7.146963888476059,-4.7890170784518284,-18.513062421690908,-9.524561428661851,0.224702712662679,-12.089919822845903,-2.611887482477059,-4.257366826743642,-6.603481473106433
4.733855283028651,7.584270752692237,5.294141818353856,7.532892659346505,12.215460203187774,5.9902635831281925,-3.529529262092347,-17.22306190933485,-7.787450204637878,-0.6932512423911843,-0.424224948445856,-1.3805109286991122,-1.1388755162944948,-3.4052073463241475
7.5935143185761635,16.59715686033547,10.659701075548124,7.498680407565639,3.8288161104293,3.953475993480744,-2.727432829518611,-12.703006769907336,-4.181550789636254,-3.8123519812924624,11.894382463391125,1.5068611606076447,8.461871366739132,-1.7067308320024372
9.41171159954488,19.435252233083546,12.610300078355516,7.887577521849464,-0.3916315968350089,1.9840533643682683,-4.3777242829153,-10.063901881709391,-0.5476725098067923,-5.124825169594862,16.66904544510901,2.757254611510397,11.366856702673353,0.3506960389986545
9.10680261951677,13.693697356834122,10.279072344875464,6.124144155054819,-0.4293530391342878,-0.5459422064956336,-8.551766937475568,-9.0170489552256,0.4661688149590496,-5.737434449358671,9.922578143924277,2.2253323075443348,7.466979136167826,0.6444246489582833
10.333845489638934,10.75218157336687,9.673732997963548,3.2446490189080786,0.699519391723309,-2.992351894930409,-13.249565936199154,-7.300927041118199,0.3292871671114504,-4.20650583457327,-0.9826321785241384,3.3106724586760743,2.7241246737731246,0.5124200702740853
12.559019967220085,8.275194516693832,9.517965341380176,1.810518656802148,5.226281696044721,-5.337822752261001,-15.962673866858651,-5.923014117949489,-0.0335556271554032,0.1672074905040619,-9.510825421492951,5.399646763134249,-5.863952174200235,3.664601479173342
13.518318103825605,6.983365009772704,9.538775632531324,1.147566289684243,5.633180785488039,-7.007513138654989,-15.541132166635313,-3.451621992103884,0.6376475636109165,1.133282975341244,-11.111344751880909,6.2710325554182935,-8.05799918647644,5.739530457492769
13.65059550818695,8.702908205422506,10.626841332374523,1.3639252055691478,1.573009971672373,-7.780403784035435,-12.789030100777888,0.3341864460943823,3.781744128841975,-1.1984619247090138,-5.329460238091516,6.293920197292268,-2.847660498571911,3.8734368644289
12.12724892369722,7.016060731629369,8.980356438221191,1.1317977567995816,-2.675481508081744,-7.180552892952595,-9.476554395957656,3.149412464355612,7.687655461110369,-2.9257149253488635,0.5412657170704693,4.487059205200288,-0.1959068189699525,2.024636413910454
8.453139758467461,2.3986557385649925,4.58062842566609,-0.5057874120969034,-8.877758957246481,-4.870739832566086,-6.85265097210568,5.240446998915292,11.070570326060512,-5.306722418747968,1.1115150965764649,0.3081495272551711,2.184415145101172,-3.4836019995092133
5.199677560983849,-0.9738637598805026,1.286670379693449,-2.092951026915882,-10.739317692940034,-3.7791615153865457,-4.961177497803778,7.200764465322413,12.636578006648438,-5.988610470737831,-1.843658297167416,-1.0567180284533084,0.7759708479045205,-7.6393559802530016
2.1367165700322177,-4.118017429925335,-1.5412951472566705,-3.722125687969647,-7.43393306339387,-3.871112915579957,-3.0794931984943297,8.60065994454727,12.264030253960334,-4.346244706958715,-4.5866122239836695,0.358483373335001,-6.229327745312694,-4.411920033165885
-1.0310865891233016,-5.937095166561656,-3.425447200321845,-4.7174584675757485,-5.243081080135693,-4.321413132479436,-0.5547979408735593,11.17045797305199,11.10515826773971,-3.943122655923811,-3.526502739347823,2.087126279862034,-9.04553066502539,-2.23818598844144
-3.76628239544469,-5.703882448476988,-3.598987251916509,-5.719487652645285,-2.6562212649437877,-5.831868119021391,2.7830614235762035,15.021131849840929,9.572988184907016,-4.186850019492391,3.931129516629533,5.286914681437493,-8.578798961747157,1.2859267521899174
-6.359283572621926,-6.796036134265687,-5.430475973897728,-7.941384004330342,-2.6251916933420723,-6.155476618003658,6.750796674031335,17.271514246846976,8.323570746002343,-4.581226275671348,10.867625447627184,4.609284898470195,-8.09240621181367,4.930754500367821
-8.626957628936527,-8.885343649212267,-8.724602383300597,-9.26762450787845,-6.3177449221954936,-5.22796057045846,11.021426628611572,18.154331015805084,7.061674473013477,-5.708958572756761,11.015719387407318,-0.5300544281608139,-5.774968786435768,3.386019917365769
-11.427964830372796,-11.644219632643225,-13.404408947720874,-9.311076086245594,-8.001552467118318,-4.092490390996479,15.084589648945096,18.21802648179372,5.808551521108086,-5.917361731150157,7.021170863903037,-6.158090046921187,-6.18306207967997,4.069675635197734
-14.80304826882601,-15.76653083137275,-20.26098357894095,-7.915318435395758,-8.511785586247234,-2.2212515167647666,18.13845711751553,16.848043063721224,4.237589655162314,-5.202108244123112,-0.4186619379257159,-13.647391317789763,-9.710409394386437,5.8533526317999325
-17.01191518263409,-17.24860343360621,-23.062934272933184,-5.671063005830033,-8.745327925020469,-2.004525998565825,19.281907944007298,14.970345896191136,3.151067958190439,-5.206994205437764,-5.906115353342535,-16.684064022679564,-11.563954768438249,4.979394230944542
-18.13130403697232,-15.967005800780168,-21.589449083975563,-5.967306293638497,-7.71527172467226,-3.6772171784761305,18.028012576584672,12.49441666343041,2.775338840501828,-5.661587152273194,-3.748949824555541,-14.31254304811728,-12.67076359301869,3.766034908319289
-18.45962893117616,-13.10186011561908,-17.904276303825014,-8.306701556433177,-7.615294426705469,-4.75768610383211,14.715701984686884,8.165036796725742,0.9434995177894632,-6.725586906243938,-0.3876054911447011,-11.49371581732968,-13.558413635134078,-0.298254975054516
-17.584684879324953,-7.612185778549444,-10.380921814690655,-10.630484350972784,-8.398533455216358,-5.771224476668802,10.389393845765111,2.03306072536395,-0.8336968665694031,-8.722467811551011,1.387184600307796,-6.483827994812193,-13.482475852535408,-6.584424108983356
-15.568772820661652,-4.504404470886271,-6.033362748546501,-11.13415548764102,-7.350870644957623,-5.033166618356316,6.169175151501186,-1.3162333837354232,-1.3180831023990591,-7.8809683731707585,1.6070622212749226,-3.531392094418605,-11.971148442504616,-8.87605450445652
-12.270516777713082,-4.025753305709278,-5.225124878381115,-7.792681730262045,-4.736655659347283,-1.9838201378731437,2.602680596002628,-1.7384202676956495,-0.6229850242588733,-4.029788607663286,-2.5397031086130566,-3.427934052763081,-8.74205058848401,-7.130452933013782
-8.017121010405043,-3.7938758535400776,-4.339483717321198,-2.98847990388686,-1.218178176995328,-0.4186531906049707,-0.4727375804328808,-2.2021522030285707,1.3874964855944407,-0.0372344103218656,-7.738033287007931,-3.5949521699133813,-4.6603379710493575,-5.048351165158051
-2.760162369682053,-5.062154895799396,-5.1057482521898985,0.2387317039977411,3.7497288543418414,0.0396539667911502,-3.4572352699466684,-1.6410370923717197,3.2945704426173865,4.943000168370345,-10.620729582360235,-5.330965943222113,0.5126840370050963,-2.7670309563864133
1.1365368609217843,-4.21193123585961,-3.690105876645664,0.6200054922565438,6.316137494034827,0.3717642546370203,-6.334229621753622,-2.095377957505377,3.163471813910804,7.71420471270635,-9.448309988723704,-5.20295967713031,4.35075688179044,-1.6796508710195612
3.37192773671014,-0.9281374860282556,0.3144020193832179,-0.6176092939288536,6.19750445946678,-0.1459598656096901,-8.446079710596955,-3.993749971487115,0.9763667943795968,7.6326579560056445,-4.324285650196026,-2.910689912605177,6.510387265884072,-2.607394396756133
7.213103436922238,3.40279218171014,4.950652961260035,-0.5425134779491393,6.109245891263924,1.0694253279534391,-8.96144631718859,-4.359311171186493,-0.8013591697087474,9.8636395891369,3.1691901520629147,1.833572966259616,10.876267637598795,-0.0332479591759205
12.163271354566136,9.7760735147249,11.246038031443614,2.150955334903853,5.1131353067916,4.163735301786828,-7.678639323624688,-3.6538125727665114,-1.8267011681976384,13.713184307128271,11.414764939577717,10.134721294232865,16.982192818928908,5.790614751249052
14.421222643426663,12.634974455255154,13.812757131226832,6.2381914021716085,4.608651753714846,4.084188952748434,-5.447615556894377,-4.141614193632982,-2.3952827871265137,14.646685242070204,12.8654839487072,12.98584269174546,19.19327851880811,8.53111271269525
14.215696586854376,11.600408596926968,12.151477499221093,8.00617142711952,4.954014717042023,1.0856958311217615,-3.7557372246584393,-5.503151264259232,-2.6009210236107347,13.22206310500887,7.654118418522173,10.184585947196338,17.73839566075457,8.007574281179066
12.895634072092696,9.76430801847262,10.626457127546685,7.584139531153744,4.208908438056806,-3.1524519285931047,-3.724958407264516,-7.156234307091302,-3.4415694520502784,9.124550941615675,3.718896606821251,5.701457945935132,15.163555915690592,5.664409409378411
9.640354595126215,5.71453280064729,7.936843288739376,5.9925521697997794,2.7276425760291843,-9.723806175202736,-5.304645867985695,-9.515606067847663,-4.73025388720513,1.3350025707418367,-1.1231534177662508,-2.64799307201468,10.257999472730743,1.2253219784700622
8.119230306725296,4.5363948098019184,7.348960797427281,4.280902085235613,1.7777907128220245,-11.182914898497131,-7.314064814174754,-10.278337289144778,-5.29872129425561,-2.588198472011715,-3.1659402058263995,-6.542855816415408,8.028718375250488,-1.5119190485348375
8.631111524356479,6.798519693778893,9.659330649211675,5.829640419782909,1.1636632938667095,-6.903932658698625,-8.298230641480384,-9.265784275035347,-5.144822421358558,-2.511011046207474,-0.0931745011374073,-5.2671575717853365,9.025837301620951,-1.3029696860257425
6.357114520704141,7.869861020736457,9.012063073547765,9.00629276954839,0.6904542177480657,-3.359766948008696,-7.515236350295359,-8.644886061799532,-4.919737729245937,-3.7903683759570144,-1.810886747555284,-6.32180138090748,5.060151905876399,-2.31946979276943
1.9640400507743527,8.960712954612257,6.115818610963335,11.032374889033145,0.5986547042368354,1.1801553024477411,-5.319634423888594,-7.90936685924185,-4.846836736701498,-4.826194162964319,-4.300356461670914,-7.8350337817569375,-3.047565487446063,-4.842887268523076
-0.6041524737292474,8.170131767295501,4.162272378963856,11.071897162973276,1.451547295399403,3.909993390946442,-2.731300797518598,-6.548863250301025,-4.968625433019904,-5.2714662212842,-3.667370116582664,-8.50872114396395,-8.005639089888351,-5.377094163625152
-1.900291296304024,4.718779141323816,2.276804960567209,8.274556326175311,3.3805808580037944,3.739555265121137,-0.6037436853301572,-4.8222159506981255,-3.974366092724693,-5.675603870366048,-3.6184717881156665,-9.214556431131996,-10.869106460950576,-3.8563115477773375
-1.6582185987517477,1.9950593431974777,1.987005667970681,3.6953848432946055,5.513978549235916,5.822386253660786,0.952591037508213,-1.4593805104631714,-2.8420375358926044,-3.905495834104916,-1.2884176736411546,-7.466037514887583,-9.161245286965327,-1.723832221788013
0.9720475455961098,-0.5747251100717377,3.879902019249677,0.287097887349926,8.006172699066134,9.359083559252973,2.4956625716437606,3.6893110714831954,-1.263602073714714,0.116095336569241,0.9218040586943,-3.0538473204925056,-1.1440581463945825,3.152206632835117
1.0565677377534863,-1.8219526599088551,3.841214298189324,0.3738625085358036,8.7558071341303,10.466601589339756,4.639063989741148,6.175805943944209,0.5740583146695325,2.2812172705247704,0.0820870339634176,-1.2605159796758485,1.6531189335381726,6.198335903356072
-1.3784532342198177,-1.038138417883678,2.170870613021852,2.212617322129801,7.395971995784746,9.685960795515411,7.403640088321937,5.972259805092217,-0.2799625131209262,2.784649983475863,-0.502634430089939,-1.8524504270266675,-0.3184365924968637,4.831282660329937
-4.102852658142076,-2.069808235294325,-0.0808697310054931,2.8080518526423925,6.501831651592314,8.702714422294456,10.048622479632026,5.391465315015687,-0.2222469789221184,3.3833128072973637,-0.0838965500229467,-2.993010972999991,-3.665117804318234,2.8022386958657184
-8.218163519647462,-4.607135089700992,-3.762863900333457,1.1740721957460851,5.546369554641047,6.872039650567373,11.531801296352413,3.4137597988008515,0.5131864948529488,3.2194426348672027,1.837963643169628,-5.833288557743924,-10.936982469746743,-2.3599822115548807
-8.797880455697975,-6.262389979722605,-4.762163670497454,-2.1964773207879977,4.1111487646858285,5.259448120820412,11.266014313265703,2.600873577435204,0.1295300925434899,2.8407942153963783,3.787342772319501,-5.38310597373694,-12.018282496204062,-6.789692100289641
-5.335860399854115,-7.660361601338781,-2.8309066722127603,-4.128100121707168,2.5585860454390974,4.1049323387312375,9.59995000039028,3.282944138071,1.7470557760542813,2.3167275966003067,3.241944356751122,-1.2589668310808964,-6.348706395853584,-5.791926645898532
-1.2463368266741073,-5.855419975847754,-0.1147480917540031,-1.928009632750052,0.406494897818099,0.5872739172288233,7.646196236845632,2.364086180457676,2.005051897944813,1.8705502528253184,1.636713975548624,4.4191863201940444,-0.4287878760521371,-2.6738789529502083
4.740302252213801,-0.2161324018265031,4.422423498819758,2.90098315780778,-2.329771510864362,-5.1775787361210766,6.555440995226978,0.386187835611597,0.898797930833963,1.6791228615000564,-1.015688899189754,12.999834585007804,8.114473685494778,3.3649383021714385
6.4212821955262,1.8192561992389693,5.966843647167468,6.291632941852077,-2.9630474175360457,-7.898267040409808,6.735855497050089,-0.9270176515644536,1.2884255293984448,1.61770462271464,-2.6843307533963374,15.968576902612574,9.53641409979269,8.302411296179951
2.9470300668559197,0.6434455078571675,4.022993178015065,4.743635840021447,-1.326678073077356,-7.744990704050515,7.555089185526704,-1.9429855552248865,1.001952576157528,1.8402061483170105,-1.608522087653566,12.64059442700173,2.388245295591872,6.283565704482021
0.4864292049515629,-3.033577101436919,2.4419262197632845,0.6463463959719103,-0.8233103862854557,-7.758477693672551,7.74573772809695,-2.071170104820156,1.727063123283084,1.596861547989807,-0.4969998568947443,8.021788035454296,-2.736512940411122,1.257145010163626
-2.493023923139732,-10.97389499870499,0.0336935097262132,-2.897469390217036,-0.953046247408122,-6.857979640254211,6.283849539982024,-0.9515174874306906,3.2209575007776703,0.8713930467760173,1.1139663681675511,-0.0914161023825178,-8.200259828389855,-4.747494588807241
-2.2029949766520995,-12.077209507958486,0.4509013773114129,-3.222062431068258,-1.1352300728779865,-5.830995789527192,3.1800600169752453,-0.7382712480178945,3.0702160300207995,1.2189165330307667,2.566929871975753,-1.787310783575338,-8.076188578733461,-8.255552675190847
2.565161373374909,-5.988541803622375,4.449184163817728,2.4579452243077142,-1.9725631900326548,-5.003667485172661,-0.3797864109517448,-1.2989361638062962,2.761891061205406,2.5868126891530867,1.9635335036053991,4.071391977922598,-0.1942662827971605,-4.990410249317015
5.469267617474273,1.5742510317598777,7.462318414457056,6.9039926121594775,-0.4010742387121339,-1.1908348516292486,-2.7298906141089088,-2.497868617329285,1.6984495739640404,2.643817766857266,0.3478093523901273,8.96652259572193,4.440547284777264,0.4278119150110567
7.53886868919572,13.26026884112296,10.421937414197387,7.644336233279954,3.736881426982472,5.577981768425641,-2.8433438384066534,-4.833750216096134,0.2588027500767738,1.555788158202452,-3.084621431563641,15.351128942176633,7.488330714164435,4.004339922120443
8.817332653113123,16.619548968459515,11.015421615809291,6.431503158976775,4.817272581994066,8.435489255191241,-1.0782590884406478,-5.666031686741938,0.0742957523072178,1.1077015473091192,-6.451359503682467,16.96357884928314,9.40937882199086,3.9697102793410495
8.171430676774623,10.292591186926447,8.288929334794435,2.126804466610762,3.183560307522182,7.537175228246333,1.0295725378268443,-4.963157170565975,0.1767885177811408,0.9209928588095022,-6.400357595710107,12.21937056987437,8.208207489148268,-0.3633634283725846
