AF3,F7,F3,FC5,T7,P7,O1,O2,P8,T8,FC6,F4,F8,AF4
-10.764371816035425,-4.593988843797628,-8.351776950046427,-4.008240399134724,1.0731010719580638,2.465932207551325,1.2518955610195417,2.32566061478531,1.4209872259258312,-2.6458548959713166,-8.263254024599322,-6.341268104633595,-12.48998794727661,-6.564885434271888
-11.864634079770168,-4.745551938786648,-8.291174324984857,-3.319979316068948,-0.307527499336274,-2.052627122917781,0.9012520367757856,1.8726984850997648,2.538537753183274,-4.111884031320038,-9.274628255683844,-7.394758998033063,-14.322188349279836,-13.76532392654215
-8.046173161430614,-1.7208846367169537,-7.275062124199533,-1.2646289624264015,1.5598326696324527,-5.332261384315292,1.6215504470833175,-0.055237953187138,1.6370304468732186,-5.750988767312283,-9.129051713760273,-6.017876969188938,-15.774096528571787,-18.683266129777405
-2.9221786240946663,0.6695711982525375,-6.1933637410641,0.2613706301114605,4.284534280358496,-5.268420905843184,1.913839508833444,-2.530434335238809,-1.4785026939427972,-6.798578899422703,-9.095113012077562,-5.102130996774628,-16.435529338990293,-19.09045869657536
-0.9582805530953244,3.082801913788054,-5.277408846674339,1.185547360540337,4.617944873787938,-2.888750725494152,2.6754663488151307,-4.85859554953268,-5.892555845814133,-7.036689327886993,-10.457275630452711,-3.59505134539356,-16.16173502846637,-16.12647743350641
-4.055290276592391,3.4823693454547784,-3.677872508856205,1.369313389922999,1.580368081795065,-0.352095753081635,0.1494836925010555,-6.642749966792792,-9.791756940949718,-7.712931224239379,-13.00261345963132,-2.5653899006615,-16.937508943887654,-12.954735002719463
-9.902302327065502,0.9980952851575804,-1.650777894658135,0.2561742331031854,-2.5326125650246816,1.215306737473491,-6.004748501931795,-7.554275857388124,-11.32111495198891,-8.623516457734361,-14.796286703819018,-2.352476922403714,-18.75918672008696,-11.873328033676218
-13.618878385086116,2.5907844320789097,0.2997352542714565,1.042797098154933,-4.140127204515277,1.393244473193373,-6.939704332120838,-7.248518239441079,-9.748820456652089,-8.32208248764413,-13.641899752081002,-1.2284780912544246,-17.76329925625928,-12.556076777110208
-11.521511432350076,7.939152498960272,2.203551052536828,3.698592292878253,-1.4648220503860827,0.8151551212830694,-2.952403254873434,-5.575110552673962,-6.069823860543572,-6.883748234228996,-8.99710260669541,0.5393010876853381,-14.100627831512275,-12.836162965007976
-3.969672397448061,15.441308448939488,4.507810236227702,8.36333205676085,4.0554583348548725,0.68285123301971,2.621699505239174,-2.84380147185966,-2.3801415893906928,-4.818715626275403,-2.5845167224170176,1.8169369760671463,-7.821217125677268,-11.007838954210827
5.021034415096253,26.6632445287992,7.122274578444824,15.905776022017312,9.107054784001658,1.2683484754821384,11.738025206484124,0.1722241596747409,-0.3755315573673101,-1.806923804174007,2.8837693130442936,2.804715089507477,2.0685674154118314,-7.372211222932364
10.937327873381316,29.408595249221964,7.915373106320998,18.029373009573547,11.162205421885528,1.7209911130481943,14.0599833306209,2.54981379263133,-0.2221633376428649,-0.1471094273619798,5.68051344868368,2.434486759989628,6.31904215236386,-3.7384830679722434
11.94734525706049,22.85062091208284,6.743137139888394,14.413460838278915,10.078291745411576,1.956145782721817,8.688811065451764,3.609215560672265,-0.7846799411061589,-0.0400308542741511,5.964753570595516,0.3799066603077008,4.523840688333205,-1.64475360324046
9.595749623034385,16.142897080888414,5.639142337127568,9.330323036825066,7.54125982151016,2.466119245971789,3.629318781707907,3.13206444814292,-0.9169601586154528,1.0010911861349514,5.006688801891997,-1.3161131489640747,2.0694533155164687,-1.123711830978575
6.889287121393092,6.404181727479985,4.128039092013012,0.7476549538236321,5.314947470294772,2.3774856441251933,-3.619038294860593,1.3668798198859236,-0.5084598063648649,2.4871114478697525,3.809059723357628,-2.92007222991774,-3.2724514032478464,-1.0300704760166006
5.820366827820706,3.0056657323041707,4.3898889441514894,-1.9953447674262657,4.074981850206708,1.4345488161280626,-6.087382065603649,-1.043741171234366,-0.2969312513291662,4.491385147812625,2.6295342658156464,-2.063431267945354,-2.8603346113265133,-0.28676085533003
6.425596429928387,7.800375322498225,6.942255497502478,2.088162015016552,3.6121567855857455,0.0586812599108057,-2.2786479029276325,-3.156348071052488,-0.7706698023117795,7.431379354980765,1.7019834511711416,1.9041194210552888,4.417885059567405,1.3557568175948056
7.679226992406697,10.272661420885427,8.733751870870952,5.410204585018897,3.660019535440405,-1.7983671612851646,0.9871504935483468,-3.970690649379272,-1.4153312035045396,9.673389807876877,1.9889788101694776,6.23936804555653,12.217696461412697,3.668408097464411
8.82945983598984,12.8952625979307,10.335632279010015,10.28092601532041,4.166633396039092,-3.0712729618106227,5.703230068737075,-2.933386564547966,-1.153726841600232,11.285444815668928,4.719181654899167,11.683518720722692,22.84378907079508,6.687629358189319
9.755974747975138,11.86946889966574,9.91709553498171,10.483869931869927,4.788306035068501,-2.4712779894092307,6.764396946803409,-0.4762403234886321,0.4504242157478266,10.595819781084154,9.903285747481,13.777514766084687,27.432684044993906,10.751349893360151
10.289329845419465,5.347681819162095,6.782675202932437,4.61190036208708,4.497517197134226,-1.5043694577779712,2.9362088532018853,1.9398862190668176,2.48045763390974,7.031805234805738,15.42478961407506,11.74490953746473,24.65651746080568,15.662271049145492
9.616590960558955,-1.6449768588851752,2.472024916694098,-1.262902891552241,2.148199975829684,-1.6527144418223536,-2.6408277146688786,2.6131905397627357,3.2496972655265104,3.475357701468917,18.055136524397,8.254647182277282,21.01772166067414,19.990357108308203
6.720805911059156,-10.59769653754455,-3.7407169589199274,-8.956980495919225,-2.3127782518267583,-2.850695766851456,-11.689019574175074,0.8515454896260479,1.723967860453751,-0.5696968810453552,15.914857901253352,1.920893179435381,14.046000381832066,21.5756254310539
1.5735336297578009,-14.521626993681195,-6.208336493524037,-12.136508240995775,-7.236864535745981,-4.379621875408596,-14.80811004095408,-2.2880665508566587,-1.5033854436442056,-1.388746677795096,10.27262307204614,-0.8911471253519344,11.615716548709782,19.094852577899413
-4.141639753425551,-12.220989244010678,-4.363296574709295,-9.545592591265557,-10.132338598868168,-3.4718749581434687,-11.187938087996752,-4.540353020692564,-4.579526047578266,1.900297041953799,4.879512689927031,0.3968697763338834,14.892879959851316,13.35664185297646
-7.697174124904398,-8.731343636547823,-1.0008275908320785,-6.144148561374349,-9.467504361711052,-0.3466399829703005,-4.987765769876399,-4.009578116795845,-5.776318091000194,3.4820670056488083,3.1728542924210164,3.5008607828907525,17.185532683276605,7.070481180614156
-7.05768577100566,-1.9955006011916183,5.467021758933557,-0.0318575897762422,-5.903367511632259,3.7176392276274486,6.386108364961167,-0.5894169132849143,-4.669189914977944,4.281062246881719,5.683046207518672,10.238760408635178,20.5668542648244,3.1553884419280305
-2.3599936211940182,0.7080956210058807,8.49232665627778,3.156332420533845,-1.845397959483983,6.421404159481187,10.330824106803645,3.927024957350289,-2.159400861812389,3.78500391023614,9.87890977541159,12.39341354792585,21.024709471912495,2.921790012860045
4.040743158262996,-1.5551073062084786,7.54814698817522,2.589569545439389,0.3669583477261824,4.576789953421045,5.898039015032027,7.119981340467235,0.4796072939520988,0.8764311284120537,12.499174976073588,9.54122499889872,17.503492726520196,5.491541534619323
9.005021622192686,-2.0269464664642385,6.818035267870046,2.2112664196677816,0.1692085965137346,2.020286176193593,1.7957526192683104,7.5333040732256675,2.494489559879182,-0.6314973310161875,12.197260799873472,5.45703883493058,14.14782186160997,8.70648247583547
10.4688500536968,-2.493486458481618,4.666890801119446,0.4589473681000052,-0.970794906544696,0.4749464261281937,-5.039337717265209,5.372821688640999,3.708834380721737,-1.0848999375156214,10.19120437535009,-1.935406445202651,9.75127978456643,10.64678266652377
8.47370940929487,-1.3349877934434122,3.842467380462387,0.2625564938120391,-0.8948089849516476,0.0364471576923392,-6.487997807806341,2.00986655492039,4.006557142053816,-0.803428169835155,8.636641583212873,-4.25377317054964,7.555917807648688,10.667198983031264
4.842899897991439,2.450886531557835,4.845275704898885,2.101382310934617,1.418015204454088,2.6711234279264007,-1.0605850789729705,-1.0053763254007189,3.1368445128723934,1.0016984935240354,8.574329496077407,-0.7791681755907187,8.32236879492417,9.474662356189128
1.9390149099425693,4.836455487663197,4.784244993638016,3.94093870734217,4.99531862748802,4.061402800663559,1.5689277175845588,-2.5666260058746744,1.232356416672153,4.061709171210511,9.44610996339161,1.2795761544617692,8.939995125959541,8.461061411301646
1.387835748254764,6.351368862722992,4.34342787412321,6.595832166421027,7.6457059898311055,2.9298319301225164,3.392821046194189,-2.1033201517540467,-0.6278541729992817,8.693147437249108,10.31645534304668,3.848163501835111,10.377091655191863,8.766032131876084
3.412061604718607,4.605842634445695,2.5018397864508284,5.609010790317583,7.712973535047478,1.7400946190387037,3.078904911593216,0.3978957573872073,-0.8062618420307284,10.287299993185613,11.119166517065215,2.9113569919872995,9.038690283500534,10.490338297490458
6.866919901511799,-1.428635688116974,-1.2440754462945065,0.4371955069699123,5.355212631347582,0.1803009302212401,-1.0209850394111624,4.12833770733054,1.4915181212643431,8.511150838739573,12.387963888657868,-2.836550944027807,4.268729050302793,12.416448468234464
9.708949995788934,-6.769843979880492,-3.858300818970421,-4.311091777853828,2.2725304214904414,0.5124646006622454,-2.63062411966028,7.309159402669703,5.008963486637704,4.3890429148132055,13.79796420477221,-5.446396636359421,0.3301697467315996,12.501485337127011
9.664726136388923,-12.138082434398395,-5.570689346622292,-9.6851194797732,0.1330005144990611,2.5186213629675804,-2.326341528255999,7.801283913287573,6.807270041008265,-3.4427847694541533,13.365457331183748,-5.883285679389278,-3.67706170389787,9.055202185777787
5.069094279410952,-14.171368976714913,-7.016344135793625,-11.62347127325125,-0.8828062991062264,3.1950211998179867,-2.002252661608916,4.492778447263062,4.301639582971879,-7.996249931055232,8.627843839880292,-6.2020293900889865,-6.663835726696685,1.9668952067813168
-4.167428093489535,-11.583086098430195,-7.562576107152915,-9.037747379835062,-2.059554259671104,2.781000772294282,-0.4958781938745796,-1.5012834587788015,-2.5363895879706497,-9.05760614308163,-0.9549455340254376,-4.993014802564266,-7.864802978446767,-6.90520100612443
-15.860024308408644,-12.147070765011868,-11.06498800995629,-9.848161115636708,-4.629849877717711,0.5324950068963203,0.292619590620971,-7.043132575833591,-10.664298658108484,-9.439896643608131,-12.62523564961071,-6.58931146707269,-12.234285760953398,-14.610012566823013
-25.850327377150798,-15.019001531658764,-17.74846853016706,-13.157284466295746,-8.19009340911281,-1.9130310899169516,0.2723979378189117,-8.829311028032418,-15.727600662898226,-7.411696293427566,-21.542064801551646,-11.25423322510466,-19.581382084799504,-18.74239424928669
-29.755027857113294,-15.548874522512175,-19.773455979673525,-14.184770145037064,-10.64920724400731,-2.0366184319221663,0.6550202994230988,-5.6908278777881405,-14.881756007937264,-5.692242750697272,-23.874098840034407,-11.640015210209729,-21.07355917729595,-18.72494136768372
-25.558531145309765,-14.899720585811966,-17.51457463834553,-14.100155195464588,-9.955132505192962,-1.768382376447579,1.0334153483906907,0.4718418164767852,-8.63543774312888,-4.353830913155001,-19.33740688680568,-8.292121491867064,-17.048441329023547,-15.874231075411252
-15.35748809208453,-10.880950370117455,-12.381515631091672,-10.316602609542912,-6.1520976961985925,-0.7594083391954205,0.1704689751238456,5.978918207445938,-0.415721943236063,-2.969672091391919,-11.17374919673643,-3.970288850948577,-8.40193636099809,-12.32575933252964
-4.612495512926684,-2.58613834620868,-2.5425432338157528,-1.851576273460937,-1.855565388329269,-0.6947977289699289,-1.9573729907910096,7.953848501908267,5.774124853300759,-2.220809114321142,-3.720075060774123,2.7809883071922323,7.069566830547709,-9.686329573136582
1.11623350956609,0.7191807983265132,1.036438547846119,1.5277729300313212,-0.4852622856478579,-3.181450792717352,-3.538644668301323,6.176357209567096,7.886576416219634,-2.759525397259439,0.361501723568133,3.9167959881904486,11.687770182549462,-8.326890851142696
-0.1573978520550989,-0.8402672835688348,-2.141590804974691,0.0488884048209,-3.536402793411482,-4.4417989095617045,-4.766349998584068,2.7910180523576718,6.765963427054928,-4.924893486115321,1.081991545862346,-1.3606652438139737,4.622768459839626,-7.609872789403825
-5.582063847124996,-1.6164881804255682,-4.053106826241383,-1.0259553378286297,-9.13635001387814,-5.325491460380088,-3.7882034088479664,0.2687526809340639,4.939556592874733,-5.496923079078588,-0.0352586087773811,-3.726688833395374,-2.800051213920448,-6.6733068906472575
-9.762618230638289,-3.516458587179375,-7.149961288828635,-3.7221747442010704,-13.241107478919233,-5.347706546331583,-0.0161637261642589,-0.5565303737633851,4.352398642626391,-4.552007152764549,-1.8188368659529708,-4.868019285928652,-14.749830715649344,-5.156723217972445
-8.879067881039026,-2.031515669271058,-5.870708667343105,-3.5530956972187586,-12.706754669528888,-3.1314674054229945,1.9479537328730392,-0.7573582479693748,4.917342409548245,-3.0079685804340945,-4.211257548940779,-3.3122550695729958,-17.8333587341373,-3.448545655958408
-3.336931314299574,3.8061418384973473,1.1883516585305325,0.2757094213095499,-7.816434665025668,-2.792095214777932,2.476980559542072,-1.8638252255188128,5.0075945970556175,-0.1144816404210356,-7.43584794557972,2.7112310352890687,-9.908589395683125,-2.3705017946888143
3.0831678274757506,7.676348806238982,5.660923476937606,2.092318639685621,-2.11022616629602,-3.6459073258029737,1.5322981862742608,-4.168915784749539,3.3269655061660157,0.7860020527099594,-10.713909304589492,4.250134220998104,-4.989188255927285,-2.4954000857939524
6.578684039845627,10.658550558367477,8.934937682791153,2.9323999533485003,0.4865679442287662,-4.348763854817089,-1.9422730038264575,-6.337423593510853,0.4043672449354831,-0.483805003667875,-12.097420623777449,1.7285924260547658,0.2722448184973897,-3.514316295107688
6.143524169153083,10.085916945508536,9.090623553774243,2.5793231582061478,-1.1006276039435887,-4.9298972811061805,-2.943181945264342,-6.572706516875728,-1.6583684338426634,-0.1846144275525059,-9.840705397874835,0.4791099671816884,2.0931111764071044,-4.169811517598427
3.589825650249808,4.569815049347486,4.43781350285978,0.0457000268839852,-4.291174802774299,-2.508818844229197,-1.551471067757786,-4.201777544049383,-0.9464786251497692,1.0635218091153742,-4.153305079503332,-1.139310924723428,-1.84240326359538,-3.040894243706447
1.260685057806067,0.464220569883568,2.0681870205562736,-1.1224648165257434,-5.238630666867999,2.03720252961562,-0.3573766365385294,-0.2887475825036052,2.5853199667896387,3.479737106656738,2.3475941283780104,0.0777623309419396,-3.3145400034485344,0.1838272843813833
-0.0552346575266575,-3.067844626443172,1.2726401795103324,-1.1364908610362292,-2.3228807830163607,6.547016754891685,1.6823530609615076,3.152916955979866,6.972651023361646,7.77454663582243,6.130906810256499,5.040784937127091,-3.705940994107895,3.957791951028661
-1.0645995084413435,-3.559420579012138,1.32813274442639,-0.2380305599311304,2.408557999758189,8.6200111742499,2.7151154988342805,4.59953143667178,9.710428963556264,8.90707284829749,5.168989556418871,6.565293156471317,-4.312003274516584,5.594168690029116
-2.2346147175751474,0.4859732579386545,3.6689536526167976,2.377589185336538,5.171652070045113,6.9061217143785605,2.414321320490177,3.962168501185317,9.554830409197926,6.79667702085117,0.4220180006329839,5.255153824047424,-3.85358043085778,3.3127692885486884
-2.574808736628865,1.4124320301295512,3.798066934825836,3.4610631485327725,3.964353754781814,4.47654017849038,3.955097144576419,2.4349182564996807,7.236805454178138,5.5082403200899215,-4.7620272975286015,3.70927511536866,-3.730120689448584,-1.871704892612354
-0.4354976587543291,-0.0605237041174437,1.8350064061504436,3.0593059927653496,0.4265982875889884,2.600151161413253,7.005897284900495,1.5124873248568544,4.67672139822495,4.031706866379301,-6.877344912037425,0.564519111552937,-3.783397477647706,-6.225451682613956
4.469707519093496,-0.5613908699388314,1.9571688367866116,2.920709683310759,-1.6338244715609802,1.8539616306274216,8.014779661082514,1.946953652514642,3.4778529284450705,4.050290263509517,-4.490593586025824,0.1858958330966308,-3.067060876694994,-5.78234774512904
10.050048658741826,-1.4132149203080524,3.4662140139563773,2.376815687358472,0.3529403807918023,2.1690325266577832,7.303393588792795,3.326475721985057,3.8826604980963606,6.298624830830609,1.0237825347211418,3.0026433069580776,-1.7274937070268568,0.424349255706173
13.11493487187321,0.6029816756916339,4.954836651846891,3.1834892177707648,5.457111136120226,1.2151191933679082,4.847069836419118,4.470745019923599,4.842635910953099,6.458569771542243,6.538712948023096,3.846055550477818,-1.3811650171468035,9.04473792931903
11.859188171747626,6.043555025759601,7.058136166266481,5.633213813974398,10.023328877945907,-1.6872356474729306,-0.1856907854587817,4.295072855307485,4.947916210857093,4.93071365990218,9.085421530698206,3.5916271149235315,-2.004994918118636,14.402374776791012
7.178043329626268,5.782946947811447,5.969286503612087,5.184963691990833,10.61280439263415,-4.16516331338169,-2.7196558697311177,2.508849593549871,3.4088941102189496,2.484331070010306,7.326586140864919,1.60300290049705,-2.576239251130239,12.5041181276925
1.582493698365078,0.0419792712451779,1.2314593541025376,2.000321765653008,6.526377053388241,-4.669246242331661,-2.69878523892663,-0.3209201834404949,0.4118512728852197,-1.7513884604630536,1.888975126372273,-3.117288618473328,-3.4369959937412715,3.973179987296128
-3.0879156598044726,-6.314102677598207,-2.5027247239128814,-2.288472650912547,0.009946166597839,-4.936498404948431,-3.040731880199025,-3.2833638811769483,-3.2247250472996263,-6.693486221912756,-5.272221895692667,-6.562000853254875,-4.442711353138465,-6.439591540465596
-6.799256265256637,-15.194845163096993,-6.054405189077304,-8.6826272807124,-5.605067850287938,-4.416054840001186,-2.6273040247981827,-5.696994190688713,-6.63369892094596,-12.492753837654638,-11.8521959289783,-9.025927457332006,-5.485433740665955,-13.335345777699704
-10.275197571905313,-17.079184772797984,-7.807252316654711,-10.923961334999756,-8.044110499431543,-3.73566733228595,-2.9006110767264133,-7.261446210646611,-9.230466167121628,-14.61248008964812,-16.02911423555721,-10.164624777865058,-6.488416553647702,-14.294480220413572
-13.159421082948665,-10.700176888808794,-6.778076459904171,-8.47367249343859,-6.987133184806225,-4.8679088577999465,-4.1878606049313865,-7.827206151600984,-10.707384991709151,-12.407728461603048,-17.000097342152102,-9.03167690824623,-7.357346966825303,-10.867031482563965
-13.690533596670612,-6.137385701881559,-5.707077945421746,-5.730543361925209,-3.592915813082332,-5.272951130523604,-4.179181863335963,-7.25357019001218,-10.968848973926914,-8.056152769119636,-15.20337978489537,-7.587611166134924,-6.058650337344751,-6.547909638796221
-10.54506818413012,-1.1206748137703484,-3.899575643792927,-1.1292129478148396,0.4555773511481158,-4.5691450948864265,-3.176847980134885,-5.65398342370843,-10.211394849363469,-0.1473943970842126,-12.130690370077923,-5.411318336671931,-2.302706816451554,-3.875174289524911
-4.9779872825999565,1.1050920950202574,-1.9473619651242144,1.9191947124004485,3.632711477428277,-3.977528046276407,-2.708655429150888,-3.7255683436014,-8.987404340751272,3.830267522614681,-9.644389169491308,-4.062412229332905,1.0225023495535557,-3.163841656581925
-0.7041837807054694,-1.2707612904468557,-0.2391959535185731,2.746235331000448,4.9781579118258135,-2.9799177000661574,-2.4708479015905613,-2.573451699013703,-7.960117629346318,3.328749856900481,-8.991513696227344,-3.9681080166592593,4.360127583539693,-3.4755889981343127
-1.0302916925671728,-0.5390019060742325,-0.1765524403615313,3.7970854130355938,4.510571992702031,-2.5858238548179875,-3.534320643236259,-2.919281426314347,-7.402197722261672,2.8850053118668906,-10.039938555476075,-5.195765024059773,4.971425501702595,-4.238306119562126
-5.621749429331333,2.2546829090768243,-2.259591118814291,4.0565781362607245,3.4409875731299038,-3.4643182260087952,-6.278871463453125,-4.3690950391988,-6.920728237978884,0.6160905749322283,-11.279457900585031,-8.41443935359938,2.029800330053805,-5.61410543437088
-10.061664238461004,4.108748409304729,-2.956279079465105,4.470363170367024,3.57182388581975,-4.160265559951375,-6.996374859924937,-5.575615388107751,-5.812209883428196,-0.455096151415726,-10.70085747122539,-8.60537587144562,0.3982358709153188,-7.411131940967902
-9.068009300220975,6.198814819965612,-2.599643101896725,5.212493728417543,5.821401613432613,-3.058883317759342,-5.808424609372397,-5.339445236675534,-3.818967982325834,0.1571634146759445,-7.076856069082163,-5.672133501826863,-0.6426259243467362,-8.12367023025026
-0.893254054219577,7.734287169719118,0.691132563050524,7.426973149850174,8.996974443104936,-0.270725666418501,-3.248034933374776,-3.705458264601683,-1.5463847267284407,0.0836125350851291,-0.8519437257777742,-0.3946559997825078,0.858625789723397,-5.625138719129256
10.849935460427972,8.413541618188349,7.888266342801465,11.549603289849534,10.298958642610849,3.860793688091404,1.584112793889902,-1.9877162448089931,-0.0455096006644242,0.1194203314606766,5.956081093243896,8.579945181106485,6.019767430780504,0.8081463922351046
19.645367580527832,9.130146606573708,9.342435207414722,12.330309377687488,7.674818183886665,7.00753001104425,3.5564612289162736,-1.6138878639128902,0.1075756414653188,-0.1371303691552451,10.842953598311944,11.30760452453044,7.896741776256397,9.116107067621602
20.90549793855652,9.636183056277988,5.127600603853482,9.806414332256312,2.095792321126249,6.481247626488277,2.498493309870878,-2.804427276836768,-0.6537053487638964,-0.916668987809974,12.249870970508628,7.321839987420237,6.927031093584396,15.34122821788304
15.255935066649252,8.995588137870243,-0.2211271460962924,6.112680101473721,-2.652336927413677,4.392784022798193,1.680686181851974,-4.28681609316309,-1.2880316361562585,-1.2974751012902934,10.41853038544062,3.025246754203008,4.829498786880255,16.325006055276667
7.682073855548652,7.207596692054877,-8.858944560795337,0.0362922674149948,-3.0021289532323268,2.139909538829683,-0.0568178564204523,-4.321585789384361,-1.1155641161353174,-1.3924086118811596,7.079652630969137,-3.918615245308221,0.1325554406838393,12.000981121410852
3.4285920675266808,5.899397543725953,-11.195349886855327,-2.0714344632317534,1.094339361495369,1.0742618344827597,-0.0730497470911343,-2.161331192119145,-0.4195278246080085,-1.6280472805100932,4.191834970806932,-5.348188125881438,-1.4280862068074802,5.371255027311706
4.148678836887534,4.963852947837082,-6.195789743150276,0.3525623077528367,5.836584906055023,3.097953912195509,2.15261932674949,1.2834420357804135,-0.1003776730677712,-1.86451650012724,2.672732593251268,0.0200377372914541,0.4013334106397416,0.2810874849249374
7.353897604142857,3.696073724189868,-3.909138146581828,0.2074581265864899,6.860602769969246,5.356312756798346,2.853247885502192,4.104912746106757,-0.718700384590869,-4.300168850357252,2.083800104238202,2.680509217643849,0.0514068360426985,-1.0939454703047544
9.232099559031202,2.419174768132248,-2.186446231649882,-1.1892628108350864,3.2219977724682822,5.788430325264143,2.626090874488831,4.834340628702626,-1.8498125871627813,-9.206455990001825,1.432349088935176,4.5705955545460615,-1.363881277595769,0.8311411844347827
8.068598463541738,1.201829213420193,-1.965478501733868,-2.231766789295996,-1.744377719842162,4.950493387145388,2.229567654133962,3.51859763737774,-2.3841542479286217,-11.11322816858636,0.2838439152969361,4.2649037229616535,-4.185910176008007,3.995353782085997
5.276406709094746,0.0325730460561188,-4.890629571688556,-3.9709104358644542,-3.632179588730096,3.057826044134877,1.048812645042159,1.6165636969911796,-1.534528718417191,-10.222973812458063,-0.8692935629398839,0.1121573830845676,-9.36633344379562,6.267599923717876
3.453391836703044,-1.0392665253320714,-3.981320880275837,-2.819800690106526,-1.2299972478106684,1.9362172260761925,1.1965318644253664,0.8236525272553115,0.3403850028257453,-5.748422836745847,-1.2816494033694106,-1.2735138977852096,-11.458053292481692,6.339891883115731
3.61087086350694,-1.981008184032328,0.3787045463816387,1.5028473299212743,2.2668335380271127,3.0567867545451213,2.7799001451221472,1.7573309245722428,1.850839660315148,3.799151911342059,-0.915126619528901,-0.4641244513030403,-10.4877451251764,3.725783108094767
4.255108105126049,-2.817170015375257,2.931468674884851,2.425837620747542,2.3098906614643706,4.962999609317,3.5305518622764884,3.540886366954554,1.5931141040268204,7.82783862773914,-0.6137774540100556,0.2718424896176971,-8.251297692348928,-1.411287200402461
3.0153131688852826,-3.5183159197811467,4.800952200709535,0.391841756223004,-2.563596365919725,5.672269416220527,3.840953692221881,4.610723085701238,-0.7187836730399049,6.308166407423132,-1.205661801901026,2.155511648220267,-3.463361110859112,-8.04727884366888
-0.941612393746009,-4.287650541948685,5.26872176285391,-1.6242082649388645,-9.099087009319003,4.246436839674129,3.43932943242116,4.0797049124366005,-3.8851117066605543,2.326781080165286,-2.376102620144104,2.720549163833701,-0.4415311593246616,-14.047771656382093
-6.037137547178786,-5.134681411364214,3.4081182044652194,-4.895456551971485,-12.015774243724335,1.1505433210923648,1.8896608706537807,2.530977863193459,-5.887713924089446,-6.720455979540277,-2.508984503780366,1.746382969474628,0.5974563461044949,-16.671026460915215
-9.598804494360133,-4.409379314146666,3.99904049075424,-4.434753587691373,-8.51471894966264,-1.4079618446734865,2.20783532775637,1.5953266038308729,-5.104321992278721,-8.847088851973686,0.1459094192525416,3.5219417782225038,3.609752831021345,-13.98379194692895
-9.935043505515122,-2.003019431343337,6.8549999643332304,0.4006510511009034,-0.5467762516160484,-1.3845673560504357,4.397363295326279,2.6884383953289865,-1.263413921654207,-3.4393847379335183,5.899701913416939,7.726676403505576,7.725983321158466,-6.264342286740681
-7.283025684892056,1.95332926612418,9.805445267080792,4.586309041228999,7.000908244738549,0.8663942993633739,6.348808641320183,5.953406984916383,4.393835068610995,3.44781298418508,13.073103837207062,12.40133689483542,13.898223257942796,3.855265409455053
-3.114254964538616,7.970969335680714,13.819858324526871,9.313133079527056,10.318931945551055,3.283750886920851,8.673655696519793,10.196777787371666,9.749449337864023,14.786534702130506,19.082537833341124,18.35534292945174,22.82930001146615,12.830232692884415
1.152315052720818,10.160244316667322,14.979829039901578,11.008192798023304,9.275038659120206,3.706686889343192,8.562614312919878,13.716048953361373,12.846908521308254,19.18751933962112,22.31119200198432,19.094630856522265,25.292638278433717,18.19778625234582
4.768287021811812,8.17474147465941,12.817027962501374,8.601963813713391,6.620746988038322,1.296155622839262,5.483237759734659,15.24580309692594,12.805205468206562,15.50192290964127,23.123018278827,13.847619596122254,20.96666856506636,19.631241159472967
7.385884086624994,5.0725667983308815,11.498236997035892,6.182522622291174,5.028070388084291,-2.358829962287796,3.721670056976912,14.360961820770548,10.156669384736578,11.90319485813412,23.06611794721801,9.725239728012818,16.936510997239754,18.422288198999933
8.630574298472709,-0.6589902615202633,10.129805142789426,2.612409904449383,4.8885138388752525,-5.03426883595887,2.6548794784900283,11.320598149582857,6.420172228733539,5.516761326062808,22.97130167888945,5.2334913295294365,11.190149270749268,16.092512114622416
8.139277756915375,-3.902093575897516,8.679374087494885,-0.3049418119334856,4.650293886155234,-5.3686981169632,1.618203395336505,6.790548683091162,3.159185140436605,2.584507654713684,21.7920991541457,2.620094552130619,6.794997392158214,13.377031204874276
5.915080546757694,-4.150121663191461,7.78215466269028,-1.9341633633738804,2.871524985376721,-3.7831432176772544,1.366671487443709,1.7460919918369529,1.1582133221791997,4.3511861127551645,17.486573768450416,3.225130576469861,4.893521691546865,10.213206723711906
2.451232980072682,-4.414144819761879,4.003013307949452,-3.0029535519436723,-0.2740469884574934,-2.134858543021652,-1.205277047344534,-2.5880758749390926,0.2934128647102039,4.030101105749299,9.34470410451861,0.6298344387711786,-0.677819181985195,6.38115893810212
-1.5446994176995048,-3.3479808972170857,-2.6995438520549064,-2.769879323765286,-3.3917434715854764,-1.612938814425248,-6.2019377485644585,-5.062827570739339,0.0835826168587048,3.2526989955400447,-0.384805230498511,-4.499903821505731,-9.133282597058408,2.0518075435560963
-5.455738565594846,-3.716475759210711,-6.295277220536295,-3.0199980540142937,-5.440344955690982,-2.2184571687523085,-7.898327246019768,-5.167821738115441,0.2929525900212083,2.3964498917015966,-7.360956549354492,-6.1763144698586245,-10.663451126033417,-2.140033801796236
-8.745377050747528,-5.858456537868844,-7.122294576421181,-3.689248431376723,-6.704427780255752,-2.8221167539448384,-6.601757223341309,-3.393806584230094,0.9786081058830542,0.582667756672358,-8.160936085613493,-5.1436193712956655,-5.488262861905692,-5.368869075485772
-10.810218446081048,-9.322946211007766,-6.84731718929219,-6.805971517139235,-8.236168706460859,-2.779098231696354,-4.370274898659758,-0.9823830540487668,2.062887901747856,0.0423436694557895,-3.03689639796377,-3.079539722718133,-0.6333261325266407,-6.975219598605103
-11.147003920531056,-14.971035043629032,-4.143743921258929,-13.00943406917726,-10.513436199412675,-1.8662497823870996,0.0114200092167525,0.8333802241849969,3.0886191526947258,0.6849891626568506,3.991608867796595,1.130390052837378,5.8427601760513,-6.779709208477385
-9.878518506934622,-15.979371526033628,-3.573229127164396,-15.44460570152324,-12.777348855941783,-0.7953574301047351,0.9883051792599306,1.501124992363839,3.570629661064424,1.5062792798763165,7.947029131263369,1.774487330478958,6.511522296083276,-5.268634085013063
-8.051065610895982,-12.02570697022037,-5.332167013971294,-14.336963259484644,-13.667389480901129,-0.6721723421554556,-1.9101834244406664,1.212634843882492,3.550210529252171,2.9371274256206448,6.383351839297571,-1.604773477970275,-0.2668729658512492,-3.4725980392954394
-7.101692276399409,-5.784767394523366,-6.189173465120666,-11.167699817016825,-12.417373770792144,-0.642332574994957,-3.4726244594746696,0.4270163760899144,3.6037823829485545,4.000214289898076,0.784257013312376,-3.012014069172163,-2.553606912957778,-2.452987729133316
-7.698572783574615,4.527869090593669,-7.143241670683524,-4.322830012519711,-9.425881254808186,-0.642486650375513,-4.934564481043994,-0.5768524134800451,4.171581770629862,4.554594980546499,-5.074179699421196,-3.643269392498127,-2.051181362677432,-2.671788339550678
-8.99217834662175,9.274564797040448,-7.084860277559719,-0.9978861225777028,-5.785692873174757,-0.7437548623989032,-4.743404681099333,-1.677777468572521,4.963670570011729,4.441336744774338,-8.203699402831523,-3.17681208225626,-1.2986648248978243,-3.755198026666039
-9.165804513876983,7.7449510869975695,-5.571454500258191,-1.4392012488550785,-2.396565533512532,-0.3390269528170105,-2.0026220236918406,-2.581390966645305,5.226407227565727,3.3091487693270087,-8.306403747429641,-0.5995954841505376,1.7478167238347897,-4.85776493274602
-6.987348140479149,5.9501802532938415,-4.722169081618416,-1.1384693089841136,0.4605609100166858,0.0323227607333676,-0.5742337625042354,-2.734578445497301,4.664704598397016,2.721586767430564,-7.140974642193747,0.5545895639797468,2.9810516100514834,-5.247015380838608
-2.965623302694116,1.4802995870841698,-4.237190368908201,-1.717932994012034,2.8410789474074583,0.2035296061229588,0.0345878289985199,-1.7432571058776851,3.951013279998583,2.588135581675016,-6.288280741020965,0.535081183858437,2.352845421147563,-4.54139717341642
1.0581519786157705,-0.0204141643500869,-3.823869294423062,-1.4470510239029692,4.623104688475938,0.4457490888181741,0.5642159450753327,0.106836562248384,4.1077553621112575,1.9913996204682909,-5.5454108406458245,0.5679416156883391,2.9624791229629133,-2.538948888395052
3.5492169510605045,2.3094037541826493,-3.8556499928486874,0.1813952344806704,5.352986862259385,0.6353334452281014,0.3289692323766982,1.8676268312203228,5.325074171303795,1.2081123045700557,-3.425955106980363,-0.0238830643051089,4.042457970573232,0.8361061184620264
4.515252345344284,5.280103501269088,-1.6686574316499232,2.3507563483477365,4.582339418795027,0.7072379535580497,1.066583518626245,2.5998170854176053,6.512588854015513,1.297090421637588,0.7786290900850674,0.2571922262618092,4.198792019125297,5.0852011500215095
5.068834484337264,10.528324867008555,2.894265921852381,5.677457838849137,2.3511463932641714,0.8699637178701684,2.7953789661845256,2.0728695616790773,6.172056587783809,2.263440590242194,5.410957560619971,1.5348386673410055,3.718129311554824,8.636404133096189
5.831670568145196,12.20091138949666,4.651025873159038,6.930522751720099,-0.6097837601252364,1.1556008206207449,3.2800715932069915,0.7777465521166418,3.761514853418925,1.8913095145764756,7.02918082434382,0.675418618877616,1.908897685566102,9.23766566806944
6.02135034942903,9.772993726925556,3.8885195560730734,5.923019298056047,-3.125873381064549,1.414938144234111,2.7573315160511864,-0.7329945390698916,0.1758798019612246,0.265505757567421,2.9720628993929914,-2.183803483028608,-1.5632497924207558,5.489661036811558
4.378674364937282,4.658066604696933,0.3779366246230823,2.2626533021647237,-4.138300319022298,1.489052740820867,1.4912566095008797,-2.402552036209872,-3.088229374642873,-4.814463624565345,-6.110425338997813,-6.489959535860738,-5.450315054799027,-1.6146648875210905
1.0021820928021576,-4.865630030077416,-7.188216051309475,-5.076262128187836,-3.2640773257692275,1.3667501898003578,-0.9826690732043162,-4.452925380005134,-5.142087393877038,-14.148563167296652,-15.97449706206567,-12.981889828626224,-9.995491865982862,-8.78923609733975
-2.0580392926733504,-8.433577571370538,-10.033054628255226,-7.773381292679112,-1.0311284193233,1.1602205467400062,-2.163747353349533,-6.636468664908927,-6.065687117376795,-17.82478926711799,-21.28770745328125,-15.618901061488298,-12.586981749852484,-12.592865364100062
-2.442481100452928,-5.588243229689875,-8.049905736654829,-5.675991462343163,1.3910036539568056,0.9532246431805173,-1.9744779324271533,-7.91304503349137,-6.263218401081517,-15.892985974717776,-19.23933934632245,-14.039076830508511,-12.759672535485556,-11.988845377444497
0.0813332604215073,-1.8448498548403944,-5.359537240979162,-2.704688266518726,2.850656697692048,0.9312390201037128,-1.6699290797944233,-7.158189927399487,-5.811436196091026,-11.265885751711096,-11.606957492237404,-12.299604537470884,-11.443240367934182,-9.001044976685147
2.928369474370583,5.320345080279538,0.0785709857211823,3.112706889540582,2.861957142123465,0.746601835056345,-0.6544190339289191,-4.376200703309428,-4.701096369393189,-1.525875927192647,-3.7027399022558463,-8.94983367760904,-7.746071925233724,-6.739972681232648
2.7287684711381237,6.18953839585085,1.7990336745698745,4.366684505682844,1.8115118692547991,0.0724345962681329,-0.1386040720519977,-1.1794669858325229,-3.638955218591068,1.4049901222718753,-0.8908686482095343,-7.316646096625011,-7.297828725726234,-6.587285175675709
-1.6477803928603745,-0.3254362085715527,-0.8518035684166004,0.3257459042581312,0.6140053988056411,-0.7730333697402941,-0.2561390146518144,0.1650670781541912,-4.169467726248683,-3.141598105410305,-5.085080767301543,-8.037476971358005,-10.40906155239549,-7.228608844057764
-7.883720336514561,-5.353786131514888,-2.881750835275578,-2.7122102076699,0.1235537963332245,-1.513992945815475,-0.728829678946673,-1.5174315616170375,-7.461571818309954,-7.464122029275484,-13.584491340891894,-7.559073469177719,-14.99197638796195,-6.449427916371573
-11.959612581136064,-11.215083994726726,-5.870953917913041,-6.505521086793953,0.7294854470797327,-1.8971545580600968,-1.916741580921947,-5.240575784538208,-12.6998709350606,-14.386744911176798,-20.94290067547307,-6.746487876023193,-22.54822205417238,-3.8336233031045417
-11.267674520613408,-11.526817352417408,-5.735927339991337,-6.018812125301404,2.3049743928452227,-1.607502273086631,-2.339659338859229,-8.43379824062857,-16.868963280433675,-15.525329194298122,-22.52706523410045,-4.96736875785423,-22.547875695801483,-1.5464573688030487
-6.388934943174277,-4.514663353951408,-1.5861446562218808,-0.002228092710033,4.354916999995011,-1.3083177069414125,-1.9786285895945188,-8.7560399963453,-16.687436647631507,-9.49624971302942,-17.372965018491918,-1.6817931656481024,-14.1916841411011,-2.293593102406895
-0.234342644512763,-0.1147170135063308,2.091033571514489,4.67581629248837,6.185429810595473,-1.8244204490691365,-1.0055169156041512,-5.733094923429039,-11.329806344200344,-4.579912829106622,-8.503730595444507,2.1761654345406645,-5.181403408426623,-6.4320840737883085
4.3817247447737095,3.347336358062159,6.4153054871460125,9.353902977920296,7.129579086914147,-2.7048925933722145,0.9717812651324864,-1.0126693872407913,-3.4833674560021315,1.3843067561216469,-0.6296177899943487,6.956028304876459,7.033100296903751,-11.130581312219048
6.577520504031641,4.711849521142718,8.125561877119381,10.648721755174993,6.925481792302115,-3.2278158020491183,1.0086387319083288,2.8372007308720697,2.4668828909412888,3.411534607424384,3.058850586102059,9.393416122274283,11.039562998750169,-12.498593342927297
7.398260159371695,2.106580149341644,6.305935855888492,7.104746930153008,6.071118485656378,-2.572458126193798,-1.02178604582749,4.007488251622604,3.73815644229968,-0.0400105906880145,2.705934569255952,9.114273955975456,4.992338656777686,-8.729699021577886
8.432725720668458,3.418971329655525,6.148480055919396,6.2231021656390775,5.707308872115998,-0.7682689975646704,-2.992039189946341,2.430794997320102,1.0884059331715896,-0.8612851605102043,1.0153342651576691,8.509989917235862,2.806592127451709,-1.4043270305897906
10.422693156095484,8.14455231962325,6.8012683727561365,7.057514780934746,6.807248126247449,1.4082464702802056,-5.564104945953394,-0.4626939487482051,-2.251676669506283,-0.3969838631559926,0.7084979457910858,6.71302831874358,1.7754786478929934,6.032906905656443
12.831389602875324,10.2381643106237,7.170752570453661,7.281689620938654,9.152243624771994,2.4855685343045444,-6.104270291958501,-2.864421104948091,-3.5194061180098317,1.1708827932660764,2.391374622149746,5.755584332894663,2.397796021099567,10.955825763537517
14.367787578328032,10.918015309305977,8.07395377367985,8.1553640911279,11.061233692061409,1.4165468824494711,-4.127577698173595,-3.734517414385337,-2.4476750404022294,5.262230294689557,4.525515640056513,6.006191450864291,7.002663462650731,12.927253164722304
13.879344706905943,9.482462078316724,5.973661714614424,5.872122607461656,10.42445267112288,0.1795469603661147,-3.175506752315329,-3.2438439711740905,-0.687010367599342,5.876377826384228,5.275492077276326,4.990869452000069,6.173473882906436,12.908325182266768
11.0656878544722,4.8337716072065335,0.6255737443657315,0.0620328101332259,6.442668014994965,-0.7371611694030293,-2.627074692015796,-2.33969776132475,0.3874093896396005,3.0925381310334723,4.352760073036844,3.19575716117308,0.284850515640796,11.64561822751267
6.7424922256898085,2.771994672515001,-2.483980790981997,-2.842652027095801,0.6141120960246997,-1.2627278966056843,-2.6043494309645823,-1.8774222406724927,0.9876620541351392,0.610140264284997,3.1114492596470527,1.4756447226268097,-2.5571823108881917,9.094546789777043
2.5445408147974726,3.1271273467565104,-3.885056950338699,-3.4014828559458063,-4.099181994378811,-0.2681569525452696,-3.7376393944451767,-2.024153571921535,2.0185960598537065,-2.7641379299042814,2.9220066452634725,-0.4818033932196961,-3.841035118769354,5.27255907145011
0.092093848038318,2.1111672711765608,-3.558488347481339,-3.338578392233449,-5.495633845558755,0.012082132249903,-3.77304830143971,-2.3576202448093326,3.200545398067151,-4.328632159198162,3.5415256627807503,-2.631923094472981,-3.391782207699616,1.231705756298911
-0.0377270086720109,0.8150348764050396,-0.2756408939875331,-1.3617905615304144,-3.974375645438,-0.7874655236773397,-2.8437684610536103,-2.462414342313748,2.606361121647572,-3.4436424390479248,3.182475397177434,-4.885919970612163,0.2525732018505794,-1.2652764047697822
1.1611788105039589,-0.576192213154329,0.6860095759522332,-0.5769682118804826,-2.31381679128641,-1.2549411765342866,-2.1491125765177266,-2.3865178422939053,-1.4858296276769811,-2.4883258876343,0.3020840586464928,-5.582578736948503,1.3893610328307646,-1.2524015845950751
1.6911516034927434,-2.4925224967858224,-0.5350267309046172,-1.0766069494052244,-3.3474004448220427,-2.0132866889719434,-1.2847373346812354,-2.4901749854836748,-8.15138647401557,-0.6391707046523692,-4.576178097695568,-4.502094326694857,0.2460627702841288,0.3100481023803656
0.0338750839682049,-3.2284872399509825,-2.715832204607,-1.1670166314830754,-7.354214048415663,-2.252592645667548,-0.2091308420745106,-2.873633956261987,-13.500444173084356,0.7281469233217187,-8.804652859729366,-3.3513188067830497,-1.6384578438754769,1.1252345847317289
-3.532798117133762,-2.7516477446175767,-7.076590398519922,-1.5390994187162008,-11.430291089137214,-1.608218878318056,0.969773667479262,-3.0595249701367244,-13.362654813966678,1.303215076813265,-9.533679897929265,-1.710132361573092,-5.509752691119714,-0.4870323095054676
-6.978853550056751,-2.8403400358803483,-8.647707176268682,-1.928829911906058,-11.609136421767284,-1.2854557884445732,1.04320104828079,-2.393492862233643,-6.897992500551695,1.7540169275098,-6.039641394285102,-1.585121196743893,-6.950728245513181,-4.066238501059413
-8.09236309710338,-3.2001049392992007,-7.263877949183518,-2.231851827529643,-6.195489190324565,-1.5747637693997911,-0.1445739125170287,-0.863104504121111,2.120547295661808,1.6239513837935824,-0.4950223744522404,-3.412280840509442,-5.7746280570679405,-7.388768750161683
-6.363455061925711,-3.778922130246005,-5.194181428612033,-1.8284073666662228,2.408593521263864,-2.043425968653171,-2.2891377766010272,0.5114288447538833,7.761555003033951,1.173290323743636,3.4824443310655155,-3.8492482689949368,-2.2210972594736806,-8.425154038630675
-3.535336772218381,-4.901247067175279,-1.2388859601233628,-0.5528463880664594,9.059095089343945,-2.6992767363686925,-5.792283003412695,0.2723325360589026,6.291956375798213,0.3416568309112177,3.363794035386112,-3.344646028201162,4.974449671053854,-7.052468330552282
-2.229053386583846,-5.719623709251936,0.5806055862903613,-0.5425513602339798,9.53713705170779,-3.077383441909939,-6.651032252132802,-2.246953682489016,-1.080233763316098,-0.9218265244377584,-0.5836495703569557,-2.43269113755158,7.958052542313777,-4.960842250369659
-3.731309006706997,-6.3037206948290105,-0.0947960226165919,-1.7442621202148163,3.687755934497592,-2.2831698763199664,-4.6042123405196165,-6.083082083472128,-9.22114873161606,-2.604767732259968,-5.558012687601972,-0.5059716594450426,6.583840319833378,-3.9441384306345455
-6.825327450931461,-6.3941718791664375,-0.3865464918137673,-3.84055418938151,-4.492478545412469,-2.0119216631728403,-2.6577189495169886,-8.991793225714817,-12.859046728077208,-3.395002076562424,-8.083657344670689,0.7793122672586511,3.154619453706348,-4.262445117017336
-8.690844604532426,-5.781028678683044,-1.2769159466821716,-7.360797654622904,-9.90418793705633,-2.543822407882578,0.1332974075132468,-8.83885474678211,-10.061697381434318,-3.1674593632016346,-6.100827688673085,1.428502228246452,-4.32248774924945,-4.5798428404880624
-7.156152578823082,-5.95031211714819,-1.2674530082591575,-8.880600930939945,-10.06737775880352,-3.0631677608346743,1.4176551878361674,-5.048213996210087,-2.933370715697299,-1.8053126075984465,-0.0350337309131383,2.0447770789716477,-5.662261004005278,-3.386652540055259
-2.4802118366769434,-6.865631441125603,0.0274503690426043,-8.257841247831445,-6.5681943755453815,-4.263915916329552,0.660375143490943,0.9272603033886816,4.455182920680063,1.1437361953030212,7.552781150148952,2.256256329415089,-0.3131550161133901,-0.4405599855382505
2.7191208210073654,-8.571901025315684,1.6638420501294395,-7.808618051249868,-3.2689891325023765,-3.530521565560438,1.486596207181609,6.437913197171712,8.868886761205633,3.1404266252975623,13.33788719153454,2.5653735969875577,5.3101894884757455,3.0897603829582394
5.266456390858107,-11.460510238583788,4.139968510974979,-6.753276589378879,-3.0174326600582724,-1.0556100807896305,3.347746189798712,9.21467691099021,9.41061952592026,4.219900017815119,14.8913826215282,2.9813288093246557,13.62974821922118,5.71420535376226
3.563487435021216,-12.37377944376412,5.289522593529397,-5.950677172549073,-5.645251235582094,0.7960884704739104,4.948111017435936,8.6897565214338,7.234779426204735,4.933581515385861,11.90518991732451,3.552559505379731,15.932047859750856,6.754740638748473
-1.4244058648655835,-11.22084132615597,4.926426667278781,-5.688234291921494,-8.648003252909493,2.219337006514751,6.834547985769813,6.262456664046546,4.371782980541269,4.666217747880416,6.414899202637511,4.413242839629852,10.926084412991605,6.538045344875016
-6.830784915835487,-9.957282063413516,3.449058801647798,-4.402533954835258,-9.52956135493928,1.0058114273567695,7.781064871528473,4.368243557229807,2.696252640899917,5.909932425351396,1.806603053653841,5.503500981465444,7.927250085490251,5.798250754776046
-9.57547411797469,-7.86409978387056,0.2070586253276047,-2.301821931858006,-7.607467166288504,-1.4239000162418551,7.584371986504625,4.9230942893086045,3.341851442388542,8.726765343973796,1.0151395798582286,6.907717604066578,4.823320229937119,5.175537696445559
-7.989368668981644,-7.6164274193723935,-0.3236980351550153,-1.0940928254173012,-3.9901275155779743,-1.4538922873694926,8.358662551515279,8.102458899543688,6.3620069063075135,10.521109106776976,4.908950929336207,7.708944531968109,5.835354870031778,5.275830193642644
-2.595649321318163,-9.624372342898926,2.049854657297553,-0.6482378655724654,-0.2853938149890638,0.9155450255705538,9.886586824452952,12.239630107014268,10.61874649960968,11.732503063403032,11.85855236106384,7.850288051445537,12.748937046854833,6.815151013294987
4.144373675999692,-8.79486240322863,4.9444919013657405,0.2802735896864652,2.4873319748871374,6.053720281064429,11.572804422533729,14.93989476694354,14.204936085590194,12.132789068987671,18.73367003371508,7.3958651017112915,17.33167849203489,10.147963757741696
8.907810090909656,-5.55548834242389,9.45163697452605,1.40524463979295,3.989932194697495,11.84463484462589,13.816251971190022,14.695423594860245,15.475445838937226,11.223341101366591,22.61685583028084,6.066288780242619,20.842422747394767,14.35003067450184
9.025185446777764,-3.712692626002929,9.982363436824505,1.7110585974476298,4.113478494475565,13.878464653378114,14.25323952717022,11.896312501273323,14.10252959693474,10.97884072643732,22.157130731489573,5.502342043776068,20.989312519343823,16.980833215893842
3.887170329447308,-2.4912062555410834,5.923694853141795,1.2853638727682564,2.833898699537404,12.04986751010524,12.690864431236475,8.516363157136698,11.290668358683096,11.27432876401948,17.947251697617748,5.728952337244898,16.025417356972625,15.40163450983128
-4.469421529073799,-6.727794778990502,1.9868814967399868,-1.383420958967273,0.5443478254642891,8.780829616525496,10.954572669154691,6.705386288286974,8.880237362699141,11.101518533631245,12.032505994022454,6.060500247428598,11.53594428545036,9.01941433086112
-12.151491323199544,-17.56642470568099,-3.2115454683441325,-6.699181125015474,-1.7406649349608043,5.537888349119654,8.477020945658209,7.34383407935503,8.04760119067694,10.816783502840249,6.985034005823042,6.888404995604392,6.513956276652812,0.5320850493222018
-15.412008338388784,-20.04831092550469,-4.598011348866337,-7.755911809662442,-2.8299588406690805,4.221192442969558,6.909756528561562,9.626507179144784,8.677394451601034,10.090048595726891,4.860974659255918,6.782214094115771,4.016800684452085,-5.321559094420714
-12.773721367911737,-14.608354344636544,-1.1449055139295805,-4.493439382250894,-2.182856910563471,4.867647581938951,6.602794884866791,11.882348583002544,9.82501646191049,8.80178029427663,6.256279387626655,5.626597228885192,5.27249200980252,-4.955859643145658
-5.869135208864559,-3.882121694549172,1.179531172884484,0.592083012432987,-0.3274015006722255,5.223194303479877,5.619099590853445,12.826703087248257,10.660169742954928,7.644700134040063,9.848379578225131,4.905759859051003,6.872198447563372,1.3268547069379348
1.6333703836226032,15.757904461574624,3.707751569295432,9.198223176184465,1.5740517034699284,4.188894627865418,4.396463976199575,12.18513222898555,10.924331551511669,6.545666506980222,12.895008989879178,4.323123388746232,9.977407596702465,9.317702621581937
6.283408328277176,24.52466651725184,4.464435107387331,12.763772569995956,2.6379319744481347,2.860342150777892,2.735702409942245,10.349511195163348,10.58167931309125,4.897635251691257,12.709213227526396,3.77220180358092,10.058994426177108,13.728028403421767
6.730315180432847,21.690443575539074,2.377974367698788,10.677701513734606,2.8615338204055067,1.4873260935041712,0.3383063625063353,7.692023691454205,9.2681468532099,2.7853802720463987,8.322761122630974,3.484249655164504,6.412712932069048,11.738652348869708
4.102778710069172,18.702322576144887,1.4085076795314568,9.586731326774371,2.9789440890144405,-0.5530176957958606,-2.496807677009743,4.380311626961873,6.355332323047792,-0.6129948966653412,1.183015785320599,1.534918104035281,0.8058861586014391,4.695897686638284
0.9637391931235992,10.935463771924486,0.8592353865890335,7.501182163324322,3.806454627675233,-1.9936550380154523,-5.944900978560165,0.8023261630723812,1.7165762381920695,-5.507523257317596,-5.677405538917446,-2.185513880893461,-8.199284797319764,-3.048677170699872
-0.206816687772207,10.010647003045746,0.7981105300477876,8.504515583395795,5.63618901341828,-2.6493036262292904,-6.6312876938437535,-2.127796239958037,-3.606806327155202,-7.707435914152802,-9.433027077592875,-3.846775159755961,-12.490798161666666,-7.060264212022196
1.864685023260872,17.666445556879648,1.8971769307723203,13.720131141248991,8.031706713329335,-2.3743006628923307,-4.238378644912361,-3.446938420594508,-7.71381597065994,-7.127995404240576,-8.992784133790012,-3.646782943489372,-11.58994283642833,-5.457985900543013
6.759536859824289,22.348368281904115,3.50442176535769,16.5671040601381,10.023109743452116,-0.9950870951394256,-1.0334943136669728,-3.1042133309166253,-9.108524254469613,-4.5358434744448815,-5.378215411245403,-1.7594522813245348,-8.738119003108643,0.1981152424909451
12.43544631127718,26.908281588912438,5.923045112611248,18.06360870154049,10.548476337972849,0.7614400983423315,3.870450099362558,-2.337358321623002,-7.900389620497673,1.2052726862073877,-0.9841603325762004,2.7546824600093407,-1.784756566903276,5.975889187393699
15.916534096753852,26.27351993715373,6.217770554406138,16.850518699340594,9.007729288481377,1.4672395131361122,3.923730549176676,-2.8100919998695524,-5.819973302562014,2.6948838212848365,1.6328123032558146,3.286270172978897,-0.1624563768855529,7.835536479584206
14.70449599691693,18.384679153497224,4.107261704470951,11.57281323996952,5.729687914164867,-0.4209821734147785,-1.663800160691122,-5.1444324821713305,-4.913245005328767,-0.3920344958066301,0.8343390058502145,-0.3671195707589508,-4.503544163867642,3.935494520462239
8.441076402731216,12.262389466081196,0.6145985855208725,7.324665075160008,1.999793484932166,-2.487832814018794,-6.2946848332373975,-8.27583332694719,-5.965326262246467,-4.909051243664332,-3.4402225014819585,-4.214318538756751,-9.544773982657569,-4.1938150882024985
-0.3508165856104952,6.367720770592939,-5.125455960738853,3.522893101844264,-0.5971232721999762,-4.431092047189776,-11.538418079988135,-10.385296743507665,-7.998167058516199,-12.742978011554106,-9.597645586440422,-9.772226190995298,-17.65416724988466,-12.416108405151093
-7.430557048081464,3.5232120815180306,-7.942420729246528,0.6361348720692448,-1.230008200897494,-6.190332147761956,-14.507984512903068,-10.606845164670696,-9.277399351633845,-17.113375676589257,-15.07117753282384,-12.048477925744098,-21.704069010173896,-16.5375070820878
-9.507761247662184,5.579366760615,-7.523290370275814,-0.2521957235837907,-0.4353784729799557,-5.145737022701234,-13.985560673043834,-9.867245096680282,-8.94978245399175,-17.53007088891431,-17.660594190333036,-10.28318946550166,-20.862887223697424,-15.167651592401027
-6.542410058519286,3.9196923547713793,-7.225183056118458,-2.001867247926096,0.3830788239616627,-4.482932670150284,-15.324698964807034,-10.018171078313785,-7.887007370890824,-17.463805957711045,-16.870148742269905,-9.924866435534408,-20.179455571301368,-10.797314844192206
-1.7827722657007303,-0.5657206165965117,-5.8033983476176,-4.184596477292714,0.2531327849270841,-4.78327691590944,-17.643592980370254,-12.092316839341986,-8.019044180840549,-15.17555146922635,-14.295523370253733,-9.769188398217782,-17.80711750029588,-8.008914084428648
0.6159773929271815,-4.082032919088985,-6.354511053914852,-5.99062477755098,-0.5062207977758244,-4.396330988730986,-17.74813924152635,-15.358377210650112,-10.74614942191708,-14.567915421035003,-12.62906243470096,-10.910896230215055,-18.70462663317709,-9.986133023330147
-1.469723282945151,-8.06481961152764,-9.415426289564316,-7.84533968832418,-0.8297690827951132,-5.674194501088821,-16.25355255644332,-18.01459712518867,-15.757130827980776,-16.002585583156012,-13.893517351584268,-14.270443456364015,-23.70831895624887,-16.090809569784504
-6.912112624128644,-9.688684016560115,-12.212537427779043,-11.375142514104583,-0.3722221876023521,-6.197530443576027,-14.927705336500004,-18.730879866368337,-21.13793959462765,-17.689320886419406,-18.137232527676037,-17.03518386114917,-28.022649802516497,-22.539996248725974
-12.533249705983756,-8.37526953530847,-15.578629662822298,-16.74302468199957,-0.2405261329111763,-5.267967213288386,-13.366183379162084,-17.497270855818417,-24.525329082444006,-20.66573647528729,-23.41614652217251,-19.692506294342994,-32.93814813046512,-25.526183047474163
-15.412319045686644,-6.381248720555729,-14.329431012981903,-17.546977648164003,-1.9117680804247268,-4.802974727756075,-11.520722405543406,-15.079550985789949,-24.32256656158749,-18.70560762489588,-26.875325477746063,-17.736474255054304,-30.62647658344641,-23.941588741831318
-14.396402660817191,-2.881896000775689,-7.652329526272864,-13.697148902207887,-5.242707252109064,-2.9664825111936106,-9.680308128035266,-11.878343290847765,-20.22779107590428,-11.273899462963024,-26.10203362062706,-10.233990413129131,-19.710076176840545,-19.38382977076245
-10.065872750762088,2.831352829579183,0.8655358120175408,-6.030088125405773,-7.793447436894793,-1.8289472311907955,-4.142954231331607,-7.555646667761572,-13.10035808354958,-1.9330403641651277,-20.11213489645634,0.0675547490049999,-8.843084926261804,-13.894747194428314
-3.8763616718783496,10.69487602196369,12.735495530564606,7.209116300771135,-6.6491011651692045,-1.244684519186673,5.339724741357299,-1.8638134218360616,-4.615246697784581,10.955623203371628,-9.836823189066571,14.660100560462444,4.007708482023374,-8.090042525009716
2.491341394439329,13.02060589488118,15.690242974619606,11.168268712175584,-1.32658746321553,0.2065450262634577,9.119006057170417,4.283097720179866,3.1019283509273645,15.049921315318924,1.9011715317755888,19.419079623550083,8.9928421398236,-1.6544465019423873
7.375447193661877,9.217769178645849,8.359390864903446,5.088778587807821,5.100778472871244,-0.0033290169840199,7.369380155691312,8.81610772749087,8.06092393325564,9.038545983701882,11.166389639856051,13.013164115987458,3.89194835230806,4.651847043504237
9.477363941632293,3.456071073573764,0.1910376642053392,-1.5037326840576986,8.088267602538576,1.064051701104171,4.447638534118211,9.841284814221506,9.272622512250916,3.807262047697981,14.57228569298753,4.898852007049729,1.988515421766004,8.18022793003887
8.49769941198264,-6.3334716234718345,-11.998233262575464,-12.150239525012088,5.269221553462067,2.2685545499011357,-1.7955628102153538,7.1476619179169205,7.37160346476481,-3.660831026002553,11.180008988994434,-8.606422779164356,0.7119185061009207,6.233522717759145
5.475171903659369,-10.970606334881444,-16.24090981418349,-15.602969857044291,-1.580176399072096,1.3615627024035115,-2.328463375770375,2.491232481977514,4.289162691575312,-5.70852611196786,3.3019501187521936,-13.456882381273978,0.5343859509905272,-1.041378463679255
2.1807447284044112,-9.546996969557751,-10.531387530894593,-10.084423983935125,-7.978393497505829,2.300363622420756,3.7838799635840026,-1.6035433169357454,1.97703461380579,-0.2725936647636321,-4.692394036218895,-7.713529964997058,3.665421622588419,-9.801151497475432
-0.1477098587360075,-8.616825388363505,-6.762201154180579,-6.567495367815964,-10.17673114034011,2.2792446408421174,6.610515582277923,-3.4257001233628035,1.1852966182712965,0.2869335829504754,-8.946693551837551,-3.983818765849039,2.5159581523551924,-14.9604779642458
-1.589809980586228,-5.854620414726693,-1.8003372816456784,-2.173110457346388,-7.588081940427122,1.9537731586511875,8.099130004122001,-2.7326432825907805,1.4245512870233537,-2.11458135415342,-8.198452153571768,1.314170402470599,-2.4206832839787498,-13.914838370311273
-3.061028099119905,-4.929721079102327,0.0162001557035428,-0.5693447213592078,-2.4848674182849937,3.760813053327736,8.60228839549935,-0.2253857841150566,2.122138685646183,-2.3753111131594933,-3.874376470173853,3.699420391726711,-2.6820070720421803,-8.19694983320585
-5.089090666998004,-6.691732589984016,-3.218643160218202,-3.490442958044032,2.1531590924762547,3.475448674283926,6.522148054510664,3.275551979769096,3.683489990328088,-2.2527128156717184,1.5438534944667843,1.3034151766198112,0.8555185876035326,-1.7700489755628013
-7.181183017140851,-7.258740495746578,-4.504068655809376,-4.810073985012581,4.487814143648407,2.9336110420540527,8.654642446714812,7.042032427402102,7.153766502855239,2.663364050540224,6.213806582221572,1.5088828520904574,5.603252886276119,2.1680903508277822
-8.443989508958968,-7.638873052062401,-5.280271889575491,-5.784063549390673,4.1733715081532985,2.867807125401593,14.976556024643182,10.1019052604359,12.65329155780915,13.344897719482354,9.332156897696116,2.916850590029806,13.193279722516806,2.951349744112622
-8.67066396469287,-7.79657788764541,-5.533457831080495,-6.3184425378949145,1.7459141923833528,1.780605575192978,15.824513434799917,11.189615312494976,18.26151563866417,16.681145154763882,10.475173556947212,3.061805288147555,15.846601806397269,1.7511068292750274
-8.540553366095528,-7.252455288864143,-4.205903964926029,-5.479674548575949,-1.8257639677401367,1.9795595253341207,12.02496696081904,9.46933627018289,20.85204923198454,13.034191684924568,9.18468628641293,2.878729192144448,12.9263058141504,-0.0855482298359628
-8.609829422121459,-8.356466305036633,-3.299821545703854,-5.990436958126145,-5.15019340428495,2.249734104782282,4.908156043724099,5.457180844995197,18.49878641878693,6.789698470672007,5.517746374669564,1.2802673990589153,10.102717442269878,-1.7086172593412314
-8.277632975266902,-11.113471640261247,-2.48042350437595,-7.62994004587516,-6.634070785144136,1.0904764337859134,-7.631562662949833,1.064388364525554,12.314930787769292,-5.030341800726445,0.8226416923683111,-2.0687617342526954,5.487474851316496,-2.232628782979651
-6.1330768781117175,-13.182909623988156,-1.2454946554720163,-8.473662788455766,-5.348313218630494,-0.3240205267706909,-11.81193863638214,-1.588508514263859,5.853354895512426,-8.747181972188203,-2.541961740375406,-2.725405509188938,3.838284335086404,-0.4334074953298383
-1.6319586031304976,-14.96429990381721,0.1341625405162848,-8.918996987925407,-1.9429392876994316,-1.346529177109575,-7.003799946963818,-1.682368125615163,2.395816064353013,-3.403437567422029,-2.750171034028938,-0.6857591311871244,6.130431954262573,4.295791947424901
3.565424209760579,-14.789667641519497,1.4728341012354031,-8.230318760461659,1.4744422650138862,-1.623670246809172,-2.582201382274866,-0.1958237430575202,2.492809010817423,1.502743702857506,-0.0062553994574034,1.4538726920415823,8.046306903552997,10.57989382208158
6.22279954180442,-12.058329918294223,2.7533464766056555,-6.008117288954181,2.7649555075043466,-0.2386387494937163,4.619012618149473,1.0548316031310438,3.9281599991089062,9.242851809965934,3.5075548576937603,4.660351389536215,10.9465208356661,15.15215210839018
3.935998330502315,-10.926718894552325,3.2480815607368023,-4.572839325424084,1.4104051454683155,1.6776302588143903,6.571459822478023,0.9342899168544676,4.000262852068371,11.29633339297336,5.305400713967996,5.349544910282249,11.744285939238427,15.027911257065144
-2.6745968014466666,-11.03019132234486,2.8077564627244325,-3.7472420746007815,-1.0987909429630154,1.407874695764473,1.6515616715655357,-0.2802941838051058,1.880373327391787,6.029566938110266,4.400736106239538,2.9752710468576344,9.730633131411144,10.112517440608382
-9.96312375775929,-11.856134536484676,3.332395118650416,-2.860047896656498,-2.5473348900280968,-0.8196892565928857,-0.7612291821473168,-1.4613862350880176,-1.0847103675109508,3.063310336860841,1.6992476886614334,1.4689534372177535,8.176683189375959,3.755678860431143
-13.56997480460212,-14.283042827949078,4.727370685101395,-2.374127881735787,-1.8068312398596884,-4.192610053468778,-2.7356600956509256,-1.7740610610571528,-3.1063835353244027,0.2146018249694036,-1.0982637097857015,-0.0379635383762187,6.210806518699324,0.4389602232237921
-11.242789904806752,-12.1720756213645,6.721215401294264,-0.5477501160280764,0.4375188720343761,-6.879196129465375,-3.5468673628016605,-1.297822275919482,-3.748279079108588,0.4337487071481029,-2.7975598209879005,0.1619198405160015,6.613200787070558,2.4277404882924305
-4.070333570800905,-5.231705030974955,9.758554908219056,2.7309784179770693,2.57340363881082,-5.871269847115491,-1.7416545164844834,-0.7133955934670544,-3.994508777899553,5.40515637976019,-3.048784884666082,2.82754836685515,10.058623658113817,8.236318566688595
4.564314369340264,1.421537411306449,11.213644624392428,5.530054565255592,3.5680197514129013,-2.3252000635195853,-1.1501917663638936,-0.567979126128531,-4.784351322653814,8.401212748848726,-1.826869014930125,4.4067210685130975,12.344059563170427,14.120845680218734
11.29591548578523,9.110246772903468,10.989233958141371,8.18210440998205,3.657092967281752,1.4350620531673584,-1.22958600435599,-0.871485836231372,-5.794141953740111,10.417946017241674,0.9403939576142726,5.406029834542106,14.162127383573075,17.116209199416218
14.676865289331666,12.22816716372324,10.904538828698136,9.770358009737986,3.745371878308873,3.4366368626086725,-0.8074386321849486,-1.2510765309085947,-5.806735537048372,10.4086664536821,5.022615968534527,6.23504415600806,13.243998165817755,16.936931643625027
15.577784690733948,9.529576490854849,10.374661873864053,9.852923828558568,4.326456279141516,1.9741331332388947,-0.4618604225514139,-1.312892852825673,-4.164549298298744,7.0225081216126295,9.348622947274617,6.2625305165459775,8.602264851214294,15.37735049305328
16.109058446995313,10.26578805385016,11.607760914132008,11.859763883659818,5.027622001060244,-0.9120461850248998,0.6587737726766957,-0.8273046898066303,-1.6374115086664354,4.925885292394105,12.21143029791041,7.41894396001677,6.524436284359008,14.230434537860535
17.929056991203687,13.165541669687649,15.003783508406462,15.64983496509605,5.08382800367179,-2.412821478555061,2.666514331138897,0.2697017105860517,0.2363728124021333,3.5806500213999914,12.347573549372155,9.68125975025503,6.489464125390268,13.854883469641637
21.059305830340804,15.943667927800409,16.43292778990663,18.0813190123274,4.136899902793652,-1.9542663569101928,3.8103618719083023,1.841383693329087,0.5682473047905523,2.057180940975904,9.963213245228632,10.185926491653737,6.009952719905376,13.481028308219688
23.97765736567645,20.17977752387227,16.291213221955815,19.69296727653755,2.612528587644732,0.1419275140513183,4.18647766222617,3.443570036325446,-0.2323346667811119,1.2007551279023363,6.6873406812084415,9.137973163078742,6.252405434878409,12.47489608151103
24.931814381553497,20.62673856873566,14.0868198474162,18.837188950045487,1.4523299559038358,2.6917859059916447,3.391892432405517,4.37606369648503,-1.162631232758626,-1.325175058465505,4.422820380544079,7.627887186750514,2.569826330091758,11.041406387885967
23.50059875474661,16.945353915554804,8.854002744546648,14.763154987196382,1.4743917333821583,3.4914428408928577,0.9535586433085896,4.053442399251855,-1.7719905057702494,-5.564757070074156,4.07811846427024,5.079889336957596,-5.573079844676344,9.793458230028424
21.10944789325725,15.167076864451545,6.49551633514344,12.0871942352833,2.756070536667117,2.372105685863994,-0.816107763434815,2.481486452392573,-2.4656334096365797,-6.985323323655326,5.183822236829226,4.119699925377644,-8.418093039280476,8.973428299558677
19.93599684456716,14.31888490747976,6.948289368230999,10.418495195390593,4.380087534431942,0.8968890086442487,-2.057585317908817,0.3971014668363768,-3.744748290551273,-5.762567262497914,6.5214660728824265,5.004772186081188,-6.516998884576018,8.348164917513612
21.003160635160093,12.97122691345712,8.145283264913639,8.739307065598677,4.816304108930686,-0.63076300745801,-2.2687394689347338,-1.1429660935948045,-5.368390155598066,-3.787823967957853,7.073396424404818,4.795331989877147,-3.4293855014615406,7.803200795020197
23.09004127843605,12.099649838228371,11.450451064415647,7.983407464272246,2.931478274167511,-1.53199700183204,-0.8505874227326796,-1.4487948021993056,-6.43131730474286,-0.0855254886014477,6.557606594253734,4.046264936231427,2.878506450779758,7.737218436664794
23.526272516044905,10.416414348217623,10.994901197247644,6.528160477508817,-0.961140377694318,-1.286915512376883,-0.1989630034809729,-0.6248825520080672,-6.252673177873376,1.0873443517011403,5.36158418613058,3.236750673544003,4.269372901345943,8.621479429841077
20.33816761494008,7.899273321898274,6.369255059273648,4.435413860624233,-4.954719361814515,-0.994493213193014,-0.0843483684844762,0.5791175506213788,-5.063620005802097,-0.690040247784744,4.158817556437359,1.9191255173948385,0.0408643352939261,10.18342749410715
13.986081684874224,6.856577186981392,1.4678900892033868,2.7259482366947174,-6.719061866764722,-1.1416214132873133,-0.5928660427998498,1.3365213312079502,-3.754092736808708,-1.823441025340008,3.522391174667725,1.8200653838353964,-0.1004390031449767,11.25428551408706
7.210276504875704,7.1966008007487625,-5.126685665268978,1.127530338522212,-5.2020389246903145,-1.1977777939264485,-2.2475213501931446,1.2754084189233748,-3.015580707052073,-3.333118538312117,3.656229320909741,3.0220297304440837,2.2531260039214875,10.652487794917471
3.070465732033151,6.950377503289506,-7.656906002507346,1.1486585536114646,-1.4041235576071198,-1.2190303220902765,-2.725011987105824,0.6103604069546886,-2.8490106929260106,-3.940452600235008,4.28746658871964,2.909660743629265,3.735661653626304,8.290794900108585
2.744911944492527,6.509937162742894,-5.264120170031617,3.078755554067677,2.481637827383341,-1.4809368665642273,-2.0981039801828887,-0.1435758614615903,-2.926023543457476,-3.1060491396422463,4.80140236236122,1.7249316573480786,5.785221801279641,5.351569088658064
4.787099475725934,4.793239240512833,-3.416136011896106,4.391847244404892,4.718350443820299,-1.7376409206249326,-1.689089493979595,-0.5952817898384613,-3.274387441426496,-2.376841676139228,4.625486777112393,-0.2721115873721046,3.0826869528811227,3.277008004488533
6.289587353638615,1.3555171685108869,-0.6348981552985699,5.403964855093683,4.909669135449873,-2.521989632014765,-1.0473998890815364,-0.7176823760340136,-4.367481919444419,-1.292402232113697,3.628877346830439,-3.647127246980376,-5.1174526566874805,2.519507176809197
4.917781551237941,-1.1969249956104413,-0.2667205221068071,4.155472368812501,3.5117378819875817,-3.7306336268552336,-1.3558812140626486,-0.7683612672747886,-6.3857457749557325,-0.4708157763651047,2.1910303475516706,-5.054647964483549,-7.721629378216108,2.2341675122344045
0.2703389080296556,-3.13521525889332,-3.308569885397647,-0.0709124098908789,0.9017893933594064,-4.054222516073559,-2.853872935463759,-1.0084720653494212,-8.453099634657697,-0.1225723385784779,0.8412319312935175,-4.388798466642887,-5.440269353434887,1.1649019493289687
-6.228773586754691,-5.08017577721924,-5.260662126892715,-3.355255491019264,-2.7157645525815584,-3.189692650106929,-3.678387696143671,-1.461715327858947,-8.87384738974301,-0.0923276884374842,-0.1982036584234183,-3.646869908821661,-2.4578753725842177,-1.1386285715915694
-12.493715354361886,-6.539119326920318,-7.099869032054479,-6.23876374809269,-6.522070930299021,-1.400167161238997,-4.085509235526024,-1.8858596803058845,-6.4575803077313925,-0.6364800431791472,-1.1003047711555691,-2.060891358426251,3.4697201039819263,-3.8625631868021983
-16.961252605606077,-7.694779315977535,-7.79905522904249,-7.942472447063609,-8.696661639309454,0.3498542667325713,-3.381327531984579,-1.9446247195609927,-1.7972761355480549,-0.5187259000742076,-2.064805097813238,-1.8444621834136483,4.324711708535246,-5.563009033339708
-19.096057942846222,-8.471727691444146,-6.592250029895767,-7.627400370439578,-7.445355011732715,0.5984438630380119,-1.1284734585483205,-1.432170694093328,2.8420489043337014,0.2758850082670306,-2.9195906025294,-3.343272448780038,-0.6456803347372693,-5.298396517514897
-19.27165188755412,-7.658541618679499,-4.991883505519835,-7.453780136561281,-2.7711147580586832,-0.9946364667626608,1.040284948344988,-0.4054902947146157,5.181635610548376,1.3449636933615006,-3.186904293321607,-3.76647504264558,-1.7919437641051927,-3.369208178333494
-18.459341156944152,-5.116144523176504,-2.473356883702721,-6.97168160455209,2.8839393104213435,-3.0196432998766274,3.389355743568616,0.8274983470344655,4.757240029667475,2.990898155424804,-2.602104220088423,-3.6100714259526017,-0.697825275978485,-1.195225316869526
-17.922644764263687,-4.338521751377077,-2.293360045825328,-6.639144357696647,6.181457846145721,-3.662937122933776,3.907353890650056,1.8406110379389968,3.205781062714376,3.1507696962383878,-1.530060128352858,-3.4107687072302384,0.7849251004690007,-0.4970093714758725
-18.766936180692923,-5.262435428311739,-4.8772709382355215,-6.814565733969582,5.498182113807918,-2.116431229032356,2.0997883395414183,2.291562655419888,2.665171527238339,1.6724237407314977,-0.7754339457468369,-2.739109017717824,4.236773154407464,-2.3292166936125263
-21.299754718034897,-7.405648481387643,-8.750001832061905,-7.021412265735485,2.2206153402200526,0.9729881632989744,0.4414196248043689,2.1144748218976286,3.785477498613422,-0.0188614175851969,-0.915984572886292,-3.2883230183636902,2.5682207004465223,-6.516930165491214
-24.6344170796151,-11.65694486801267,-14.892463501389216,-7.52293058973716,-0.5834205626096916,3.689328796376645,-1.647550295945149,1.5832628118388694,5.307686295316496,-2.42838305102658,-1.8211543040981155,-5.161252294770523,-4.641777449328272,-11.794374988532589
-27.12707492188545,-15.161586744169652,-18.46376499600018,-9.58302251127724,-0.948148707367996,4.546629407852199,-2.411019360992892,1.1583366479210069,5.64407772284395,-2.9424037926648223,-2.845827353250457,-6.6806278161224535,-9.10016011743184,-16.562510114966177
-27.627312190185407,-17.994344515749333,-19.130530001372925,-13.364628038033722,0.3380798245008565,3.493279416454301,-1.3269009650834735,1.1842525511780586,4.817971736678051,-1.186948463765202,-3.489655140519405,-8.188054489209108,-12.111017969798118,-19.81339867786748
-26.621403562552644,-20.811910488942907,-19.66487449596645,-18.490871587106373,0.70501388553095,2.6801148276327424,-1.2061039802392512,1.6624271714356054,4.644726513371726,0.5194909125231584,-3.847934869195396,-9.071153187116655,-13.462688597109556,-21.625159890593068
-26.15857215283725,-22.963981067368056,-18.84811332573404,-25.382822255848694,-1.6413891681395798,3.173749586818424,-1.5738669053433685,2.290461049873512,6.789718481615675,2.8620838728557354,-4.441361574347468,-8.995581221373973,-11.56836311600316,-22.901558160649543
-28.387645799769437,-24.66634408780534,-19.351907156890267,-28.39347635437771,-6.073967286717684,4.232414494496254,-0.8158147478496965,2.720233409586955,10.631274439780746,3.765439055450504,-5.671419961571688,-9.157647296772064,-12.357110195631543,-24.585182889910705
-33.809691021161754,-25.75811757760142,-21.51909351964026,-27.083421917011016,-10.280262448330864,6.036874850522469,0.7398889414176671,2.7862453704805707,13.281661362539118,2.7730281385886824,-7.461891647730127,-9.333599919894583,-15.534775408312544,-26.97806711068794
-40.70277908304637,-27.268580256208896,-23.47357438318733,-24.11903053403054,-12.433055551333366,6.328633161493983,3.3425500112155726,2.5281369559733955,12.069376377178893,1.830060854637083,-9.346415940485082,-10.105493103906037,-17.28375348172539,-29.674325593419088
-46.18502469939938,-29.242586282241582,-25.911741938521303,-17.95819980891928,-12.535296023812016,5.22929629158289,7.305718739089549,2.085576244464055,7.229914647161998,0.325269331204648,-10.79386833329306,-11.726092133788788,-18.63483300770216,-32.04072565206299
-47.98938308311153,-27.72444479880944,-25.10931012371208,-14.278921043131334,-11.747306569114894,4.743915554297553,8.341235224748688,1.6550527874844652,2.112773789793578,-0.4327166599639215,-11.466382603966116,-12.180019579474004,-17.66462454352573,-33.71910143551454
-45.55794717746112,-22.614126903176068,-20.56919142311681,-13.514458479955229,-10.723276408068172,3.460969797771039,6.241434293299512,1.5214756788662385,0.4744181504805476,-0.132735171901215,-11.35813742000338,-11.557100624457323,-13.67777524923165,-34.69657707431696
-39.8679575063328,-15.626946607527389,-15.180740748771278,-12.340603003733223,-8.950046179167838,3.4822167406159594,4.529388553548037,1.9682891671921663,3.2397621230477003,0.1570450103404978,-10.890486658854297,-10.043730005748166,-11.654644201930765,-34.995943473995425
-32.53315611308457,-5.7739746283936935,-7.9443533110275055,-12.185370248423244,-5.80521017707759,3.889591996873629,2.2598796890072084,2.9745736131627933,7.705197558348013,0.8434019804583001,-10.852333227710767,-7.156163230793366,-11.218737298651847,-34.42272574161344
-25.05197026278764,-0.5713569018538375,-3.92358254137984,-10.618589602818624,-2.009530509570068,2.758892499319377,0.933009486573059,3.96777078353921,9.907948679330412,0.4147740790283255,-11.954152629863014,-5.499401045289313,-11.544340443980804,-32.68244953152205
-18.48914066986021,-0.7056706119731394,-3.857798195100552,-7.291271286535085,0.375758600013675,2.868942422373514,1.1435952010191657,4.037428201778097,7.967956465718913,-1.3379863759006647,-14.106127890900597,-5.122144186367671,-13.697911660819155,-29.7275559434862
-13.281317423244465,0.5450928589435097,-2.77519540295963,-3.682378472153754,-0.3288981508495032,1.6438986837062657,-0.4832648996635167,2.6278619004623085,3.4119425463221127,-3.1736594914641163,-16.066537330443715,-5.019434369410544,-12.939250196174282,-25.92697988654122
-8.984945249659864,1.4167045359085773,-1.961242843773797,0.8714435039992442,-3.658730597731231,0.1527008033301471,-3.578058967796209,0.1469867719894675,-0.5164179390564256,-5.489405577008062,-16.077744902192844,-5.824669120910674,-9.139550345380348,-21.85242501437299
-4.339287983072667,4.02379265653139,0.2622396519746411,4.302256025160525,-7.050246967726316,0.7621356423461239,-5.374536794486345,-2.1707067406462053,-1.784337462778271,-6.35906141892399,-13.252337752982138,-5.364660079522833,-5.960772737812549,-17.898017043025035
1.929077579549558,9.433344522318995,4.69659523756116,6.376392321668788,-7.756767066950113,0.1322123176197944,-6.29731221846313,-3.1888246148223747,-1.031358517077924,-5.472044196519525,-8.549815311851095,-3.4970780659102814,-2.424701104906737,-14.112034696963985
9.910630079853272,12.783497363758553,9.000789508346129,8.466295289515129,-4.871929432762226,0.3975987497513539,-6.818075438719917,-2.8321181000178264,-0.4765685364758898,-4.893309325406666,-4.282105513720874,-0.8124777679700124,-1.4191749093760488,-10.357132737013476
18.05134356011581,14.694846851847478,13.802881706058026,10.029935370417371,0.2922178375591997,1.0203490929666006,-6.433967449334008,-2.200517967427964,-1.6058035976598175,-4.13579724379621,-2.3450219818156945,3.290483812562099,-3.705651819694309,-6.545534033116841
24.21916686153439,17.57493745083389,16.96706711613363,12.537988550862462,5.533076736720378,-0.2208348959118065,-6.0130368823773335,-2.658845539634582,-3.888376494626367,-3.4736572761035074,-2.646401624125045,6.298465036709521,-3.7168570888145367,-2.6411544293824374
27.64371092874845,20.70971179625296,18.011357619143457,16.207241031837384,9.335432326185172,-0.1816467704938799,-5.509788633811052,-4.645499278490874,-5.529720401941469,-3.222741219640467,-3.163177780333968,8.136487182301659,-2.0797481150058053,1.5684944745401914
29.903653685999146,24.732181826954225,17.761826055818116,20.054575870296045,11.373810807842643,-0.8796551042285301,-4.050374259790506,-7.2100533254410974,-5.283868575575188,-2.386454083444133,-1.641278310743413,9.490263417739332,2.0692746178435275,6.610018200909581
33.68472954241579,30.00468445871808,15.45790232011569,24.490377157071265,11.981546776127916,-2.161425314986667,-1.7394603359695842,-8.672644331518377,-3.541616812270499,-1.096914204223109,2.5264436340051537,9.709690143394482,9.989432417023488,13.09342721428595
40.111356510540126,33.222423454649025,15.726977564541466,26.97674707754732,11.605701208303731,-1.8782180201422585,0.7941175324590929,-7.866553390613616,-1.8341331430961103,-0.1495949872714471,7.846726242988856,10.915549378821956,12.706307573268484,21.195671294552373
47.13215796608314,34.39674609693718,18.82131424684481,27.220488036331112,10.880203038968798,-2.5524885839514044,3.673350570204005,-4.975699744125178,-1.4322494636165422,0.5635231846657158,11.99383217644288,13.144415807961416,10.227928262787287,30.24500236234072
50.82587751458546,35.20186496038106,22.189747064635696,26.919423543355865,10.85256331257294,-2.1823824511196315,7.4267256160466415,-1.353198476683879,-2.3885637641998603,1.7037475901684438,13.605253411511343,15.387120392966464,6.247378164162265,38.73818783564092
48.81763153443106,34.90547506636663,26.97764077827185,25.387492683796427,12.518707189819494,-0.7504181906355788,11.997435443156157,1.4584806633347398,-3.739837878719923,3.1713596862103453,13.078475385730194,18.12612146052104,-1.312142209792609,44.79693436551773
42.719737502225726,33.27156336028683,26.630006712095057,23.854434830825596,15.680535812344925,-0.6780161864812538,12.689186990422684,2.68416692236475,-4.469714188107411,2.6762789718475037,11.853801261637024,16.870645635911142,-1.880783006328634,46.80887821595171
37.05849810655213,30.32871177158345,20.42077101578796,22.518697836004087,18.289627941776565,-0.9524721799981988,9.140207394476136,2.533572112760877,-4.3007347799388524,0.1165325884275988,11.010512141197632,11.151985760520406,5.482107664900247,44.00466041183074
35.340302424378244,26.021220021900344,13.19755170230754,18.92832268637274,17.448791246874457,-1.4604362876518353,4.206334428746614,1.6587327444013074,-3.7362711201066414,-3.40406826808225,10.4829507989244,4.475593531819832,11.008320787343989,36.856867807517645
36.81159046144569,20.25971268659797,3.2576866900167563,13.25777950786772,11.783714517026418,-2.586405111935526,-3.345836316922098,0.4877796588060761,-3.4912245018556405,-8.477558977237274,9.496311077109272,-4.303554961144714,17.100683366959668,27.206083221835662
37.10956225471035,14.622403946710174,0.4753097964841858,8.719160008478571,3.26747261932751,-3.183711834185046,-6.394982766394564,-0.9094432660991316,-3.868700472013918,-9.969060829255277,7.65879969913977,-6.682435040350082,18.401495071566195,17.91430538276228
32.44191399398293,9.206445710251115,6.22319466781908,5.063372452046021,-3.471150456853519,-1.6860953348148608,-4.126454575212411,-2.4049208546567105,-4.558234738026877,-7.382502267406726,5.584352184453472,-1.4763186829203845,13.030678934530595,11.898029653949592
23.469209581297875,1.0763608876096518,12.200321044032885,2.485521825342369,-4.359125955654365,-0.9150211527832084,-1.8606969260395512,-3.465106782341046,-4.959539861976529,-4.573971059858916,4.421456670226442,3.7128348901747583,12.33767356634954,10.798827852277377
15.135784767919418,-9.575645226909678,21.02888734578373,1.7733989683589528,0.7905457581146376,-0.4076759441528393,2.2617415796625164,-3.4236939307183034,-4.759259206295524,-0.2431453285524268,4.743471070794733,11.112663352117304,15.024857564974882,14.055148301616928
12.419750784776117,-14.442756872110712,23.02870752986664,1.0903593984463744,7.765408563623362,0.7289843476663929,4.168877714546029,-2.176739577808238,-4.284686528332112,2.450658046997786,5.900447301925537,13.765761256330585,17.317631440135376,19.160176976262424
15.847693627017348,-13.379943599838512,16.43166903010786,0.7399723047785889,11.031804276479184,-0.8942636228061372,3.0459191147977145,-0.4923818643965418,-4.258347427195584,2.8641411722335803,6.52510729918802,10.146845975872637,21.18709971257333,23.155619693288894
20.899013201634293,-9.00197222935278,10.087225403498536,-0.1092739499320871,8.034612482206038,-1.837731859724395,1.3325689091859163,0.5754358011262521,-5.031049831962649,3.576397072929351,5.777564457201077,6.5635519443029615,20.36182968627424,24.39705749430902
21.808726095092887,0.8455901011039036,1.3009012355661616,-1.849205318605904,1.0883057895403976,-1.930606780278556,-2.242368650232254,0.688166775608396,-5.943213986819396,3.6588843388016254,4.149999886502679,0.9444956288861104,14.201124819819103,23.26199398936321
16.254155020627344,2.8451819846142774,-3.804614405706909,-3.574398209530015,-4.806901945161904,-3.292215142788591,-4.690614743113901,0.5527229070954931,-5.596577538944822,3.3886280503533133,3.0076476475521083,-2.1483733032756893,10.32670161745902,21.25694573872879
6.799938910168754,-3.872635157859402,-3.732830321832012,-5.634597862948206,-6.327706166844841,-3.478642934190709,-5.782155638478892,1.0721881706522731,-3.130532967720874,2.959016077257217,3.233235813953108,-1.7262515438101802,7.487721893944316,19.343249742708934
-1.798865428373901,-11.854160462713905,-4.62520412981259,-7.232369710383344,-4.5266656505221405,-3.7202976520349913,-6.250677203417701,2.100534376351749,0.5021703961707233,2.7838453194018764,4.254133654091628,-0.3148257007036225,5.221367112879792,17.026780848236335
-6.549049744720842,-24.467650271488925,-4.665477223461224,-8.248943411120166,-3.518138800480181,-5.107794540420128,-5.26007375396084,2.2041037709270217,2.677999857802781,3.051061748866492,4.46065552577223,3.575295792384321,4.876818250997765,13.083577523123637
-7.815254473906929,-29.2878338062909,-4.958703653254913,-9.761175149515548,-6.412292098401808,-5.850192196701022,-4.830879679993002,-0.0389601703581519,1.0653567229184704,3.280704263886284,2.754637945325398,4.905651759614954,3.483589445188332,7.251862416459997
-7.690281745691224,-24.90426340724965,-6.238042170624237,-11.604388860511555,-12.21599267011254,-5.38598690111332,-4.889603916933521,-4.30165720729044,-4.004188544354817,3.655624856675785,-0.1535088479941044,3.343510334786836,1.317938329659578,1.2118324978232078
-7.476261990648137,-17.295163612128107,-5.510292079335736,-10.961859859241644,-16.525189513869442,-5.782039265540643,-3.774839982508219,-8.145824492117711,-9.037306451286309,4.211272930899556,-2.0008885355879977,2.434345660506507,1.200178898897024,-2.293009812337622
-7.062813622407939,-2.938183390942635,-3.112183160893719,-7.746586547083176,-15.419419824552987,-5.5403048212328,-1.802437131749024,-8.735874372753187,-9.750237178501148,4.929487308629213,-0.7914492565377076,1.0073682391710876,2.8063108986390835,-1.6631626004523925
-6.481947851579911,3.19767812925111,-2.493388032091901,-5.523042508417293,-9.103231411952832,-3.8976351335861783,0.146043879605861,-5.307048316670002,-4.681116194419482,5.6840821908791765,3.2540020213173846,0.9220139276361536,4.34836369889385,1.88425785413814
-7.310220571903956,-0.0328662003772421,-3.3944625756343982,-3.810174863183146,-2.0383671290518848,-3.8272563386423153,2.269519725153649,-0.1026656375899801,3.136818005722967,6.470074280584319,7.382917706016164,2.6819719118988226,6.261980767926426,4.779870691024916
-11.72424413727315,-6.399713769612327,-7.206110012698915,-6.322219828480823,0.6314947118719685,-2.700367027562693,2.4672722930429085,3.307813010219384,8.301564059286417,5.708349162978914,8.203293346398567,-0.0883681753822796,4.920500849850421,3.588340961668941
-19.764382370513147,-19.955085970127044,-14.907442922784124,-14.163800917903211,-2.6690521780840544,-1.156242460185617,0.3745058411855951,3.0133626782613563,7.474804421281188,3.19726386453149,4.4795964477006365,-7.289833715203376,-0.3177626177775006,-2.3350715367887926
-27.76720819800257,-24.47836071071888,-17.669711196545467,-16.861128650822227,-8.651948654368656,-1.66777801875209,-1.3572778499984346,0.3633988181152618,2.2683949763603124,0.7918632782311272,-1.488672728083328,-10.903722928075975,-4.71561221719993,-10.13645607855278
-30.27327905651256,-18.91471346043673,-15.521063886080013,-14.986712792907923,-11.921006793196904,-1.1224868074699552,-3.2438066430974253,-1.3876762702966705,-2.1815863797756148,-1.875456319804565,-5.338571077483583,-11.81478754729044,-9.149508891650983,-15.355736534598982
-24.394643689833813,-11.475823843374192,-9.161069881174075,-8.933688203338306,-9.411138362653553,0.1198001869833183,-3.5182698868905105,-0.2508037695885541,-1.880342833525674,-3.9113098572781615,-4.079018126444431,-6.443247286927004,-9.02439504013804,-15.054726640968005
-12.872740576970202,1.9619698884852437,3.7557126021721703,3.820509084407371,-2.7564318666814707,1.0808852995817229,-1.5653538604105848,2.47757323663547,2.3146667932269303,-4.92189515732735,1.2733185228211692,7.330462598329191,-3.0667875723261218,-9.87691199760848
-2.7542484890335706,6.278252811109881,8.907176824104333,8.57201009972207,3.3095579459769,2.506286349987033,-0.5636931123084808,3.380860290947295,5.4568037222489245,-4.534198502560676,6.257287711168111,12.054078318094618,0.1452315550599847,-3.582969178323303
-0.3620009848415684,0.0117309569011783,5.95912121050698,5.109322783362192,4.984942082699451,3.197761887615835,-0.0172526782995871,0.3342439268810526,3.198800573667887,-2.2513316240350565,6.528162569266586,8.104342630098063,1.7046952551272,-0.4996806949156278
-6.606830306112126,-5.102018121927209,1.157514260897595,0.5352273332636386,2.3399474364795,2.45004917627247,0.2548205363600482,-5.041882268108994,-3.8780902623240343,0.7755181680964066,1.513195805415574,0.7623517261958815,-0.6379487265446601,-2.7488301919761597
-16.494497517854047,-12.743605639577613,-8.95817578718695,-8.551656379658583,-1.2135057057150045,2.0234188245401903,-0.3100037741346949,-8.38384010337467,-10.396017897398924,4.834082327551093,-5.029627160187202,-14.015403285546638,-8.840448707184246,-9.091562209456676
-23.10174873886374,-14.038654890520434,-13.022573087208125,-11.377896015301587,-2.1772901568543954,2.719174336533731,0.0461650234576739,-6.36446216465559,-10.808275540406196,5.97058650474326,-8.13877609382876,-18.567866838081496,-12.706121705906568,-15.952952308361152
-22.625815479289663,-6.9455141666339975,-10.101386578502536,-6.790211950912077,0.0661572133400465,3.3926915697383238,1.2570291703705412,0.1248554247077571,-4.378602043989364,3.641843398933632,-5.806706854426642,-11.88338562852836,-12.883225841135356,-19.75733571739666
-16.583960609229777,-4.425244742629272,-8.757231515526655,-3.844345057785073,3.073308041742033,4.385145492591911,1.0182089947654662,6.377913712991267,3.9977167584727447,1.0785185988461194,-0.5910786244227992,-6.423326098553216,-12.089556554729624,-19.062532644852865
-9.974402607127963,-4.32548303376791,-6.30713460433352,0.0533576634548336,3.812132872902105,4.611522277891472,-0.4776747714548192,7.651014887043688,7.855107030274011,-2.793377226961012,2.6225950247185,1.8787064493752472,-8.20206987068469,-15.30037781007584
-7.428791889280806,-4.131057757633115,-6.538224422807069,0.4927412494162884,1.3841489423614988,3.352359034013684,-2.2395966316787845,3.051626798092336,4.458523924495953,-5.042555582497017,0.6486254992783298,3.550815741043269,-7.8102074315185055,-11.787220165044108
-10.351368090415146,-5.900227744514674,-10.67097968943705,-3.990108701786918,-2.3608013096831613,2.390362744006855,-4.7056616505822495,-3.8043422445512505,-3.2305724115390118,-5.09785045882081,-5.626462849189384,-3.514566644754536,-11.174189705606098,-11.57889016915838
-16.548881710564732,-3.270724684124714,-13.441832997223052,-7.814590265812414,-4.594370245978258,1.908028386121979,-5.946050325680388,-7.811159885377314,-9.324657843747849,-6.156323543284909,-12.289804568923769,-7.263213260089079,-12.648985794073331,-15.395742195286882
-21.863494686410764,4.043542922998483,-15.944840971353424,-12.359980961033552,-3.865398109136727,1.391905314353826,-5.724912681314199,-6.363814928501842,-9.77221708327778,-7.447785380820121,-15.623072195140155,-10.128422759972391,-13.554186169653413,-20.949011798563618
-22.51794418940188,6.165043307120544,-15.095182274426111,-13.30342600058962,-0.9920033461689108,1.274543765049167,-4.491884920703862,-1.005556955132899,-5.010421547117186,-6.7896784990858325,-14.672646989148006,-10.06076350378015,-11.33460000634236,-24.300847995448013
-17.151589918933833,3.931668957092745,-9.77778045584571,-9.48728243229109,2.0001613505411804,1.4311963145086262,-1.6371198942046603,4.328462852210631,1.278643363163102,-4.389339401438027,-11.321507910656829,-4.949974404331607,-4.907033605103158,-22.54215775943644
-7.807760193319659,0.7962853872244317,-4.387586426298639,-5.177465818262032,3.6349620218912975,0.837390845946838,1.5707066388628537,6.643570262383488,5.611984364166741,-1.117911026482329,-8.305069870771458,-1.8339261091366297,-0.2137584135469737,-15.939220386364802
0.8395150201964157,-5.167634108840582,2.074677825032905,0.9973004096553166,3.833624275436588,0.970280515021238,5.233444241306459,5.950333321828435,7.187990405548892,3.464837768034878,-7.086582895091723,0.2299305060727047,3.407991158554112,-7.850299395046719
4.152566403735303,-6.052422170329607,4.342786795011969,3.4314557769356457,3.392365872599268,2.3403310001634785,7.684996145353843,4.65958184515241,7.68936013796775,5.37226722348742,-7.159776393825066,1.4051480221159391,4.272995262153487,-2.332920997581205
0.7597269409857574,-1.1350076973573828,1.2620764124865638,1.1857538626077908,2.960072233010973,2.9237565166509163,8.4838474787197,5.240924821828255,9.230605321952767,4.191006727195238,-6.911310748468065,0.3674204910720227,0.9674096055242024,-1.2554029268075446
-6.113501059779026,2.0454429907271177,-0.5657798737773573,-0.2606174983940607,2.614618427507601,3.6820452152818697,9.00200631402493,8.262149179739072,12.524464892157583,3.9552251126633777,-5.050572848154989,0.1634865670587606,-0.7991178194305749,-3.2093993873385784
-10.786000331221963,5.256645663465549,-2.552254256374669,-2.389961204287601,2.242919900133717,4.126984035203369,8.66583766857014,12.21952342153244,16.57785714662512,3.7454660847249377,-1.5290964976298014,0.4409285913888068,-1.6878601399135926,-5.0314622408106615
-9.49583390594124,6.499036900452558,-2.489380980408844,-1.964508196498129,2.028020373401283,3.160721792805983,7.960152209309742,14.906332496437166,19.660627018378484,4.252014484197449,2.4936771312668142,0.3233212081416795,-1.575731082770076,-4.528866001818546
-3.4612422307700115,4.491735422606975,0.8453090614976125,1.9986004683632268,2.3805312911132788,3.179278838678256,6.972550836059908,14.966536127766297,20.4578683641885,6.135045188565164,5.431213880609249,0.3138665586736244,0.7106565067678347,-2.057606907363713
2.1857341790994558,3.293501209969945,1.908080644513024,4.140429886856976,3.4285942227892505,3.769464130798399,5.708325650108038,12.490007400157817,18.636902506608536,7.847309772415786,6.280635156921559,-0.3165843878405543,2.207602499248715,0.2492573502440649
2.859225736199896,2.111546404457277,1.3804496910501027,5.310704240436023,4.711621789697375,3.69707356507776,4.327699328687765,8.544085320862926,14.795841413929733,9.757559499299708,5.299949573374889,-1.6183461550573257,3.283406275913928,0.6688983422379486
-1.5271668054682408,0.833060720265767,0.634772626464798,5.182269795461206,5.43575469038041,3.2336486397410256,3.5451142697913944,4.349694752249654,10.10368059225408,9.987954280688536,3.90241916196214,-2.0158151200279173,2.861868392136212,-0.5843600160800335
-6.652725934754152,0.0747964783902956,-1.299090114673116,2.746846506539269,4.986772780643378,1.528120742649553,3.53100469760612,0.7878994398695021,5.836184567760455,8.151516891063446,3.685808779678261,-1.557058720149859,0.2642275823615944,-1.7631843218936147
-7.751281549811811,0.3424011526501985,-1.5469079748425472,1.9723821949603004,3.2022938304488946,-0.2640525966561396,3.998781844573727,-1.6531288169356522,2.892373925296642,3.9261521175996448,5.147743582278679,-0.6389171990932627,-3.3561842471230507,-1.3319169308535663
-3.707555667238836,1.971537811738,0.0504841672798164,2.6394920138771014,0.3311278647260636,-0.8667933037602681,5.224090521726322,-2.7979606442812184,1.4761787734177858,-3.4522133227202567,7.096979188931474,1.1103609476003362,-8.552958380561003,0.6739738602393608
2.40953576763172,3.80646454311563,1.4084250488910022,3.40844093996762,-3.0044356202635605,-0.3799663397022617,4.988589707873206,-2.779409361844369,1.1804570502345015,-6.07550136894274,7.459152445379633,2.1312846078069825,-9.219551249053133,2.8537483730374262
6.542717517803251,6.089982664627322,3.16538637503716,5.083768245640101,-5.741126592529341,0.2949434721431033,3.1485359578380443,-2.0098701341992395,1.4414668661275272,-3.6737225171789047,5.047860105248024,2.3617369584853543,-4.750580557181886,3.8475681656267753
7.241726882337161,7.398600820816887,3.399230840523096,6.237602377292054,-6.580226759618586,-0.511913501991749,-0.683373161480056,-0.9931839740865698,1.935370069672828,0.6926923150665999,0.8373444283043341,2.2082343819758905,0.1416498742961918,3.5438036376686384
6.279342578882119,7.415257347818139,1.6983347762376837,6.795622845009295,-4.778997622888145,-2.470255693198056,-7.239072148713661,-0.1085929140611767,2.482504875218119,9.04764268031981,-2.546350261480409,1.2564891211482307,7.006223046735966,3.041117567427204
6.151663553497876,7.966582533170865,1.836479871682944,7.649220090168497,-1.0687529794376935,-4.004320381597367,-10.499299007094402,0.3756213451148529,2.574041197602064,11.03732142704961,-2.8902093396264696,1.1372139143714293,9.238956902743578,3.5569587315661373
7.4189242581563235,8.671307834824887,3.457102227498725,8.483913563495053,2.348095409903568,-3.5043268463990493,-10.377270268361244,0.0931006984759257,1.1981125585703971,5.903540576164601,-0.2657371973622169,1.8932446533004417,5.748503241743313,5.351491082244921
8.654179845816426,9.374951661458075,6.063549253345606,8.107889406410308,3.216538845460983,-1.2706365188814572,-9.446521536838254,-1.415971786368143,-2.504302088222815,0.2763267003342755,3.0112949138247984,2.64695625903873,3.3496947609414565,7.542332381141556
8.711850706633331,10.34237796312524,10.441839148480147,6.465939958980056,1.1258870886992265,1.255521260455284,-6.266304069090945,-4.212262801662522,-8.120284539053943,-8.407882361754657,4.331115665102772,3.7711857825151607,0.338790454423369,8.808917209725735
8.494082595782082,10.090447062922896,11.702086967350784,5.214072996503921,-1.8867116189100013,2.3452553374349274,-4.646447546534218,-7.366351038605336,-13.517890480151811,-11.441746308518068,2.870980933744283,3.918699040492882,-0.6853050664957631,8.33427371626742
10.080227803681368,8.556650987459918,9.63343172778354,4.142206585833086,-2.88318343993046,0.8119085443104253,-4.875887485394139,-9.093724260238956,-15.894494821954844,-7.564682988550772,-0.0291380020750491,2.919054473155815,1.4361805726356367,6.363685199270639
14.145317177488684,7.295050345925255,8.561713602064094,4.23744408123513,-0.5490530208433091,-1.1037542032048315,-3.013407631268973,-7.931294493861483,-13.816120403206458,-4.324564604900241,-2.310911899956558,2.747439658551987,2.966570676922135,4.168216317992057
18.61952141284862,6.02577044352783,7.475329681837296,5.943933358914594,3.621752376872722,-1.9489576581544183,0.1785981743008514,-4.133557683846322,-8.599793844285635,0.5471816230154981,-2.8723500915083813,3.1488893047873514,4.8333620394674055,3.4847249073389728
20.29280054134116,6.532953570629464,7.701378412928918,6.968890508476756,6.705524114996176,-1.5574783558796668,2.620056021387325,0.1000802909610745,-3.657765147029658,2.8302941620987627,-1.9187788523857965,4.1412592036679,6.88766986418852,5.602368481655354
17.892618804656486,9.274026894171287,10.004226535850275,7.597079161542274,7.06982868328143,0.1312025384695075,4.755190484808702,2.115677122992759,-2.069271804285359,1.3232487570899836,-0.0218542926668661,6.127636992195333,8.647437285916277,10.43166792402698
13.481667549824657,12.383363886767452,10.160704338323164,9.030675022510072,5.826285872890408,1.3955768322825768,5.664634279486552,0.9289101633618396,-4.260572393305504,1.4585247799361594,2.7433262853276608,6.8889731302910135,11.004539154334523,16.13778423191045
10.65152608004878,16.417816344987138,8.498087980292668,10.932595055524256,5.568201530265539,1.3057063102357958,4.888090831303205,-1.915362539577944,-7.743978289627298,2.0296040853344994,6.529330052304392,6.420036048674977,13.776712250033713,19.838056605147468
11.204977288975634,16.171742917679854,6.834558333999116,11.00509556798194,7.602899046119901,0.2905377418111689,3.559447704645588,-3.666286762902333,-9.211731004987564,0.984456359129908,10.740635420990063,5.432508818200675,13.598991719014832,19.196996203103097
13.506632061465464,10.924204356360852,4.393487377001373,9.170009297813,10.400634880359432,-0.6377914179371107,1.29523070964785,-2.799254971769445,-7.295658407255547,-1.1064347523992273,13.686494194977923,3.392238517467459,10.249272221397147,13.934736264279833
13.999618561693705,4.065696969671651,2.3339542840008805,4.540517440447985,10.805170100601696,-0.6818360188949476,-1.0160784895030632,-0.3846564949893221,-3.703412438468355,-4.845849170356526,13.537468440431937,1.859074419118862,4.717838006713797,6.112775573400013
10.348637397887089,-5.901758630584519,0.8578107695139109,-3.679806889828694,6.874047796151718,0.0051501005237928,-3.2045863925633142,0.8639509104521643,-1.7832516161807064,-10.60204387899048,9.79361216635156,0.888483109214942,-3.973102513443149,-1.1111235008578009
3.298567354679204,-12.327334314587144,-1.8978232351711304,-9.008858307332735,-0.3085533754837399,0.4918442446747621,-4.648641176714017,-1.004571366302656,-3.7177820198057567,-14.223544019961064,3.815350863615148,-1.9269188930545544,-10.379120857609012,-5.4190407312059605
-4.229691301373805,-14.462128302368775,-5.719904415552449,-11.48620975918467,-7.439600406140627,-0.5330776331858071,-4.955570988695847,-5.501159732739879,-8.68209949444406,-15.636040603344574,-2.180232721272276,-6.389958836001932,-14.229689680911765,-6.642510740067039
-9.674460047550555,-16.275718997536913,-9.48376779412408,-12.748249614969003,-11.56346882852191,-2.728717071894239,-6.276987136740797,-10.186740146012085,-13.45847603936648,-16.52066119895773,-6.780644866055884,-11.135674493757476,-16.80993972548943,-6.657422802037502
-12.60614685450551,-15.951361651484648,-13.465835565306806,-11.20286251751786,-12.097625207867445,-5.11721374741854,-8.42806964690785,-12.724247450657494,-14.918920107623215,-15.859539629833185,-10.196296283690153,-16.58440054890916,-16.614395219558677,-8.052221409629162
-14.362540729386955,-14.614667748017029,-13.996029620507615,-9.792948546069454,-10.78291730471166,-6.061590566098822,-7.975327470384884,-12.528444982606224,-12.262486824961629,-13.248271947666131,-13.534067229904425,-16.82764033313422,-15.35942811641713,-12.412797542420272
-16.22553269442608,-12.425300499692344,-10.528702728055936,-8.374601458632247,-9.956505097426522,-4.545027073356335,-5.045907952316419,-10.638462924491613,-7.236881731324402,-8.533243476254984,-17.24335280765132,-11.104690997596787,-12.71142211572984,-19.13386605475596
-17.966297624645918,-11.387386291662592,-7.627911576725788,-6.657758424242481,-10.759115843904723,-3.2679454171407967,-1.1443683586247768,-8.273315116610078,-2.415921088827901,-4.139312453295269,-20.183910133347176,-6.959580493343349,-11.489258853582529,-25.37242943748251
-18.005151849583733,-12.030702627188065,-4.434635144774497,-5.2834272600577945,-12.552393545580324,-2.637169024490395,4.47431303264152,-5.716403049458428,0.7628946784241037,-0.0681091609114093,-20.201832783181334,-3.095583925101953,-12.2054120333063,-27.30416048559404
-14.897085426502912,-11.55446721002324,-2.799944353041401,-3.99185273175548,-13.647681383142311,-2.133103806927398,6.1275726067339455,-2.585617299259617,2.532291760285297,2.179055835818297,-15.7976897096002,-1.2091123773856969,-9.88236700887566,-22.245739999936816
-8.782611549774536,-10.542514764888466,-3.680637307732024,-3.033835125248836,-12.58414834168788,-2.6509454334828138,3.22717476552451,1.0604877662739014,3.775401976238008,1.7730432493179304,-7.552115705533488,-2.8180986041265794,-5.076075051485506,-10.580223129337128
-1.6106845784276942,-4.830103751915812,-2.269488696044729,-0.7921495608932312,-9.091744487605482,-1.1452520200829843,1.2331521857191636,4.190385753313464,4.785704348147583,3.391266020417045,1.8319543981253616,-0.0559909475741167,2.738849685119139,3.779054863185976
3.981310995254354,6.440377704192026,0.9024766539062232,2.8000637260677723,-4.248578538755695,1.7347503122647367,-1.1890019468614963,5.506934230615485,5.100793992636525,6.620745658789824,8.93403942259436,6.604606094941694,14.67319953294832,15.00719754065291
6.239904814708382,10.02582587795004,1.805830917191409,3.718966539089071,0.1784848972886266,2.441464867730891,-1.8691655480940756,4.630418640463212,4.363494359146827,6.537675279044559,11.471017580967867,8.711142764365247,17.28542917287103,18.40073312115115
5.227471531331929,6.1945668579274855,1.0285038426825484,2.030987064788174,2.7815956770610484,2.4420646490463653,0.1606878165883888,2.4881437166553937,3.0412918405365303,3.67467996816232,9.371175958252891,7.262638420401933,9.947422484591106,13.073115305992786
2.608877056875265,0.1493658166112797,-0.1503579746789537,-0.5337631980180049,3.2572458082050275,1.3070880597884176,0.7237927602328902,0.5466467606954382,2.112585082631192,0.3762377464421707,4.509518624173936,3.879763096749832,3.7555009317030983,2.568836158404572
0.5695704738800558,-11.099572015118092,-2.419404743091824,-4.885873551794624,2.326784636543529,-0.1930770032994302,0.4901687502143732,-0.2638665096610779,2.0865836541001315,-4.213841277187118,-0.4946293513186148,-3.095561684634615,-4.228831564578536,-7.128545910096008
0.5580834756888393,-14.42076791279461,-2.50075208661484,-6.918279781097338,0.9388915988445774,0.2832426451127597,0.2466639704850218,0.0813239555366465,2.500247026621757,-4.337345228605993,-3.532315636286341,-4.402842632952872,-5.092212310017989,-11.045278639781102
2.4994336798880283,-8.69481420715745,-0.0636158097241596,-6.238815452963373,-0.5173647487445194,0.1154237709800664,-0.6716326924062507,1.1200380519792716,2.4679076468110424,0.7927927442268842,-3.6621650437563744,0.4663942571009002,3.493140444910248,-7.979237117927369
4.853312902551608,-4.762002295854658,0.665592202287323,-6.248188391365135,-2.2667990892946293,-0.94300222169889,-1.22072594393777,2.3712408895753185,1.6498822551641863,3.2045508254853563,-1.1120424898716053,3.3726652056539925,7.64042064407671,-0.8257562696595429
5.555684052495273,0.4492362494382638,0.3290385684524922,-5.961661769184073,-4.455756574252504,-3.056144002189938,-1.4206593988634222,3.3447122052274025,0.55658524912225,4.103396476523488,3.053146685873948,6.291637443138684,9.61497510144589,5.684607270870764
3.440085298224446,1.855478662495209,-0.1784284781764123,-5.714530185898707,-6.460121180061563,-5.537754276100442,-1.191954165672838,3.4276782889899096,-0.0937387811698187,4.2646291986954,7.335723848473023,6.55192467728347,9.627725474056591,8.225332098181653
-0.7296182833597769,-2.306463677195476,-1.5697395799005454,-5.916337644373961,-6.987324475300156,-5.1525900521476125,-0.2753603947768718,2.2331744441432164,-0.1489419139319423,2.2537456576658217,10.265090968002866,2.74369360392324,5.200943795522658,6.802323163918608
-4.524696659350994,-5.449198609320705,-2.1326756549579717,-5.923857404244036,-5.022422101272042,-3.618427393905797,1.018469107121842,0.2657304074190918,-0.0050598558210523,2.272882479028907,10.936885810512996,1.3886992134159557,2.904586468216101,4.073284355999775
-5.537319332285229,-9.186085170517512,-1.816847963924933,-5.9532887189456405,-0.8248507893554233,-1.5726188847051863,2.826807656738586,-0.9871874486856952,0.1339547045668325,4.209532941254576,9.423231209200884,1.6950890886215266,2.165198259463988,2.766071544864509
-3.341590333945802,-9.870739678024051,-1.3029730927472063,-4.903347952412488,3.963905332514024,0.4370351192659794,3.870762548887495,-0.0850492008146304,0.7355690755124513,4.705103775442966,6.6900373558629695,2.02886876564949,1.4507377955598908,3.386412440725529
-0.0008107358163016,-6.279778706665247,-0.1844941510597214,-2.6222464285587,7.326814447295838,0.2838669462134652,4.021701222019734,2.927943711447305,2.4460355386782737,4.463425078965095,3.932742868215925,3.536264515431708,2.0068932331572427,4.124903208363769
1.6169627697317637,-2.211272902429536,1.1476924865494984,-0.4091151859666807,8.250238568628795,-0.3288276119748854,4.042580873215519,6.147144195712812,5.103332880116874,3.8663170516718384,1.8024784781410328,2.956436211719826,1.4206003635444506,2.977049219429844
0.4493696320458795,3.591027048476404,2.696440692582516,1.988118535246339,7.363905092822122,0.0346421286005211,3.5858545070364385,7.182763449579952,7.456862152987767,2.406447045415237,0.2294129206361788,0.1123259310230384,-0.3025413712092864,0.11653010219527
-1.6252426353395713,6.593434472948888,3.867891247761116,2.856205445125218,6.307303690732997,0.6843544557021873,3.139350715482087,5.257734109221737,8.134405294119212,2.7525161291870046,-0.9636520977299484,-0.8600369802233622,-0.2500368483919598,-1.7658517303449417
-1.4164182419972775,6.035793393718755,4.511508188191535,1.8048338247494164,6.3573619920336135,1.7052017507889978,2.7633369230229268,2.090693837086274,6.992304333592511,5.029435845229349,-1.3429065968858716,-0.4986137195703842,1.2609640602307814,0.2792367792340791
2.4980095478358635,6.790472040119687,5.168354818183069,3.340594030316411,7.48146190697382,3.076334916377636,2.513670306355997,0.5756500031091321,5.402834023916711,8.451691762984245,-0.005131268061465,1.5559200893759355,4.77095922219472,6.44229287924404
8.149892046641884,7.710469555529294,5.641681911869886,7.235374035417005,8.58794981900714,3.3667713324421014,2.5514364066076336,2.28495774555115,5.017128981855564,13.735532507089188,3.27912276183989,6.186718568781995,10.972600033524428,13.167866162692
11.73457825913859,8.531643047325268,5.152432890705355,9.432416317665242,8.650727065197692,2.6645972984901034,1.9339692166654905,5.995881729061242,6.131718152921831,13.90196061963318,7.006185495834043,7.249087625017266,11.59300542535416,15.45435964934871
11.022021610023623,9.90551067796484,3.653176708394852,10.631258240938424,7.607536846904718,1.86542859768476,0.6745645163545734,8.606274927352988,7.284693325689934,8.426341935311584,8.322329609529348,4.690365503786837,6.312825371529237,10.817700828226616
7.392247288899291,8.777721053159341,2.1935690805210366,8.860303274675001,6.225906942924226,1.2239373859264102,-1.522320044449761,7.688611028113659,6.533105005950976,0.5946073517440527,4.9920904597721965,1.4348104354490323,-0.4279847405421395,1.5976266552165388
4.500411168428432,5.078551115929199,0.6268418640496384,3.166212497555989,5.206934453963003,1.0340780707404924,-4.936751864007748,3.469974949128172,3.212936092618542,-11.48053796924783,-2.552353018565966,-3.9310223014085657,-10.645178440573632,-6.5236451015671
4.849600700658446,3.477998076104699,0.6470040497677528,1.412359118015011,4.551559822564996,1.3901775693589036,-6.1608830862022055,-1.4461255887477806,-1.4494171853826692,-15.235826644526842,-10.96549917926962,-5.539755705891295,-14.053096255482563,-8.699641473248166
7.594740803789133,3.5894915397497287,2.63720951580882,3.3430929650131262,3.865662678345487,1.8630169574217108,-5.086028145298973,-4.273653216545297,-5.32783655208055,-9.55614533999136,-16.001518457601286,-2.7750656016214488,-9.51090798089473,-4.332092213079655
9.630865372910012,4.871338111959666,4.031004358234847,5.576764088400477,3.202746542560792,1.5219674856383645,-3.711258799929897,-4.163345680562292,-6.953985335179012,-3.532300973197831,-15.298442776291692,-0.8315839822269324,-6.477210259931671,3.0175282749541914
8.725664529451823,8.35513310241833,5.2515619672907565,9.783162374045062,3.39086362660616,1.0777148293755494,-1.2365349710144875,-2.474187216960781,-6.294181370247679,5.976100762586524,-9.81382544816607,1.6896700401259748,-2.480113123030752,8.790873638602308
5.501916264521475,9.036140740120448,5.410028509121059,10.601433805700967,5.291895449205185,1.254373210131423,-0.2504364731503606,-1.217200587329029,-4.378181759066685,9.348081446722384,-2.98464179778558,2.3966089319468016,-0.9031571916956244,10.675172928554366
2.408880403842149,6.81771414921547,3.9533932239620295,7.471005026257745,8.607053055277088,1.6617466985717932,-1.119331178825361,-1.306361130981534,-2.45744498541818,4.883593538465868,1.534733161827358,0.4109301706062556,-3.287699966619112,9.336178823431728
0.9754656332814432,3.6564320664868726,2.28353658178017,4.817960862397958,11.479031870062608,2.182024500462544,-1.1077635456856465,-2.1801781354010235,-1.4316193424632608,1.6007412207281997,1.909187722486452,-0.0510044771926304,-2.253356310845398,6.755982825228927
0.313514839066805,-1.6589860713407798,-0.0007108060951003,1.3500001110775115,11.547181797684503,2.172367299954726,-0.8330249239231762,-2.8273280997762864,-1.6195830381567475,-3.098312993817548,-1.163284572524164,0.3366859864213565,1.244288183321819,4.369692643248515
-1.632172552178126,-4.243738375046082,-2.464711529163662,-0.8372755062136763,7.78355790462839,1.3132776356405302,-0.6383680955382699,-2.9070661985236,-2.599862677147934,-5.090636729468823,-5.126521517171197,0.141094285030194,2.5506212970142506,2.687634819785345
-5.549491255695639,-3.741022947743666,-4.924408860948522,-1.048432134657169,1.5826962508607636,0.5758898064025244,-0.160099831851084,-2.823500504739709,-3.204101508775061,-2.979983713159285,-7.076450754902382,-0.0264629742984706,2.6425679855237774,1.993888280820048
-9.710476727771884,-2.2012467554355664,-6.409807359220612,-1.0580998252964997,-3.966755931382856,0.8553519638853082,0.2171763150473156,-2.9317840184159074,-2.097844693772174,0.4171672605206628,-5.400681484323954,-0.7332595047336908,2.1127997484144867,2.6095715903400887
-11.5308650066335,1.6836526431712278,-6.612526037007249,-0.1234513333758484,-6.239706262662526,2.064565567403088,0.5365400883642307,-2.985555408889528,1.061625110708171,6.645189598735709,-0.7990312642901145,-2.122309008399696,0.2288220167345706,4.212357952622902
-10.090230529042795,4.046545983442185,-5.655316242668103,0.8013703276943975,-4.997239489163238,3.278054385987815,1.3425062285944578,-2.5028889584985023,4.814813505629509,9.13838667357651,3.9928410167039488,-2.5372742615623896,0.1480807735081458,5.314163926406355
-6.9967372983474085,4.676206067266738,-3.0941543832659537,1.5756011478447796,-2.463977335466179,3.134784911051978,2.624450321205712,-1.5508798755997937,6.525613985187469,7.375290704642911,5.88340894038102,-2.0203646558492974,1.9891333553920525,4.079598536077626
-4.749360733799811,4.085112391334632,-1.8234955161933395,0.6591710418745116,-1.419414373383031,1.440697193224187,3.2965743834481143,-0.9298236994663256,4.370926987486172,2.56573848829784,3.589492328502548,-2.292102761058933,0.7533095366755737,0.0590305902422159
-4.323104272862196,1.1800761548961114,-1.9083040025594296,-2.4204156834246464,-2.8806420384889826,-0.9197841664819868,3.3959024198765286,-1.439892791850042,-0.8813028135040604,-7.235332359271336,-1.2783858441892697,-3.095244012840576,-3.153581908248064,-4.925865028723937
-4.408326908980161,-0.0030391753920157,-1.6300018262943752,-3.2427380952060614,-5.374626359450431,-2.4124338709896467,3.1697016565319776,-2.9781077064842947,-6.061311465015958,-10.743289296845388,-5.197489018808039,-3.109234061959309,-4.667946621542803,-7.891932243109935
-2.957152366155324,0.4618568875027123,-1.6408955047697815,-2.0611029864392214,-6.418409047279507,-1.7156318519034357,2.3592289874365924,-4.4341044086004295,-7.8840795827908146,-7.5902650497718,-5.194882542713764,-2.5363845277184134,-4.4349854276794725,-6.967479170019832
0.6184143277872636,2.6457839181629903,0.0415805255216787,1.877404621128433,-4.8112532595207576,0.4842113391807069,2.1004413975202407,-4.534601384883402,-5.480642709932475,-3.2299914735182496,-0.9474204690263336,-1.0187375785866608,0.2556377727740237,-2.807795566451478
4.749201326096216,7.596622153674208,3.728940156812808,9.725048140163649,-1.6192308081883944,2.721774307676593,2.43381468298095,-2.861373183338056,-0.9748991832367402,5.064500780986292,5.077012263028262,1.7477266115521952,10.755120233535289,2.013020970699713
7.019301506424988,8.294292548019975,4.214687133281528,11.082577464325167,0.9503255843235472,3.65696535083781,1.987786384307499,-0.166788805619948,2.360749612465547,7.101973648014297,9.452924997962404,2.2872296471031013,14.2727464156468,4.896530013429082
6.059464504640722,4.630386455304217,1.6671459592665272,5.736473931360979,1.5163964873791222,2.7122489869949864,0.9512653980854696,2.194503559881792,2.6710587185961465,1.874574508076985,10.097379765455514,0.5065821211599654,10.99378941438728,4.699919335806097
2.305578954441817,0.3934500259362845,-1.793709554919241,-1.0322160746106592,0.3716772280187328,0.5370991621438685,-0.7068205257909256,3.193960230900963,0.6022696541463617,-2.664883836265967,7.353218608514567,-1.5608037174321547,3.392307507488812,1.873045839268407
-2.7076859501425297,-6.010967475684377,-7.300984692849061,-11.668117172683214,-1.391153186282402,-1.2319462062145343,-3.2651130284161565,2.7533602126104384,-1.738355041229699,-9.008218988697148,3.338470043372496,-4.720563955642565,-11.700025417670757,-2.272081192757998
-7.459038465088092,-8.30986003577911,-8.807799713639547,-15.141564638681878,-3.20317983030812,-1.6235938142144857,-4.043565734462226,1.735129557822539,-2.6342614100118986,-10.780642109661548,0.3846182944337855,-5.904418621878032,-16.921384808330494,-6.20098792932049
-10.910479437641264,-5.708313291746906,-5.73509288330882,-10.238753722088358,-5.232085933857164,-1.0014008481076808,-2.925269259082002,1.3610100644167105,-1.691372690420959,-6.560877370520523,-0.21801821650266,-4.689461764095151,-11.588614705290532,-8.456826136910873
-12.385623667576883,-4.358933183404828,-2.2468712098029204,-5.77947098382117,-7.461240480314956,0.7768996883376749,-1.997821265414779,2.3739734265442536,0.5654543650746042,-2.669583472477714,1.4231086881585675,-3.0513898069625336,-2.86716948509948,-8.109200830913437
-11.617310524962516,-2.753940486594372,3.2039663783979444,1.0046875372145372,-9.08081092251096,2.342408642300972,-0.6698575467577784,4.412450672500189,3.430210350058012,2.72825057059792,4.134946652083578,-0.1280513160313384,13.62336252190024,-5.551495021177949
-9.223592745756257,-2.7602207002431727,4.701767469709623,2.9866295290020566,-9.223957651065746,2.374445250932918,-0.225331465967649,6.069239316653931,6.115866760129769,5.440227635897807,6.269279389101008,1.324648743388717,19.116660800538018,-2.8988964575031666
-6.908612913226033,-5.400687314624626,1.377640482272585,-1.408526673344601,-8.250712253485297,1.4522045998921331,-1.0398125500859805,5.780892160936737,7.466175084663746,4.372331253226193,6.392860431995302,0.9795600795573046,12.199201566315386,-2.999648850998522
-6.610473128633522,-8.027708404613849,-3.632539647443336,-6.134981652648572,-7.807471956767326,-0.9922510004541776,-1.5963464107421714,3.0669491770698123,6.281062816253094,2.306298347384663,4.052061331910917,-0.7618267595729338,3.558710377173569,-7.228131377181256
-8.929298811528557,-11.40690351050453,-12.091116663771029,-13.342119791088711,-9.138735728471694,-3.855640012308347,-2.286238767509452,-0.815790183315432,2.4905803890618365,-2.188040207704137,0.2863821873554659,-4.7787915010045,-11.577760425839069,-13.770129681521457
-12.260574447977351,-12.826559534859324,-14.683999121163891,-15.996202814472936,-11.31017772167024,-4.880226919720551,-2.61455151391355,-3.487092608110132,-1.987653192750173,-3.068745685646575,-2.7018200121679783,-5.260358723488229,-15.378235366226743,-18.250381909399863
-13.757810579894084,-11.747983894049732,-10.617214364315434,-12.974276926401242,-11.530152768601928,-4.266758938814671,-2.3449278663223128,-3.063832937311693,-4.075407568092432,0.201022308592374,-2.896641606111242,-2.0122146353979438,-5.794011038940375,-16.735931875671497
-11.608737021142115,-9.179884660955974,-4.5007362870978085,-8.645310918412143,-7.739747385935816,-2.007262207165439,-0.6747490591950709,0.3817855348105841,-1.8496448579629288,6.137065085969083,-0.0374601425199383,3.337844973942983,2.641278710666587,-8.889918948530331
-6.6918165130475415,-4.192800112761232,6.177480021683772,-0.9428039329629454,-1.0838381292321966,0.5917283404965551,2.734348283874682,4.732606216033762,3.626683390911527,16.52318806462888,3.942684658360177,12.323992023221509,14.38661991032498,1.4074947064943188
-2.0069044966950216,-1.6425586639105147,10.51661329665162,2.5910323385020995,4.399550448864838,1.3102132919339893,4.7988637362748445,7.307816518582939,8.859324036325873,18.977151121882283,6.258713020931221,15.294707420197756,16.50596215053831,8.66732564856503
-0.19869248977961,-1.7572754721067003,7.5696676233407,1.1835920273477514,4.993336946599467,0.6489347965680953,5.630583777102046,6.828419337317927,10.62086541466084,12.849822473546377,5.484345482951776,11.683493284780408,6.225019761438812,9.611662928628796
-1.270389201640466,-0.4021130045247621,5.414581568564048,1.3875867707560712,0.6267806400319342,-1.226346289453148,5.141177016108731,4.290649869012518,8.424093565818655,5.126047061382679,2.745773782214375,7.820295318827328,0.7748491919338282,5.200815963555353
-2.5250708090508835,1.3979843110187815,1.3980337976433144,1.4145474240203064,-4.805158384151461,-2.5615617972837383,2.5352237833570173,1.9935451072759367,4.52300846540501,-7.239514328044677,0.7140346470917267,1.394620405098508,-3.079691944266565,-0.5625475787377079
-0.8611279941784185,2.503012032962353,-0.0404724477747025,2.202360376972565,-6.569427282020903,-2.032194824032358,0.8012817561013145,1.4983055303729502,1.553131112295743,-11.935788564498576,1.127769656460356,-2.1383101586929514,-4.730896357582922,-3.8628588922532345
4.5079179494839305,3.36137032344682,2.2669525862639355,4.631579185820409,-2.9595693374526943,-1.507988887288907,-0.2263420138998205,2.2664943960808266,0.1662760250036319,-7.501402575016435,2.9916758235428365,-1.783751613701519,-1.2515693974904911,-3.7328230655996073
11.21587264483143,-0.505459078058906,1.387058577589389,3.0284681360443444,3.451528848940701,0.0869844424427151,-1.9960922081988264,2.207120261739461,-1.10443879329976,-6.382113246247627,3.14932138696411,-4.460504180682204,-4.971953299527447,-2.2806742364905777
