AF3,F7,F3,FC5,T7,P7,O1,O2,P8,T8,FC6,F4,F8,AF4
5.2816803812716975,5.607178068658154,0.9014465388256018,0.0230429311590283,-6.561988820025944,5.406356447677507,-0.8319583338398449,-6.729313977504404,5.044298170621087,1.773981039254125,-4.579964808107367,5.511933353598829,4.354636354103523,3.3447847245641027
2.1168097485909634,2.619704077132538,-2.3874916056739406,0.2066359194106968,2.917586025946756,6.5299628489474655,2.7801793584344843,-5.982321526895659,4.431723795126667,-4.443814074859435,-8.758138233158698,4.1451905413822026,0.1266667998916801,1.670760448681925
-0.4185667539857807,-3.1846381743630268,-4.449189274978264,0.7458151615393427,11.661099502549256,6.493816367527658,5.701174254922792,-3.970757795469782,4.5339657268625775,-7.592603657386064,-16.714670151864336,3.159535544163802,-4.905445191779757,1.03420422514475
-3.8653491563949913,-9.624576011558606,-6.031782064935206,-1.0152047080011846,16.277346374409724,5.140528550727468,6.504110375435936,-1.9025164296425747,3.936005242458835,-7.557433068179336,-17.590672308494955,2.3572145237413418,-10.414322008775976,-1.3981998037245305
-8.483098260191491,-13.937337743215616,-6.26322072227929,-5.640449869726273,14.053375392447489,1.4172802133387017,5.164948611438389,-0.313106922390052,2.339087767855665,-4.756586647126014,-11.499871649316765,1.7189007408611283,-15.13408110890726,-6.758641350698287
-12.624772409773753,-14.520970787314251,-6.126455015805287,-10.581219361846058,4.128619709355318,-1.1056688400591368,3.11172648926312,1.6562164621327402,1.3626240317000655,-0.2378166710567408,-7.254721272846604,1.673376647954778,-17.322275382976883,-13.050482082753003
-14.33438512636426,-11.95010755087554,-5.440244953297705,-12.21495706107929,-11.093174571332716,-2.66806839117298,2.229748543366453,5.371512725951344,3.1982058389631,4.147213547823565,4.729131062122896,2.65755678729935,-16.2052369427186,-16.816458347843493
-13.549510801177444,-8.618807005520264,-4.9239153154515245,-9.275380307774938,-25.66936855944919,-2.871301290870516,3.400578321593557,11.0606329471312,8.25072607457892,6.220582831637318,12.7011646716278,4.456931707365527,-12.93698830280367,-16.219516703507395
-12.50403649577864,-7.162985864776649,-4.783974613114233,-4.440410859115781,-32.23358317133468,-0.8572058141608032,5.726985179209217,17.121519323861445,14.199291244785526,4.85568457902886,10.92810546582876,6.170120931827604,-9.741272215581423,-12.522945070104754
-13.695246585669056,-8.646234118593433,-6.468383782421506,-2.3571293608686847,-26.02222314352598,0.2976349056417354,7.196497904747213,21.16629649219107,17.68099243549643,1.3625325254055944,13.747720716361046,6.956525778137751,-7.77233152435803,-8.712959900921676
-17.330849220402648,-11.804669015860975,-10.437565109828205,-5.685316635525881,-8.361635681411299,0.866858973793796,6.275715379614354,21.82612098488556,17.13434027188955,-0.6620296430519428,12.43283898038368,6.762405351511597,-5.903982542376392,-6.871007439008672
-20.824848654354746,-13.99397544967888,-11.77723849536731,-12.681918017490965,13.09886973122768,0.2486368971782776,3.0054423281839537,19.598177702329323,14.016766957804112,2.3002166374913875,9.260210717611717,6.151747037806572,-2.049904624028386,-6.8916444675976445
-20.9244033749566,-13.171750722408678,-10.660157162976308,-18.505945956376355,28.10914197121912,-2.287144093320018,-1.3475500625844212,16.0287913417823,11.136786400944963,10.4718427499297,9.126521066711026,5.381652481587333,4.023516537631604,-7.423997755613731
-16.46200443547618,-9.351542785268604,-7.193408044547045,-19.054130279786577,29.409993333008885,-4.626421973289906,-5.53255493499854,12.188965020971974,9.736192598978594,19.49433576423124,3.94323064044041,3.822489947790972,9.39295846184973,-7.56854993422748
-9.18300921172738,-4.389703773342572,-0.1281074961151919,-13.953838294376432,16.774442166174186,-7.1243680746249,-9.022905259450903,7.981886413882712,8.241846577858738,22.890420736545583,-2.205619970364611,0.5532300106526029,10.063927880468292,-7.3994661866044895
-2.062175451344399,-0.4184993329581543,3.5263790265551997,-6.315451784867044,-2.87791644172556,-7.743786629718622,-11.52230957836644,2.823103254910809,3.935620444660572,16.991847134727003,-6.6172935375104665,-4.352818844208929,4.878119507372485,-7.064669797419674
3.101942075134441,1.635996822009,3.722836885619937,0.1255499967968383,-19.2294553123417,-5.917645097505054,-12.152689698742083,-3.191251326957753,-4.124062017777817,4.413305483705015,-8.306144362519044,-9.247379455150098,-2.611143312323038,-5.923500067222729
6.586674870397578,2.276873618037169,4.573142955459689,3.713397860592901,-24.028011470050288,-2.4742943284143037,-9.699464558865031,-8.889946378902394,-13.798118850739622,-7.260947838282291,-7.9657937873600115,-11.856085712402134,-6.594130369647815,-2.9826899476971374
9.615203702547642,2.526576486846986,4.563282233755344,5.247496302912696,-15.419134646967615,3.3799747868995267,-4.042852954627305,-12.757008789313977,-21.402578193423004,-11.049334654020134,-8.58846629872393,-11.046336863080697,-3.92241173566617,1.8231217148529384
12.611669395226418,2.9779252713144237,4.371993331208631,6.253190449639511,1.0571050883901467,6.409165244828288,2.724703601421763,-14.023197188433963,-24.55855139802607,-5.985340031488022,-6.905163810752124,-7.81419468106899,3.0320719760677903,7.077912243873033
14.571365300906358,3.623470932311962,4.357824829335986,7.155816320084558,15.48996958121842,6.320542683057189,7.066013425233021,-13.142951811451038,-23.71886747294808,2.236827623939689,-5.763974651869482,-4.573361850818675,8.39358223357123,10.831353203147586
13.949439412263672,4.256606705768314,2.0987022947223024,7.026543920335138,19.33728546674765,4.348089157234272,6.459620091735657,-11.384335134131902,-21.18741228518955,5.996971061516504,-5.797343304885549,-3.372323526645511,7.93965136808287,12.094072513280777
10.050524575645388,4.700804002615549,-2.3292887672292903,4.812672495365616,10.777597715882424,-0.9815550181231928,1.5224670979488495,-10.004924538728654,-18.84901155093135,1.833255521959677,-1.1629089008357485,-4.542004810338198,2.700060277779329,11.3283729683791
3.688699981920968,4.60456112042633,-3.8686893881791375,0.6414868110780381,-3.832662980850276,-3.09508384209217,-4.201676433318417,-9.608542502595268,-16.80691492750453,-7.167672211711194,0.7958987441874912,-6.744995414673105,-2.190030080559633,9.57871444201507
-3.23607446160566,3.325692853936556,-2.6190025939559707,-4.002498135280142,-13.94949476987739,-1.8232460878460768,-6.8066094303330456,-9.937435817121967,-13.954222434114408,-14.276735533231715,-0.1489919797779687,-8.151409733191237,-2.1359149319221915,7.42175978137669
-8.705842397640941,0.4519457100946757,-0.6343181160682255,-7.209468823639411,-12.147043420196674,1.0468488163991865,-4.901216725713835,-10.094332524542956,-9.585300865358604,-14.408524977029192,1.6281385653386062,-7.701159430000521,3.0650906446742034,4.958412833287051
-11.408877542648352,-3.3481785919454774,3.2404915951362514,-7.75518700305923,0.2820109714131038,7.20536586830688,-0.5105416834306089,-9.154596190845645,-4.383649944128882,-7.402599515061169,-0.1170765648165352,-5.628203796900874,9.391108838862657,2.6234828191281765
-11.129052032354496,-6.162310447739567,4.654419665807208,-5.5799455017943735,13.864548939962235,8.427260460142069,2.5927098623562763,-7.006340193466847,-0.0083167419549172,2.655059386773359,-1.505611529472439,-3.13169387353333,12.180352650339348,1.466471908011583
-8.7175975146174,-5.961638654089839,3.237184891112297,-1.5700406880219369,17.754715948783502,4.335953981884241,1.6657407790373089,-4.89828183032852,2.109343361478091,10.55951904171283,-1.8454790791958384,-1.5792691036586133,9.720846307287765,2.2053774629874967
-5.66433572707734,-2.3143046680136283,1.489003387396545,2.9204354179553285,7.97803703437213,-1.2712844364165454,-3.2581833618136127,-5.005374885070768,1.636944481861165,12.800872314786757,-4.9784916310213845,-1.7095729143708422,3.9927528044638656,4.049792753026308
-3.2968857744047773,2.8801044635210094,-1.7123033212860983,6.486289917209858,-9.217989817540008,-10.449685211856265,-9.738337434927317,-8.884981977601052,-0.6371193123075685,8.672796486635132,-6.7655303073269,-3.188928623817552,-1.4235422708771512,4.926958496660958
-1.9380148740489649,6.569471103012687,-2.564902581687519,8.061590320327099,-21.68498471496687,-13.635890817096554,-14.79163871852572,-15.78581093344352,-3.328634518589668,0.0680716420381779,-7.819228222310007,-4.757051272579771,-4.025956888658869,3.3420863774081546
-0.658232235362028,6.870847626091798,-0.6326151970495418,7.3560177960644735,-20.198989969548784,-9.968990961238823,-16.704240821607403,-22.35236495825998,-5.031584680648525,-9.315697991452158,-3.939328512415624,-4.977156638397333,-3.581030840721696,0.1060263091913189
1.9820140957878336,4.589645333863,1.8698520446666624,5.101830989406667,-5.114895829425999,-6.721781171186514,-15.61993742772907,-24.454183361617847,-4.783812905629224,-15.327627709701554,3.304323005920726,-3.223013693201933,-1.529397059778158,-2.0787121240513704
6.625335936095869,2.5630024085215086,5.978992310214431,2.7289758510173105,14.043448190378696,-1.5616229740038647,-12.851443463693498,-20.055936416591663,-2.465145477650744,-15.311593818628229,9.084063124915897,-0.2309597326716566,0.3166094430397677,-1.1083540095152309
12.333893987476024,3.335294774714049,6.907295212411751,1.480097319492052,25.435031481410498,-0.0318546451978962,-9.722074600484524,-10.84634031801304,1.037510900242692,-9.743123470804994,13.393215346424578,2.2966981040317505,0.7509579036528908,2.3253653034636117
17.110451469013185,7.129799718381036,4.151439024652258,1.5866090004442528,22.857283898122823,-3.374809090413865,-6.8156063158406734,-1.105287609246274,4.223556879000255,-2.0928064925678376,7.999632324496559,2.875589866734974,-0.4205075732165957,5.170868697566304
19.34067141590325,11.761768694154188,1.9037036566542276,2.23078412491632,9.132992679428284,-4.782305712380095,-3.9959302345340095,5.404652337367451,5.887175334112187,3.4371035087762887,-2.869369321009017,1.3486553491981232,-2.4013743130370084,4.85663572512701
18.864081073492528,14.398234017352992,-0.9877993233319828,2.346839078144569,-6.872603170348289,-5.711021708963126,-0.9802449299205732,7.921601600208843,5.873209871566079,4.658368318295927,-12.228373219041009,-1.009011762697483,-3.8763596129840607,1.7678876490316116
16.717086906152907,13.57886451672621,-2.394007726098456,1.5046518353044678,-16.711463743020143,-5.301751309570838,2.0553121249776978,8.436238282033463,4.940289412734186,2.2959899403133504,-18.771934595365902,-2.556647411432602,-3.955578035611553,-1.193738045537449
13.91898532011388,9.96664205666548,-1.5989652733582465,0.0700890116531036,-17.419422017647534,-2.442696080716245,4.334468850562668,9.109332529974212,3.7868583589946985,-1.6157796841521996,-16.554209049209298,-2.6753367395346355,-3.0662653560732287,-1.619781505270124
10.620589262643255,5.596669999466297,-3.06431754064246,-1.3556819133240836,-12.066601331257727,-0.5844922175584893,5.001034973433816,9.941468259451682,2.216709443386525,-6.020753926797649,-9.72295156275666,-2.266654153597476,-2.853570236847822,-0.1574400014165844
6.479417428057821,2.529860585200117,-6.296258628450471,-2.4529159938006355,-6.303368488249342,0.7259786969645493,3.9877934004246938,9.002241645304464,-0.6013688829613075,-11.349815514656814,-3.2521438335989483,-2.872027647655144,-4.767391890495183,0.0328584602534887
1.721450324521435,1.839462802155108,-8.854765666149675,-3.077401702446018,-4.050788128502044,1.3413790571107131,2.484851584172969,4.958095517643627,-4.928901936788511,-17.79323168570098,-1.108841886960391,-5.156798604384095,-8.396162550601947,-3.537302682947071
-2.471589468244245,3.165380424100684,-11.426657665985166,-2.8815293354108533,-5.42221677551939,0.5873985213387187,2.361883049129214,-0.7342140142250919,-9.553637856067022,-23.467538099686152,-3.6443702552123622,-8.137838870337413,-11.28653287841095,-10.045734356826737
-4.899741865574515,4.7029251684407525,-12.474541343754794,-1.5016567422926537,-7.709980731629962,0.255601586002296,4.714959781830235,-4.393270679174506,-12.29606572955548,-24.94428299012725,-6.970039344945742,-9.922560290254475,-10.866837313223114,-15.973784934556884
-5.726885225652361,3.759065158307763,-11.524170039621868,0.5495365342865348,-7.908872323783298,0.1252958262746664,8.662189373514206,-3.1806712291569497,-11.679562150482514,-20.150755445420565,-12.456660778881718,-9.357311300016852,-6.968462519794241,-18.41306748649157
-6.728176540119492,-1.8331150283930608,-10.468577724329268,1.3284564462587165,-4.618427673949461,0.0366886203921043,11.616169168113585,2.1604257987964117,-8.257646658318723,-10.87438274037978,-11.791574207435213,-7.098537212721642,-2.4696368703495164,-17.752603102747337
-9.801174245153662,-11.816415126768334,-8.832131647926918,-1.5558154359309797,1.6108058225383757,0.3194014167495662,11.133878070630969,7.634633822627178,-4.244548612302664,-2.028443104745924,-6.736653288487043,-5.0725099372962745,-1.060643652283006,-17.002294246175005
-14.896326711744557,-22.523587968341,-7.661619500993429,-8.645766983361739,8.889965590239123,0.4648559361286396,6.950759446965432,9.336648768913957,-1.6165185760787677,2.1687977526109155,-3.690923894255269,-4.717862380819457,-3.869058350844577,-18.36887878414192
-19.314162733157527,-28.22052447962109,-7.303145988340174,-16.9832757536327,14.667763551367075,0.5536861170964222,1.4040290677542897,6.858203091395215,-0.3344041993167206,1.7521131257288385,5.357138818714718,-5.537642069017288,-8.029100250575897,-20.504040157561207
-19.285808708708927,-24.597070376443583,-4.628785019092892,-21.13590268589632,16.419509679300635,1.0306676333664355,-2.292572031344883,3.589496417778573,1.6356695052706307,0.8646414441624133,10.136632871483569,-5.289000026499668,-8.734243216467355,-19.28742699700841
-12.786919413888434,-12.144823878558997,0.2140393092489047,-16.838585629036935,12.802965642843247,1.859956771170963,-2.5706100166909627,3.5117622108989845,6.359135100043776,3.8287948824741225,10.161064143295226,-1.7669356927963555,-3.191337776765886,-11.613179964397194
-1.389587334776369,3.35748921060018,7.596783310220108,-4.632771396229681,4.951216553374972,2.406156819440427,-0.6923118670892787,7.329935898741724,13.653232445242914,11.008327335642992,15.645771733596751,5.234540915947791,6.894415397021676,1.288811854710865
10.361000004130153,14.109673573094042,18.335799570417,9.658823321959398,-3.479295818028522,2.7119960625904262,0.4352361393191879,11.522493750196,20.55540147905463,18.358309888545563,15.906254667112728,13.40217888641692,16.443815990017832,14.133553089518834
17.650612793912856,15.203654131284772,21.82789491783964,18.487229794865137,-8.380838607990691,3.425939008105164,-1.173969248977747,11.329368099914666,23.24587895281451,21.106973743729448,16.096452015096254,19.30973962291313,20.770527761672835,21.351557000434436
18.236045162007745,7.630497471814082,17.544759154151066,17.698130930260703,-8.11096990743674,4.459075230636171,-4.793479969445971,5.121467882292874,20.03807078157819,18.085080613884,19.19001646470001,20.69787350261561,18.857560630668704,21.134618010792003
13.471859230847404,-2.777024211307222,12.207526319985169,9.293531055469,-4.522383683303924,5.351362461043323,-7.440435428306747,-3.7588311514598303,12.985509708032463,12.643106339079964,16.058111477842534,17.886788468648295,13.610286280696094,16.379837728897797
6.989747423389366,-9.517780215831875,3.2675601877526064,-0.2997105417761381,-0.8305358243530518,6.188751792261788,-6.169266791286917,-9.433461279037973,6.613793050592007,9.40692354404925,14.499543766665894,13.281592161617697,9.186160398467631,11.930994147837277
2.158724852980248,-9.532400704060075,-0.1169503710948612,-4.998012861578058,1.6003206804211576,6.184630343816679,-0.3280471483828098,-8.167541832436623,4.598087158629071,10.04768680128255,13.372681618405752,9.450605524438744,7.779770239768137,10.62793889401157
0.150017116382281,-4.438553991614218,3.40564755566853,-3.0726802987160537,3.955918787298256,5.173811568255564,7.960625227113273,-1.265320382301894,6.987781816346933,12.0030491075078,8.30786148456957,7.354681825002913,8.355330075449228,11.44115836246957
-0.2175898350517866,1.4936923917598186,3.984880294952964,2.525942471915684,7.169215991633868,5.504917681940811,15.31140750476779,6.23933142998956,10.25016026190026,11.125894959153197,5.041987957305611,6.087096815937274,7.982401331676851,10.95626378958526
-1.0524909265523084,4.643098526240507,3.831506861300856,7.258394784676193,8.925790221621204,7.108608168752688,19.232707409715665,9.79295494714417,10.134843740616317,5.594987837940705,-0.1998420918260823,4.151822772505467,4.384267952487652,6.626402767942073
-3.644820729285328,4.102291778187254,2.02291045942008,8.539578699211189,4.7342639158704864,6.373410485203766,19.25973027342527,8.676312484195465,5.03209933210284,-2.4694473717205248,-7.533219078210695,1.0121556214760092,-2.355184748582869,-1.0471813619429111
-7.689135680888073,1.3816421065716096,-2.9782073659464534,6.860840424392265,-6.943298294713854,3.539786109930933,16.4752224743388,5.740590880340918,-2.885395285480509,-8.861324954058711,-12.809166566237392,-2.488321080188615,-10.030541718637682,-9.069475444095795
-11.84710374153737,-1.4478720259868538,-6.679724934020587,4.152467186320368,-20.760516715929118,-1.7574573593331697,12.228040769915731,4.153113809677432,-9.547940337534968,-10.69592771887453,-19.738289315583213,-5.105171826720446,-16.03467998230819,-14.502494878758284
-14.934802387799458,-3.426152602233171,-9.65334959226179,1.5230871602311338,-27.04447605295659,-10.435824616164576,7.318527410461909,4.375809225884112,-12.19339777567974,-8.445560443933374,-27.683432141077205,-6.512804944778927,-19.12329446522226,-16.703562918865792
-16.63401872937206,-4.970233207384699,-10.671200576803717,-1.3263996251550862,-19.858077966527464,-13.210979139179925,2.151643998552737,4.095167282597299,-11.225921097425898,-5.238111217371138,-30.03165576370588,-7.608729438279644,-19.95906069103251,-17.39847781098464
-17.21505619488252,-6.843907499575624,-8.74257196612812,-4.783052768870681,-3.161510604447043,-9.742014756433017,-2.716291086710272,0.8975260908016897,-9.394137430604134,-4.364108445667095,-27.50782826004245,-9.467222343440266,-20.18221412675458,-18.68822238535593
-16.751246238220737,-8.950594907169892,-6.106093711678724,-7.925726056677324,11.6280553138795,-5.570082268393076,-6.488347607305398,-5.023663597119869,-9.277060381348512,-7.02831162178024,-23.224526967048146,-11.968083677908048,-20.83802529563701,-20.853585167706
-14.766676788179192,-10.064641114037876,-2.108748009724176,-8.848995718732382,15.30491330778554,1.493126474396542,-8.646439941158855,-10.678653924810389,-11.309572612642205,-11.785441099649738,-13.56510882665134,-13.510346996333071,-21.420199202156937,-21.93714265027728
-10.753022468921266,-8.728465681461856,0.996367365399478,-6.505838445961227,8.839033609648867,3.9981462265511714,-9.43649793619089,-12.693532675668122,-13.813231703184687,-15.723456634204236,-5.90166914322664,-12.230198509723476,-20.27505472134493,-19.48310569490421
-5.02629119684957,-4.5396663735668525,2.766885101347221,-2.073721989884122,1.7760878553884698,0.8863410643198127,-9.688082836705128,-10.05760868824807,-14.634654899165016,-16.383133336489813,-3.2765695807112567,-7.691894052646981,-16.01599257277453,-12.882881401894933
1.02785302777237,1.268515861623034,5.145477366547779,1.791680873519219,2.452650835048211,-0.5796008265895376,-10.09245370778401,-4.809696112849279,-12.782993842370358,-13.129546822141457,2.953403547417768,-1.504535982801971,-8.770782655042481,-4.205815892196073
5.6959270987702455,6.455472293942593,7.477324113064724,3.259577245691683,9.679914247286876,-2.246561660711643,-10.66947581036627,-0.2590528969297931,-8.82273574619469,-7.194236122055868,8.50336909589936,3.749671143051733,-0.2377743432529468,3.2757998829443906
8.040629593764454,9.123258616889736,7.848333290684101,2.889742108973235,14.258648559568275,-3.0583890971298566,-10.931615695277555,1.5313212119320894,-4.095244375406592,-0.5656866593816954,11.52607796943985,6.368550158870542,7.431305690508349,7.587028138002026
8.360037499321681,8.759337032850883,6.213047082605096,2.7848136742457834,8.838460902335882,-1.969513020365922,-10.487370579150472,0.8838878946964059,0.2416629626686059,5.273199934798333,15.163316595016507,6.575794540873978,12.90355146269352,9.361395193112456
7.634710928578187,6.283282403316986,4.591287806109036,4.110120757820821,-3.888736824299839,-2.198229280593087,-9.38771151367925,-0.375648520776479,3.568902128104516,9.737826579200092,16.3527284932242,5.952286891708099,16.043176194776482,10.82993605677252
6.585005256143703,3.2615535803135955,2.5975574198070763,5.553711467490069,-13.136173996741164,-3.2679361039110386,-7.869376340556837,-0.6905978708305405,5.611732421801784,12.543641676928864,15.035367803045911,5.914647891714813,17.287325587410177,13.482855009641735
5.272182442647564,1.021661163232937,1.4380379033657422,4.4836295012609,-10.399408149261168,-3.1032054746513613,-5.867231938623834,0.1789902619864194,6.247544085919031,13.046225481785942,14.087177021657116,6.660366803439995,16.851653600070527,16.594442005994186
3.529548757332432,0.2307897031645756,1.58196575998582,-0.1624716186371797,2.018919997843171,-2.073982173340424,-2.945898840772636,1.4473620838290988,5.609804874628285,10.541626939414428,12.560651851067044,7.394566420535227,14.609910027839929,17.95658029151293
1.626720037548839,0.9196834466726028,0.3776993822329269,-6.127811848611487,12.902641186230422,0.3135724653749497,1.157630711091695,2.259267506050807,4.252385246268404,5.440412916020612,8.880779106097943,7.379139603325193,10.653729634010912,16.08477624400918
0.3731474599920799,2.611730525421497,-1.859192506424387,-9.184617843008589,12.700546973157026,4.503868208618366,5.898010471202255,2.292030700698718,3.0124096421284765,0.0068071209283453,4.07050461446218,6.668311394852786,5.795096175194883,11.799671546508444
0.5030281955582949,4.421719012391474,-2.471227479279835,-6.596762405754136,2.498676987473523,6.246312149059647,9.91235974228574,1.6757976834223314,2.574922337036201,-2.5891104049618057,0.7761423352183859,5.8874904732877,1.3716048303954036,7.69024966436574
1.945811738355145,5.3219404202772695,-1.7277125237789537,0.3926637745140136,-7.252062036994008,5.47846650783053,11.820234609206132,0.6893769970372845,3.096435272014158,-0.612609086134313,-1.030512198064322,5.441143780779141,-1.544146829044427,5.930507210402938
3.706065135015207,4.701914727649548,-0.7244783398103382,7.347616978131539,-6.834617389112698,2.1134421569849096,11.240385525867303,-0.274928805098793,4.183168933231826,4.407891223845976,-3.149716089923769,5.032674682940315,-2.849341761142071,6.424203618570102
4.501193700292264,2.8966289096034004,1.0326506278611094,10.05454488435533,3.619253064050845,-5.066164036777055,9.164138930608532,-0.5634261668610736,5.1800296951614335,8.261694717080022,-3.8261130752724872,3.95108316498112,-3.431474800698122,6.9457376246669496
3.638726627391193,1.110597108064666,1.6814242301563325,7.62293277166217,14.46707358093018,-8.149462522930882,7.325282432655468,0.5975146512490799,5.53202547343494,7.0326081926988255,-3.7318352520068734,1.7897566399468423,-4.4571177225832335,5.159855946445378
1.458045198202956,0.5630312982867398,0.9919762449408936,2.746272033800177,15.514663344143528,-7.0437638393892845,7.016225094053032,3.505122937158964,5.056803629410411,0.2674707647106551,-3.8706011394866193,-1.0769183184709772,-6.396129417954098,0.7687801299051928
-0.924543408088566,1.4462288901611098,0.77627306878193,-0.809528565474916,4.886872791020453,-3.0979707547151163,8.219206733090893,7.400234208236357,4.074060105156928,-8.29613467102018,-1.6391784206140043,-3.6174654283859393,-8.43710344010687,-4.031256490571613
-2.280854921583357,2.64053102664045,0.5896553152221479,-1.133403557900905,-10.023873014539316,5.766802426164971,9.64204809654754,10.57847425976499,3.299680226822035,-13.19684294306164,1.9298584868625397,-4.710705394689838,-8.782316613793146,-6.1095745668849775
-1.842372326777249,2.6013245506199647,0.7508646566084284,0.8755905476483643,-19.409721394876733,8.937897160498386,9.576841138158873,11.333314928996357,3.407726368842819,-11.044250124856564,3.4650996249417094,-3.759740249988067,-5.818899290394357,-3.632663337514962
0.5108520255964297,0.797555642535908,1.5372150525989647,2.9242320422796446,-18.762691465658605,6.134172711787437,6.9881397828039535,9.092981483596136,4.42534676069843,-2.7091740029848115,5.178564378531797,-1.0395683791612371,0.5009050976452718,2.7853356704217727
4.357854336809301,-1.5360372580311,2.5834785199798938,3.4802353553409726,-10.95462778067539,1.785095381944266,2.1716750009799104,4.850974853378376,5.466482545057001,7.612634317602751,7.649721015318378,2.369735055932066,8.13376280297141,10.684732253374918
8.885876349171905,-2.1406398432242435,4.079250604678808,2.7180959897201644,-2.28375326175964,-6.697467546675678,-3.3812182262724493,0.5117614760836338,5.236732589541485,15.40980224514433,8.501807808150716,5.080575921565579,13.934517314028112,17.323741107024222
12.989144484828609,0.4473365659564288,4.789139576970897,1.73782352736092,2.766329438862207,-9.329759510616745,-7.837329468957408,-2.3634917398773982,3.10445525211336,18.447108505388503,10.94750223907728,6.143851172948441,15.683476044308971,20.906295673776444
15.49158417542787,5.451520875803215,4.604341352616175,1.2120657675977131,3.5787796903752027,-5.329659373246647,-10.102672753793364,-3.452146237466545,-0.1276290644492466,17.25349033347223,13.29468135266417,5.621737365695983,13.688178498571046,20.89005327411181
15.664659560592522,10.133193422263652,4.312396970200298,0.9585952120158856,1.896718633855025,-2.2344600364977403,-10.43282176399292,-3.5593725649427963,-2.5458390243226217,13.831964016132018,13.619995689167114,4.533639316649199,10.651419337239712,17.77281056406069
13.836791088004464,11.809721882687052,3.594217813248242,0.7393069709448605,-0.4733510958451985,2.309823163158573,-10.103128662403112,-3.6883708400116513,-2.455492514954454,10.133322857101092,15.687619788259694,4.101645955667478,9.815755871151405,12.927683012305796
11.509864543849432,10.06325133659861,3.1461500368117243,1.1460561412790762,-2.434298974456928,3.340954404652882,-10.33836737216146,-4.150346184230464,0.2903993755516438,7.363280004813984,14.76005643699716,4.790629797360984,12.748504323014265,8.422534516841399
10.543608048268442,7.182542724943493,3.0739685073840257,3.272323155638128,-3.017809764947935,-0.3892891381744323,-11.3430705376088,-4.504738668766471,4.041617943163776,5.975812171850831,10.510133230795631,5.870248774166792,18.33159190342497,6.304732370547865
11.731546428419527,6.222563862811124,2.821986185141585,7.232883934054603,-1.050500611761339,-1.1081457720151255,-12.245873355401669,-4.329797769116956,6.394582795927271,5.73595250658208,6.581390917636691,5.859158207630271,23.503213353815,7.322177354880567
13.856683831143632,8.177484208168313,2.5741432094149843,11.100233092632436,4.072810019225964,-0.012248164543726,-11.96177484083556,-3.996228354679218,5.732426472230204,5.781781270235145,-1.3512563653758067,3.5401580878103927,25.06787379536117,10.00850675841776
14.227097716291812,10.764805715199357,1.088386780483501,11.77442963298967,11.199724976146062,1.653284318243091,-10.118929678198192,-4.551006226870827,2.16356337882317,5.09911091264582,-5.764478632934468,-1.156676777608876,21.41944075702164,11.252047134098229
10.577007282790683,10.096310188391946,-1.8093577067991664,7.48375319282594,17.15002894944936,5.202481930143999,-7.192586463212464,-6.668122023884756,-2.6817604122067262,3.3697304135606663,-5.175759944580109,-6.956881154749862,13.356693038548316,8.361180723787125
2.9399526483427723,3.985317415537263,-6.005634120594075,-0.2630114601169504,18.068646881697507,6.166391344442593,-3.863707244939052,-9.633516824624008,-6.698486232429008,1.356173747525105,-6.520477830921509,-11.80848535894805,3.7313745644099416,1.1626540488065995
-6.10751645265597,-5.927290531972233,-11.928271716514631,-7.346523057147316,11.899604173927868,4.42985698708788,-0.423256404771946,-11.471907178191396,-8.43320339408788,0.1352578882417692,-3.814930675750996,-13.880107271994977,-3.920395082844904,-7.645750225024477
-13.191935382973242,-15.12532372154735,-13.847993030559785,-10.126002432829369,0.4651568570814248,4.188065134603075,3.127601930100308,-10.331989186671866,-7.661541134766843,-0.2371405496184557,-3.113574922432222,-12.486727629018231,-7.228450470364077,-14.32788733721397
-16.530102055630152,-19.50734412008645,-11.395236444744716,-8.372204687236296,-10.620947896528088,4.613007458691575,6.542224599274551,-6.011603545005519,-5.254304426157882,-1.106464379350955,-5.409255987107475,-8.47728813435085,-6.374246574836407,-16.713796040536714
-16.981291636074985,-18.30134744915354,-8.141075519627183,-5.38782331498826,-14.967625966112529,5.811649681092284,9.167798574139985,-0.2608473867174687,-2.581048785835957,-3.901980159628891,-3.354771681348542,-3.830219175473374,-4.024222603836069,-15.499854887631486
-16.90939147196837,-14.307597127979706,-2.653581937077787,-5.115730047552221,-9.933453356356846,8.495201790362847,10.47007688147493,4.434137159071071,-0.841005373823327,-8.30935636715067,-4.045167425297424,-0.6010675635269482,-3.59374084338074,-13.298732731520568
-17.91587746035179,-11.481465372256071,-1.0225641492277036,-8.755801183800386,0.6371547807757807,7.822711444444415,10.61893711324392,6.522729912634185,-0.617893532335529,-12.012192183824736,-4.836739911826898,0.1894688160197031,-6.884955194838492,-12.387998404903456
-19.480931636934308,-11.945129928488818,-4.043706289983938,-13.83308764810264,8.290372162519969,3.693459340845159,10.317124170797577,6.128430998453576,-1.7670494285216627,-12.636909494594546,-4.806000718187959,-0.9962752899469932,-12.823190651567616,-13.096348756995734
-19.67412858559328,-14.70211742094058,-5.226598880376857,-16.410875621436496,5.934095996625977,0.1333534213760224,9.92510007871965,4.465432716527412,-3.5888686530040257,-10.089364676750645,-9.212430752765584,-2.741991613652172,-18.309968104815216,-14.0569098147489
-17.18430959641251,-16.766600513065278,-6.000735549043733,-14.383369380454578,-6.371740045347295,-3.826968329426301,8.873715841742973,2.7730180234560398,-5.161414140142773,-6.77093419713227,-11.855907032535004,-3.7744745511278346,-20.5451691922274,-13.8737127034654
-12.738342523822524,-15.594945399455098,-5.075860382263637,-9.018264574723796,-20.667281883160413,-5.567447111541171,6.199314137114758,1.8070550613885672,-5.696134533075151,-5.240928283723084,-11.717533888194088,-3.779011424344896,-18.96750142784441,-12.572972227781335
-8.593576217466675,-10.958449066335753,-1.348966357078771,-3.6645348893680367,-26.52633583667319,-4.2456735589660175,1.8225867505141815,2.015511834180192,-4.811765656745948,-5.677912952767368,-11.043342331630043,-3.3397447066145176,-15.314452569610088,-11.52056272678264
-6.580555853495126,-5.005800089602753,0.2549856987996141,-1.008307876502876,-18.71263015144169,-4.8064290437895885,-2.766739997653291,3.66289575858171,-2.671891913003913,-5.888277696043634,-6.956225308920343,-3.160558262734222,-11.914597244902962,-11.9407840325208
-6.473703331843037,-0.6007611278350158,0.1546072449386292,-1.241268790408995,-1.1269604909411384,-6.587280803109615,-5.335467372609898,6.401390733136602,0.0289087368502531,-3.967154791088218,-1.8803552593006192,-3.3116270206273484,-9.774390505537088,-13.464016296402484
-6.145062418259393,0.7992881517484136,-0.0523471298689797,-2.3961700979855163,15.94163365864988,-6.561261314902162,-4.677459113819565,8.801948816869013,2.247827379161725,-0.7602660145177715,-0.4741513210675527,-3.1703928646934205,-8.066212638976364,-14.121054704758963
-3.382197036067088,0.1360782344691404,-1.2945428721064371,-2.2043532866171507,22.983773736192703,-5.388417532109418,-1.7189571178647585,8.828400283787493,2.967162716401841,0.7152136435425493,1.0457492912861448,-2.076121457037649,-5.309100678698682,-11.895420548366085
2.1460115840112586,-0.1784518102037413,-0.9828426507327028,0.1561754372784616,17.442200743033954,-3.50328184686344,1.1333554386597386,5.378085505648659,1.708600572329047,-1.4485370396032913,2.8965512806305127,-0.0797476512747668,-1.0573173871232695,-6.518452923683778
8.377131724274,1.581125297043334,1.0874112658575503,3.5702070160289328,4.710592744833496,-0.4467788332237268,1.8635450016350648,-0.3672637337102298,-1.0404871343220163,-5.468303224633115,2.065064678230321,1.906303113643956,3.455428411522054,0.0666616266606894
12.215829246543784,4.863873965682444,2.046149955689633,5.7802286058198575,-6.1398451856455445,-0.2606318883591763,0.2502379723030863,-5.316088144259833,-3.840313755436094,-6.958143826863049,3.483500966675437,2.7232640817277964,6.280745405618212,5.001796771072685
11.758753965814568,7.290674354547272,2.3988199231077094,4.799532410050222,-8.495380316419316,-3.2513866196378363,-2.404669123471296,-6.670328555824377,-4.948801526130012,-2.9683354317599715,3.380394465545693,1.843969658865696,6.449308111194372,6.506066074357353
7.756827738415399,6.88841259297188,1.728255002049227,0.2348588275678489,-2.1110227601967324,-4.041938714788577,-4.784649654640775,-4.205256679031216,-3.3539227901745825,4.92758125304011,-0.4593968141861689,-0.2107769116766071,4.870198408987713,4.971240129054339
3.2371832191023464,4.1438185563201575,-0.5165273208100364,-6.053688358883954,7.336250666185114,-3.3671853922607555,-6.69433966004505,-0.5424700315866327,0.4726393561421353,11.659406870147231,-1.7935533878064809,-2.244557072281763,3.60003192903155,2.3996246416268363
1.4846297936624702,1.8581031079671384,-0.4893164643331463,-10.490306333365282,12.35680884211575,-1.9260886134708548,-8.695002311464421,0.946064065990964,4.688983216849604,12.91459580351927,-4.241606098653275,-3.220247463290769,4.068264365645176,0.7834064189875125
3.737096787113246,2.689192898982601,1.7976775055230876,-9.71197147807877,8.702542039571068,1.2857129335245128,-10.76345913733226,-1.2147323359385371,7.067005317528797,8.517436703105808,-6.666376263056683,-2.906672858470878,5.770740842547758,0.7437842512179058
8.225545580959086,6.508867821172584,4.334052461773,-3.069247371981869,-1.7547471172479785,2.506915236652824,-11.603497557970616,-5.701190838121752,6.211150145409491,1.798646790199638,-5.836035793221365,-1.9227736262120096,6.579681534858688,1.3704557281143046
11.331520121925116,10.11507395920053,7.96033329777186,6.152253124219325,-12.18084796189522,1.693153323424302,-9.596247085163997,-9.836192178650872,2.2414077624571176,-4.03211196753298,-7.720909117941027,-1.270887984283354,4.456833672187655,1.19749838538599
10.12490664770367,9.825463276022242,7.6488100986407135,12.331073443578354,-15.429567984979387,1.9323918764805768,-4.581162472629449,-11.834671022634268,-3.3921886389627582,-8.544042948978944,-10.686246849250956,-1.7457805675394606,-0.8434621747173616,-0.5446753767540047
4.435677904649094,4.766911762832647,2.796399484390382,11.370479093283654,-9.256265289812657,2.5074462592271702,1.412850919326195,-11.80330710333879,-8.709295826018053,-13.143594888190584,-12.389138983183964,-3.536190396806702,-7.505607539940165,-3.354980207143659
-3.1333611046681806,-2.151782355239985,-2.029696343437755,3.945455646987908,1.641235163711405,3.340234174312424,5.488879047194637,-10.926222440719858,-12.090382359412772,-18.014236140067283,-16.69183711971706,-6.12610393087907,-13.032600457405394,-5.943971877616742
-9.25407236549119,-6.594374658880788,-8.076118948642456,-4.802412895064471,8.685456215860027,4.878544780715696,6.213851515790871,-10.03266771702981,-12.84711402120212,-20.794452250936533,-20.711102075048142,-8.499859621426836,-16.089655967567122,-7.32920250294028
-12.266175843402436,-6.407985899286785,-9.567608501655826,-9.206720952170093,5.822635086637412,5.500615124779972,4.785413081374736,-9.019006462797918,-11.312498545085774,-18.8546561108482,-18.36593924810397,-9.602163453141191,-17.234004618375074,-7.604645914371
-12.891739548185727,-3.181040890195261,-5.366276090025331,-7.37420260987194,-5.461290313897786,5.239992628579691,3.873519246342695,-7.367737459467161,-8.483340929957407,-12.821410402896824,-12.542262030931804,-8.85894752162767,-17.930158104220194,-7.686473011367168
-12.763398043109072,-0.3382098750169753,-2.305355179361283,-2.063812661003178,-16.743050242382218,5.589962417353906,5.196754626237308,-4.836614498403721,-5.40643457378699,-7.216686887420952,-4.339858862802404,-6.42157064233762,-18.772377537126975,-8.22260645528031
-12.31171446627196,0.3317617903842027,1.1247494088229897,2.462775615574428,-18.892179674181484,6.288675755645122,8.100923805731304,-1.5251020566062126,-2.6339518821193675,-6.835955443110129,9.782526902166303,-2.93200943430951,-18.5756997693794,-8.671759732381645
-10.186189658264537,0.3061962579370458,2.9493245844816447,4.403718632964642,-9.150978991268715,6.370599403736798,10.389823112903104,2.4560245198308817,-0.0715152644937813,-12.015012025285014,16.228427012316633,0.9681946284113608,-15.260996240886538,-7.509821687470152
-4.869232404392184,2.526494929772305,1.9600942957823888,5.366188547806322,6.78284360020009,6.007769864969732,10.454905327969744,6.975698700567747,2.696474433616057,-17.477086991335533,15.11421351727901,4.896000112818978,-7.852592367714656,-3.525872738683137
3.1247064389359185,7.9855157862558706,2.850122739463352,7.71884743466498,19.455696049699963,5.700678892165782,8.56805522847282,11.401516308118534,5.859527642426343,-16.290596218127995,16.68436572669434,8.534194526397417,2.1561085989704853,2.8921918682476733
10.81587760132894,14.145223053749692,4.9284238844630615,11.452732613164564,23.04642559899029,5.315856468886548,6.170414442980228,14.373068169081789,9.022474593909852,-5.673643834445269,11.161027230977547,11.33243010850017,11.339346965337231,9.665968869309824
14.797280078676998,16.83177421779692,5.522305630205895,13.943175312007268,19.029369924168464,3.5742380793471327,4.063212166762874,14.474896371210228,11.293693135065377,10.385510573425474,8.022938081591631,12.619820931115823,16.428165661699552,14.285352388676449
13.97595285603952,13.848996028292266,5.224500319437318,12.721098201753284,13.232404609494155,0.4164648295985789,1.481879641404927,11.426220587001106,11.77721297119982,23.880921155406057,9.3792764955915,12.14771209178239,16.298065029441922,15.41201156011519
10.4480306429658,6.929619280970034,4.680013659047271,8.145897170486506,9.54516999283544,-4.872012832310503,-2.930624443589492,6.630068045367047,10.19416941011235,28.490498045284973,3.6493796011038286,10.476269668473993,12.38797061775767,13.601694918128134
7.673221493907274,0.3239913049264338,3.511187025724244,3.138521245306848,6.4269916255752335,-12.763817262760274,-9.228133776577303,2.381746018589592,7.267121973356675,23.60672330422478,0.5551975286958509,8.678626214807528,7.497140090466352,10.74016261158788
7.666214722281316,-2.513077928035976,3.3087857494057333,0.408645240379343,-0.6538393358543466,-15.90377679227999,-15.34100844753974,0.2976750168630175,4.534852190102171,13.890017803439868,-0.0846277109973171,7.556083103174089,4.133685310711822,8.782204739793467
9.7406343513854,-1.177324807645416,4.229500209470713,0.2052409291937316,-13.542807740171163,-14.00769468593492,-18.35599586794065,0.2639270955713684,3.5020330546697807,5.31176184319019,0.781625699814557,7.1136430235288906,3.542759339426077,8.697592140969725
11.682083700928558,2.0887076555101345,4.3946857677374425,0.79744297541151,-28.1158585367542,-11.777236789445771,-16.869127955189857,0.7002075445820992,4.511841779464163,1.0859024321142885,6.78973111100611,6.769679169054815,5.565108632304447,10.127676275967415
11.896016459962574,4.544533584736904,4.12954830375918,0.79267948070434,-36.50148604887454,-7.491149096411219,-12.241969863117037,-0.2087172621291912,6.17991546305716,0.3758802924078921,12.634571475142083,5.994729803120407,8.830887960099957,11.722950990614663
10.42677884639305,4.785364946000946,3.089909574986452,0.5388146245996097,-32.766812724726016,-5.517717094382289,-7.498403076300065,-3.2982314112722197,6.101417277080316,0.1662295305231111,13.495870503017327,4.700107930638907,11.109998150038574,11.881520302559164
8.210197675465757,3.104737579266125,0.9056240822663044,1.164000271692359,-17.24425101885347,-6.631738136504235,-4.768071563742648,-7.937296876566842,2.628909811039499,-1.6384318576471806,6.2744872021127165,3.096158970314473,10.179163186056575,9.57173275547321
5.744527124506426,0.7497172284759799,-1.729842902946803,2.6161356459077787,3.606493956137762,-4.699214147022038,-3.584546008436817,-12.343066320290143,-3.5633383799126364,-4.432016851803187,-4.538737109309717,1.3467485871104117,5.242605302109407,4.877492952490311
2.652524837780657,-1.0247494209545884,-5.037881682658544,3.1604096662524377,21.0049658600928,-0.677810771583801,-1.611827813544835,-14.431388011358097,-9.574052270885456,-5.7287669759345725,-17.10240995618531,-0.562596985426552,-2.0931094005737663,-1.0782255256277793
-1.6541194525650944,-1.6540954175367872,-7.545851461756317,1.0432814237806554,28.2439970457356,1.782007250819599,2.868200235932033,-12.88951849618666,-12.270084809509534,-3.766166556121608,-26.268787099965984,-2.73027280907797,-8.600931925394804,-6.876274188337398
-7.17964724484623,-1.6664477863556435,-9.050783775000324,-3.499362234632862,23.28581884016473,3.444693764476664,9.032594073536169,-8.040386731353479,-10.72338646369835,0.393115090734085,-26.141854176667525,-5.262250290089282,-11.917213075875123,-11.734043450023831
-13.245526396157508,-2.5717303116071406,-11.0557035226589,-8.172881353957305,9.13989115115379,3.519751393655298,13.969983709546092,-1.8918013217944143,-7.004445835343155,3.2392009275525098,-24.761772817131483,-8.249391314222228,-12.698862085478527,-15.879948381271852
-18.902828540387564,-5.92009456140881,-13.19632119443852,-10.685518354946336,-7.400178091253388,1.2929387638200738,15.103306857610846,2.9769113500478,-4.471687477970178,1.6515441827769397,-22.651337195460545,-11.581479720021814,-14.134319358473714,-19.98836745195992
-23.17079366212169,-11.832298163356525,-13.744994535299243,-10.810380707693827,-18.31390129430717,0.7527181801578358,12.355120993015085,5.159074435441148,-4.865059810962531,-4.064435059635734,-17.675297709182484,-14.586986167400347,-18.756954915372496,-24.109297771787084
-24.95585570201568,-18.165422422197608,-12.728744229543928,-10.28746835440478,-17.91129202091396,1.7155169068473968,8.118141501839272,5.463532594005683,-6.7044787294196375,-9.717556909131355,-13.044352466864508,-15.95024514668097,-25.36414562412756,-27.07293056772676
-23.20907705084439,-21.3981384661084,-10.085877365238886,-10.680131601073995,-6.133160485232608,2.447171067236785,5.162349556974796,6.195523711312365,-6.517268707701572,-10.186534377698663,-5.950635807861352,-14.350595189285004,-29.22219380320585,-27.03926084248885
-17.678427880293974,-18.966262638781505,-5.323686823329948,-11.452845306940638,10.62410756079585,3.751330563764856,4.452641487249842,9.048701384730716,-1.980374323614651,-3.635528824076566,5.834266050945741,-9.559203316936,-25.834815373708853,-22.87294996650494
-9.669788827065798,-11.3155221812285,-1.466818949521131,-10.310169618625242,22.63150753108487,3.896739287332718,4.769088289223538,13.356953856284996,5.720285774334769,6.57591721348431,14.303453524667628,-3.0309910058252747,-15.024551086789335,-15.207035522027372
-1.7776376228535256,-1.89312167914305,1.4704784639717332,-5.495877968594055,22.725160600589696,2.6682588904212605,4.230067684139238,16.351845197712645,12.476367905349502,14.1889439653866,17.664486390821764,2.755330082441393,-1.5071573552040611,-6.211968925112522
3.64348810425366,5.107734046510792,4.64885168199425,2.2491939058295536,11.239543809904829,1.6285804860690165,2.1218863074247967,15.38722028613732,14.448548544994845,14.917664407939697,22.21841330094109,5.868367880333395,8.717435779780498,1.829352742078143
6.144059953378266,7.58592957082343,7.353180912887535,10.007730951779768,-3.7857437298500662,0.3667967246755833,-0.6155022990513395,10.308684386982844,11.213976848512935,9.93633293107715,24.037360476408995,6.159660637836296,12.970938073438424,7.971905581324171
7.4479508107045795,6.802032392324243,9.414891509542676,14.937076955159544,-11.818770527947455,-0.5809380208599078,-2.450408347040048,3.924607973446701,6.187432606454696,5.041595302959259,24.60076412812249,5.153985714804586,13.472203597947445,12.862632505699668
9.92393282250326,6.17234622145927,10.733954575277505,16.27318479901313,-7.137350087911767,-0.964984201941339,-2.653443384058169,0.1118782204099666,3.9527518013423695,6.124960018265446,27.34132802486855,4.7528563263209005,14.75099387963646,17.642198185713955
14.50831946625479,8.57261845632577,12.793857696028788,15.332747401694895,6.927849654916976,-1.6975401858998151,-1.726961241470352,1.0476953181595272,6.744059416469747,14.60147085299556,26.663623346957515,5.880121604197852,19.499100621824898,22.553091404790003
19.875088084480453,14.193764344958588,15.61002821712783,13.84873453556034,19.993098213592862,-2.5985064830234026,-0.7017871067860666,5.706531168444325,12.918323337466322,26.315183681361848,23.85179672716956,8.095660064634826,26.519646833856527,26.52407294820679
23.534235729983187,20.4890249779869,15.570058680606351,12.497997220914238,21.652109945106982,-3.82532104347231,-0.2157678772686968,10.66727405604886,18.43501450485088,34.47796515833429,22.14356697836119,10.253935510191983,32.156532598777474,28.03706106386943
23.821903254364763,24.1314234001526,12.722783545900525,10.948713601987478,8.736744739112154,-5.536075478911786,-0.283933165663135,12.494007498885598,19.87088100094791,34.11818185727695,18.848084113595505,11.45159438889802,33.44208945115499,26.40332671168352
21.032893323456,23.372952747405797,8.570193768913208,8.937492158676449,-12.184764059634086,-8.953812367721046,-0.7595277677074925,9.91743644940834,16.52376759409983,24.831526255668926,14.139006513155223,11.472118764785217,30.095033437109336,22.304825665620555
16.826062952593855,18.940295516687755,2.2813222715239583,6.852222510997772,-28.80851055084704,-14.33049997744839,-1.7366389691329651,4.377998732298488,10.279209173668832,10.439392074579835,9.58142882378084,10.548739660962164,24.0428719803611,17.251051926942246
12.623213205533382,12.889289190992269,0.1948366832960734,5.122729969288875,-30.987894079978123,-15.012234588738725,-3.3381221585258825,-1.2560720016608933,3.8283414862795766,-3.517659401315916,4.593284615758813,8.865507171173224,17.47970718127815,12.588876857323456
8.555211392925452,6.6672094262153365,2.913166038178972,3.3411268125483176,-17.381191287552056,-10.808449444208064,-5.1671291529426,-4.752223800944414,-1.1549425204551014,-12.565765359552149,0.3798607300421831,6.332160273720708,11.43471885131934,8.944579469411646
3.895914538713086,0.3398320550652443,2.8065149926105506,0.4921164925026353,3.4978063274413955,-3.220455177970105,-6.1808807451735,-5.85489871879896,-4.671183974247979,-15.023358303917082,-2.4865948773148814,2.841856209549988,5.907012884087784,6.398235104464263
-1.521789406889809,-6.302151665191587,1.174386605291963,-3.6515898823611854,18.662747386664144,9.562298612011014,-5.314683427610369,-5.966453162216428,-7.76720223227375,-12.267237871715391,-5.77682107957142,-1.21615247948791,1.0068629728147052,4.977804616418275
-6.389458135100217,-12.15987873244546,0.4420018872333623,-7.536389767980001,19.158118646400855,15.59658394981149,-2.320288446709071,-6.495347556350541,-11.315745413653566,-7.669864136966197,-7.320387784176462,-4.660933329337375,-2.2678209886973413,4.863558608929058
-8.606093890381036,-14.962390878411284,-0.5141002792615522,-8.746813689069647,6.085693459367832,14.272978219662726,2.01977273621117,-7.313271077996472,-15.086035529255987,-4.654308033851795,-4.504745318616516,-5.84421024746241,-2.48998468370732,6.070792551566534
-7.193136210385617,-13.622444847866362,2.779536094490803,-6.399384490489624,-10.1864157862043,13.035628335286267,6.513584501928747,-6.776935958698672,-17.706223681035844,-4.780504523311233,-0.9003144592547554,-3.60405582747724,0.8423723370202509,7.93037368575196
-3.750575272162834,-10.588383256916174,10.883246314507248,-2.704935840008325,-17.465546953658617,9.033595706356968,10.350867459935657,-3.4448081950304186,-17.56047819795385,-7.040015327546904,5.015984726916253,1.6804785407693643,6.278561783489579,8.976200965046203
-1.8506988780306488,-11.16173184117698,12.346759843528815,-1.7586358873189454,-10.644910072620055,8.134007643214266,13.26216078628606,2.0393652285445825,-14.032060476295577,-8.92011950828028,9.726585062409765,7.779309658957665,10.812573005516398,7.633606306955826
-4.424978896943912,-19.277699204836537,7.515239344030967,-6.172505897221242,4.721790838907616,11.3765943541553,15.014807014513252,6.822412757302345,-8.167164070331566,-8.451545466529502,6.089069939216946,11.584663298187197,11.71613329905145,3.440444032998016
-11.14138268669842,-33.059548328148,0.7943387329434632,-14.488984308274128,17.19864487767915,12.268215533200554,15.02002754321525,7.910041099478832,-2.176309685760671,-5.580402678568348,1.9531676672213745,10.985201089432415,8.542712931844392,-2.145919001474873
-18.17497834944524,-44.64621786426072,-10.354325108168196,-21.94166609845728,18.80321478694237,12.249482145925008,12.709292846955009,4.711824747660351,1.9131291794087415,-1.820775097840965,-2.1715207023123377,6.368813512915814,3.629925933122358,-6.305113908767019
-20.948627175153614,-45.51227628707733,-13.975128989384938,-24.14828941147175,10.975329256646807,10.958347625511836,8.38686736265543,-0.3160773695382985,3.433765654519924,1.2416082854992467,-6.408222567601249,0.4952109578747681,0.4402722115340864,-6.738578218274896
-17.750863707595016,-33.331302613937794,-9.03248573860412,-20.5047088207383,2.000123749731628,7.404147003300078,3.546872382430472,-3.6406046498021,3.223763747583817,3.038497299432514,-3.1156229624555847,-3.3590689195648977,0.8822823472778154,-3.532417175045069
-11.097180395184637,-14.34754550276051,-5.56102563944067,-14.209380266613962,-1.5282364869629816,4.93998496462019,0.036593736211131,-3.471465951515718,2.76503865212117,3.787471687594163,1.899807881673769,-3.626791566484563,3.8071087118156015,0.687195604329105
-5.532211723198763,1.2660860086471928,-0.7633973039285872,-8.988942766163056,-0.9023692738832808,3.3106215987658274,-1.373924367501928,-0.8819688272410744,3.0915531793999804,3.5370806442324465,5.170046689569457,-1.2865606734501895,6.032533792929968,2.6901073441880285
-3.784740025421499,7.317830583894974,-0.2031945506789482,-5.739428358917472,-3.0176073527315026,2.0990299725419703,-1.714094880907652,1.5900324032046171,4.22493826780493,1.785859052726991,6.288478682519272,1.2855266266019356,5.042678479430791,1.121050241979049
-4.753327865276148,5.884966127066235,-5.627103863626695,-2.3377006296427965,-11.9007373064537,2.0124777840891523,-3.04318488914636,2.2316709055950668,5.307656191538044,-1.8406580269755464,1.6946950780722063,2.298168358052223,0.939952254044158,-2.6773387025393163
-5.088037636382921,4.3039729374001965,-7.872695180726423,3.3086116603817146,-22.877099557333157,-0.0162131183524401,-6.724175392332612,1.0751484620898708,5.14224847531883,-6.688537450928905,-5.776231001401225,1.5590862888985413,-4.093119848423882,-6.218869779198926
-2.707679195685813,7.903040145307514,-8.426278391302219,10.19790613085489,-25.958685680105454,-4.028189148810527,-12.144307385735203,-1.0764341453488129,2.8285035568990224,-11.102986447352867,-14.515782743898235,-0.1752754780602856,-8.156461386080153,-8.267710447818288
1.189805996768314,15.331705086271754,-9.143656557840533,14.45781785724273,-15.742323948922404,-6.324518979999211,-16.923481704801453,-3.966460029835119,-1.6739753977124252,-13.537646293050372,-20.04263919342045,-2.480907795871076,-11.374222830284197,-9.764428705212666
3.4582258401314334,20.572300092069824,-8.57167069299268,12.839166198287728,2.031397227412171,-7.376464499524512,-18.450483289679937,-7.870052558639102,-7.284954440969443,-13.722840904408264,-22.904673877660475,-5.620374630268145,-15.272820442313504,-12.508663824727478
2.1678577595765347,19.167669625682137,-9.863734368129832,6.057450299892338,14.497743003184212,-6.845525007247517,-15.617585885445529,-12.404453475525004,-12.157461883472436,-12.780264736631793,-27.235632658313914,-9.641245241837424,-20.56864592350209,-17.06588748385319
-1.5904812676655524,12.36971730294266,-13.105008728149263,-1.4533839223363287,13.193152396832062,-3.92910593954292,-9.582865145267988,-15.88359222218773,-14.674580522773311,-12.203613412430911,-29.00037717820673,-13.478460838058794,-25.847716806120356,-22.01530963297733
-4.890763455124159,5.446000557917287,-12.883774577198846,-5.3013376694830185,2.133379943273312,-3.1765339480808654,-3.126365036622417,-16.36206492089626,-14.504807034222509,-12.669858793708173,-30.476303548248747,-15.418912626184778,-28.67450487172467,-25.149267606467312
-5.71943397741812,2.406061769600214,-9.509995321923704,-4.807557374129431,-5.78490899030578,-4.524980787882651,0.9531021255967717,-13.47165938200672,-12.838814702730955,-13.697728095135147,-30.845214758748345,-14.70057679747832,-28.025529819181088,-25.26918797575416
-4.480331254368849,2.691099152175184,-6.639205951527591,-3.048026764422673,-1.1862722169212816,-5.8664469144292095,1.4312838127435723,-9.046872569216816,-11.460186466450011,-14.306119255318125,-26.029373731126714,-12.525209253929091,-25.433275537361503,-22.83514426196589
-2.991173683781682,2.829758485782463,-3.309114511900138,-3.350497240628144,12.205691460119418,-8.188357578598586,-0.7067861364673433,-5.70660973263611,-11.317123090538956,-13.952194950953526,-21.073685720647077,-11.163443906732653,-23.514131070766773,-19.11746697051764
-2.33582853464614,0.7536957372331159,-1.2979798678220678,-5.835319219888788,20.1838118045336,-7.775072044234182,-3.0101591608737763,-4.726175319028542,-11.787433933815578,-12.908802512322213,-17.006846015344912,-11.835895151858686,-23.318817373487988,-15.01098212806339
-1.8846639694993428,-1.9537588279514964,-1.280510586630585,-7.409761010232096,10.956643313624888,-4.212614784305508,-3.254179406091197,-5.280997948155182,-11.266352723067683,-11.825673449121162,-11.00858170493387,-13.495694720840326,-23.25006120664456,-10.733806101670863
-0.2861632984932285,-1.9512844186276863,1.9689761884139416,-5.029186191341388,-13.210754434980103,-0.6423664105177344,-0.960959971328279,-5.660436138798886,-8.549221431663554,-10.913526596657595,-5.424519872973089,-13.843031790559351,-20.713055037218226,-6.409683945080928
2.8925684657246222,2.226093279298354,8.14860444974874,1.1970352109387363,-36.18935748623598,3.8461203808717617,2.3351920318458497,-5.026695184882122,-3.819378255660325,-9.46023867751272,0.7612112590089497,-11.619422468660003,-14.843413994009566,-2.55906454914976
6.671984137310609,8.684950909169146,10.322776209235322,8.080677103490515,-40.15199364831419,4.573941720548475,4.261690456451959,-3.931661084686553,1.5054596277200432,-6.1436476166387735,7.551075931396726,-7.881870454180074,-7.533206517628301,0.1746227914854898
9.650634399673145,14.061837379830004,9.041427940880402,12.241059465406096,-19.6043052139252,0.7158952444333198,3.2881569329357703,-3.3433045220934687,5.780543748572519,-0.0558104210813397,9.252944438585285,-4.994633831440744,-1.7096933266121468,1.6794802410737333
11.224906587614116,16.45016153343574,5.309167066622444,12.72350820240775,14.05792542668052,-1.2115935268624074,-0.3770732718822529,-3.5127791166110427,8.089097267406068,8.200489400668879,9.251327196762992,-4.388061957426039,1.4005849091369384,2.5428578409180176
11.76226477783628,16.384464780705713,-2.4179082587248626,10.962707273439875,40.70130719145592,-2.280072829216365,-5.213771217153933,-3.917718962051296,8.524492816063486,16.226181452568774,9.6439044074264,-5.300460659788804,3.30247770739134,3.4886152053886264
11.804092946772684,15.388065205194302,-5.1792217519450565,8.722218519820679,45.58501969222012,-2.179627095805228,-9.530988167619832,-4.080497162273048,7.884696408965556,20.886982464348065,8.308375201529664,-5.620752764512815,6.580782915033616,4.737591440037384
11.415832319419197,14.134338279388174,-2.625660077504875,6.549849586622756,28.87162163238407,0.3019366523811591,-12.269719655128933,-4.092627588105877,7.212579877370846,20.31235727320876,9.739486001540554,-3.860763366286289,12.220820940262293,6.01882473491732
10.40104424441207,12.198247455650446,-0.4073376268142912,4.199901937153621,4.208909872417712,-1.244540636542242,-13.014381370629696,-4.237181873923538,7.386825150600789,15.450649272262284,11.59779710209278,-0.3616936444324832,18.45880052353529,7.1325630539463685
8.900371349446267,9.216437470651629,3.5378134782451363,1.9613328381646191,-11.72194567246608,-6.74969663704777,-11.65924596820456,-4.346747127374338,8.682835673234003,9.723837729444918,10.256340756091546,3.1875903747049428,22.13342003939665,8.266329731598805
7.430448080996205,5.724936124564647,4.7360160901343535,0.8981666289931161,-10.820147709704775,-8.452519058949514,-8.383611786199356,-3.8604850868030303,10.363936146961665,6.6060927867450285,9.454048928752789,5.195759936352775,21.151688585999715,9.56467179886092
6.214836178625143,2.6296416173123696,2.3327148812976115,1.596205736331271,1.7048256510282798,-7.258112852416307,-3.967529999059241,-2.590609310166185,10.7402064887582,6.808843179257346,6.497712961848742,5.204899493551309,15.851472884398678,10.423067215676088
4.681511510671399,0.1079256226501925,-0.1082641628346336,3.051350127770029,12.402210191593102,-3.555256061774347,0.1621902621756508,-1.208345375287756,8.080141609996398,7.524115692222907,0.8524726380025615,3.861938476628872,8.34390515237896,9.465685754874889
1.930364671152983,-2.5382234566763917,-3.8685646994094953,3.3195298090948206,10.459768760055752,4.28180449317838,2.617278636440893,-0.6852962377592817,2.0440977092004573,4.782185036107549,-3.42491327949908,2.232874688368117,0.8404634939187297,5.540471029403648
-2.164159864607292,-5.746222658246861,-4.621578561090033,1.4808649484685574,-3.7835218831863457,6.745116618470271,3.098448422302795,-1.1448008363121431,-5.4470716233186565,-2.7342451494071227,-6.731322689005037,1.210691536748648,-5.385013735831244,-1.0349700079873043
-6.408388301677107,-8.58830791146707,-1.6917425500896108,-1.2002643632709322,-19.285344928556327,3.63245462578387,2.844056761503822,-1.361946677873739,-10.876653104201502,-11.72678724607738,-6.713860028545779,1.3273372721120609,-9.78365043412728,-8.128279376789472
-9.007414046030682,-9.168530960923905,1.9009859068637671,-2.3160736215101423,-23.536282848833608,1.3263043605907827,3.84965747719383,0.4205678497220262,-11.17261692433081,-16.262186821412683,-3.7062964751407614,2.7727615580802905,-11.85759011183636,-12.761618564031686
-8.923193152654207,-6.409950918168761,7.386730593095978,-0.5923539947265795,-13.213207038231817,-2.2261457526564152,7.286304576752315,5.012550241054633,-5.761584897590531,-12.45348052958645,-0.863309069556418,5.3749715495083095,-11.109992007483696,-12.724448664553648
-6.569766746460502,-1.4998400773375522,9.498427090740003,2.9256516085681312,2.7706962217146867,-3.1972503097666567,12.346262783079524,11.436643062580371,2.8795573342835468,-2.010924365858955,1.875644348854546,8.560964249253402,-7.739182812001644,-7.754606471874325
-3.262680901421973,2.6195022270437107,7.578775684158665,5.94878714323346,10.798357899624008,-0.5813226397885228,16.51852071544424,17.40727506026866,10.601263071909544,8.519753356388108,3.8871283253165982,11.4695879411192,-3.1563846048684496,0.3195746450812038
-0.113367290999804,3.4911376522650386,7.125812373915365,7.066591495169647,4.449751525534637,0.1170383320709661,17.19119258169458,20.64723769885154,13.9245351169627,12.48800826655085,5.42194861298506,13.266625765566957,0.5598227291346802,8.40462297262306
2.5240786430412783,1.1683098873157434,6.908512632962196,6.709179014250296,-9.692965030283943,-0.1150614796545708,13.41536728847852,20.03442240888748,11.839289372526563,8.10297328695384,8.477624753462067,13.519921777188046,2.092092501305757,13.540095322997717
4.740122069814433,-1.8083799330544397,7.308921037163007,6.151721170395092,-17.735492352482567,-0.2410865897593475,6.544867593983,15.991644079421263,6.115205151938824,-0.3712177783467183,11.685821964028548,12.432201688043024,2.0172396099305985,14.385548869564786
6.541065010598061,-2.463996098142445,9.177525830936922,5.916383653558313,-10.7703164284311,-1.0904401291580683,-0.6381379018435496,10.21013652455332,0.191186152020208,-6.0831632275782965,12.938191732086274,10.793565277495404,2.530686156425375,12.117660163068038
7.785958195651943,0.3264295942470454,8.541246480315744,5.4253341528734325,7.210834510473319,-2.132998056510604,-5.562880457654174,5.012882202342553,-2.635196878820693,-4.825197207464655,14.121228797876611,9.618436336666576,5.754659830778252,9.94905124493188
8.488006642118108,5.174668535879576,5.526815598835232,4.150147730398771,22.81888956083748,-3.450830658040327,-7.084651082367486,2.473604337399678,-0.876218352796883,2.1468968630884007,15.16665819645448,9.569209262798507,11.8326751878447,11.070040858739674
8.873685623301498,9.427098360031296,4.120259886195744,2.710577164702784,24.76120019712934,-3.803282873213073,-5.614287728552966,3.4108172388358184,4.336567966301146,9.688318690929547,13.697823678678992,10.45666271991837,18.331515439085308,16.109475217689393
9.000034496898394,11.036116194469912,3.72788480769291,2.453411827317325,12.850741270288694,-2.998787641854423,-2.4255098590257944,6.757270212209932,9.782227858999365,13.063068000924972,10.953392495924216,11.209015714312072,21.60942998731531,22.113155200149777
8.452117358168067,9.569038637834296,3.6233524272875446,3.8579452341837737,-3.0521688286460744,0.1232088481794391,1.116548803271968,9.984283300729942,11.95834199261276,11.283372736550348,7.89711456876518,10.49207623313012,19.33936667545865,24.29249722794728
6.660220406806559,5.92382314494256,4.518144807193746,5.565305990557306,-12.128959565347174,6.135941741141838,3.919767052751979,10.64179745324327,9.253864107977163,6.979681680152339,1.8871471793137256,7.653212267670369,12.358050540574368,19.575284664953443
3.5899152869737065,1.4001352164566754,2.68564587339463,5.25460153852481,-10.883604817548104,7.927857960488365,5.206707898619129,8.000924769611487,3.0268734042430765,3.428746245826773,-2.822949840746497,3.26413831197371,4.302597758616145,9.179493372449429
-0.0222613644433238,-3.0341689265463856,-2.0831676288546146,1.6403936887281532,-3.89620925735602,5.428510376934969,4.585140185257529,3.4240624945437617,-3.346700959701934,1.6718996202642984,-3.160195612226588,-1.263484716935551,-0.9064137817205165,-2.056996567144182
-3.271522474194171,-6.950773968084405,-5.895170299791207,-4.309731245359672,1.803159163233488,1.179721808075646,2.2799753078036247,-0.9002944154696308,-6.87614661783536,0.2146431975682787,-4.844763895621119,-4.733105502962872,-1.8857591802668596,-9.185864664299205
-5.897258586771898,-10.282079360237448,-9.48231477555226,-10.03239680746151,2.3846297846916684,-6.567148584679914,-0.7034013765745613,-3.665345242601092,-6.953823508165669,-2.7859907570800715,-5.731548720860221,-6.958180660667722,-0.6206945261106966,-10.616049848453969
-8.343955304073575,-12.998016524223855,-10.829974082357513,-13.19403755433416,-1.545944791761542,-8.363302198055543,-2.8089985661944183,-4.974782791336338,-5.348885194652354,-7.207928319061466,-3.521307985756875,-8.540628646647264,-0.539278070053058,-8.723031628212283
-10.954481867315678,-14.845542851575942,-9.064913211624004,-13.090373062449146,-7.0820136053873455,-3.5231285110624144,-2.614804705451263,-5.368316555918483,-4.330279273842962,-10.790857517985131,-2.940305928336888,-9.865211713513304,-3.428176447833721,-7.349369470217312
-13.246321685499396,-15.36608004609488,-9.095618173302269,-10.74815735801414,-10.995549211388235,1.193381565057826,0.3455236880187442,-4.697820091668092,-4.686036372000871,-11.148353445599524,-1.3901536498422409,-10.391280343012909,-7.87213065244481,-8.582887564433605
-14.199382031745358,-14.285038276607253,-10.397384704712117,-8.09020259992451,-10.37118879772686,8.053613405116987,5.140763981373482,-2.323158784025111,-5.360463534914771,-7.892007064997102,3.994255790556706,-9.079595231185207,-10.56231522020255,-11.498689947049712
-13.31772692471884,-11.986433185415194,-9.429442812525265,-6.933726111359476,-3.5781131364231555,9.86457250205231,9.76173745186736,1.585043135211322,-4.782419363994023,-2.817081357001456,6.457297543382311,-5.589230695979978,-9.209063090834064,-13.48921047072767
-11.262141119970464,-9.516144486964691,-6.865896726255527,-8.148942321601112,7.594941655622705,5.312807013045694,12.138704590213734,5.37934656757804,-2.3978857520884844,1.8664050717339649,7.262369872089721,-0.9672835354049596,-4.386450800557498,-12.566325157492429
-9.271165324882332,-7.886350185160666,-1.7540815526105846,-11.01892182533743,17.028014938406216,2.132553738113847,11.284819771277654,7.076502013488408,1.017554377308613,5.3432778650027615,10.808075771955714,3.008437368146246,1.2215097349985626,-8.638585773768455
-7.953923069929146,-7.227163107387952,6.6377541226934325,-13.186183772990177,17.444216271930856,-1.544224273347932,7.809910519436556,6.288617280152351,4.251038691062718,8.240987252449202,11.58278423349183,5.244592835308936,5.1907828620817895,-3.168336315812354
-6.778389112532665,-6.68643307955233,9.50819148001644,-11.785483387547115,6.434576626449484,-2.1093088503651667,3.4355399550412926,4.699152578351203,6.564223959204895,11.08045151374992,10.73330512642858,6.0470196298813335,7.000231509323783,1.9473796916126676
-4.807527764346261,-5.330127501446327,6.605067303606657,-5.576964305137892,-10.138024436978624,1.8541516579655488,-0.1171881641423056,4.2562807841128745,7.73355290308686,13.01997890872093,10.658258063282364,6.394353481159939,7.641833506582401,5.271767712257855
-1.839074614456777,-3.196637849983219,3.3017232438661828,3.428036440102048,-21.571272651029474,3.99932839528312,-2.029986091369665,4.9118460643095005,7.545656801659845,12.44374493261722,7.533121327407786,6.620059327208224,8.054228859602205,6.248421470123489
1.2999619314820166,-1.3484833205684623,-2.4297812144140303,10.61466062307943,-20.40371517060275,5.408034894152762,-2.487737604216946,4.515634282479738,5.694312098320324,8.893340815231255,2.869330214647911,6.025517546130217,8.202241514179008,5.335447791319794
3.544632372679004,-0.7266878192064752,-5.427268706874384,11.824621921387404,-8.050470207736964,4.788288426913304,-2.14137520479295,1.2443148073845691,2.362896112282982,4.253499390715845,0.1793542497191136,3.895720889842991,7.578663408382695,3.8072424819862505
4.484221692532316,-0.9409219017232856,-4.819102090929673,6.637324579273468,7.030089846750599,0.907492738700206,-1.5739158655860592,-3.980124503157015,-1.2925088416148045,1.6741300895823912,-2.4705439258061577,0.7210408183184995,6.196664719853459,2.972069142749376
4.359302004423007,-0.3662332083994428,-5.207263078975786,-1.0092182528196147,16.494307148205152,-1.4098723347112658,-1.1822903822957684,-7.88349231920143,-3.638368227389826,2.953702653817807,-6.472926235725758,-1.9262406616635133,4.722837142278166,3.073228549474571
3.3258107844021083,2.313879083014285,-5.212396402483481,-5.739805844566725,17.700802671874236,-2.683148019037505,-1.2984437680847094,-7.927943648030634,-3.838569635277796,6.753140008156628,-9.498552403322352,-2.9415800483329875,3.594143590714338,2.8586802354608736
1.059253042925965,6.4994714541853575,-4.561626985122419,-4.970502629305836,13.231133507544966,-2.8137249677199883,-2.135861300541503,-4.974724625428023,-2.675995774976304,9.372504584330034,-11.12727910454386,-3.0219407509875538,2.2762153565493364,0.5777161133312205
-2.658831817999295,9.637252013451617,-3.6920195669587503,-0.8522718724539686,6.378711710865478,-0.7899476740420137,-3.499929058368925,-2.6395693319040205,-1.9457760990745523,7.517095711325026,-12.26429139261158,-4.143398814541471,-0.2767338592821232,-4.174550831052203
-6.993897076633488,9.05137635116536,-3.365392730791209,1.8240400686181992,-1.8124311358439869,0.0601016329097731,-4.645601874135252,-3.8119110551898174,-2.8339376622033257,0.757389216398412,-11.518448648081662,-7.429230263368428,-4.2831416843525645,-9.47687431351288
-9.995993427671692,4.224695004503154,-3.7693778479940714,-0.0101899574177792,-11.121758861529583,-0.0253676082308496,-4.633303980711538,-7.780547165674939,-4.8024639443666,-8.213683667679831,-8.940778217220267,-11.496687496331909,-8.36284916266576,-12.195813760670063
-9.827803233810483,-2.411790334407556,-3.275305576264173,-4.902277145754539,-18.996753103192333,0.3689331529695014,-3.0131264320394,-10.863316428323316,-6.086111663078455,-15.429796136619345,-9.129201565417125,-13.164009165029752,-10.346609578961022,-10.496015174573245
-6.314636905970232,-6.966758680987482,-2.056521415016806,-8.136338288730258,-20.31919988020087,0.6367659871379121,-0.2815951037416937,-9.947424623105846,-5.386075087534067,-17.999561012266156,-10.006637061114862,-10.180583554745256,-9.133423466000709,-5.564023353656822
-1.361339625558344,-6.805105874557341,0.804849731628038,-5.967688772274158,-11.366632694565451,1.1178902542063438,2.292930888264948,-5.473786941525532,-3.1683148478597616,-15.438186336861875,-9.096478338265843,-3.5573570236637693,-5.901597805148697,-0.8852792837907941
2.2661487124505584,-2.465463692267861,5.753015601326901,0.8790057039779811,5.621804465148472,1.9097997201733083,3.384539314056724,-0.9936216841491614,-1.3124607790232687,-9.587937476741471,-10.643969765723284,2.788105692960869,-3.4034490705599865,0.433617596320289
2.831405231326926,2.626967663619837,7.591692167254227,7.505192040338528,22.039109529880875,1.0722633480612969,2.4088761107097696,0.2033181173273419,-1.3893453958964983,-3.553874002509673,-8.943260995040756,5.015831076750857,-3.75657602183216,-1.946545829961792
0.6647086496167276,4.417187122100472,6.289070674767394,8.682467764306125,27.829170816707915,-1.471330325785379,-0.0598832023961222,-1.874663951399782,-3.121600894132172,-0.1606855012082917,-3.2334673335169364,2.506654205286452,-6.568016943362068,-5.4567983009947625
-2.353692853999973,0.8734470479587344,4.842715739230201,3.0134971171464144,18.18317755165305,-2.7176440413332665,-2.5167684907058288,-4.032215559423264,-4.429888568225465,-0.4238142269656464,0.4544186820244651,-1.55973821387812,-9.073598810965793,-6.705115305167283
-4.213600552080038,-6.658027239274361,2.104682069774192,-5.935879874317152,-3.0045632242781157,-2.941440769178319,-3.385497545216253,-2.9069330637192365,-3.0695871696513564,-2.844497567525593,7.796664342851625,-2.7610172124611267,-8.299320614151611,-3.973643440905733
-3.84299041982041,-14.125624138458877,2.019452840825016,-12.248457168098469,-25.260403460040266,-2.2478794703462923,-2.133350429673669,1.9687723513831656,1.4915836492085075,-4.3609043701277415,12.494615202664862,0.9742082814490232,-3.48767282850298,1.7706975347443858
-1.1803773405527522,-16.991230912696267,5.178387930797817,-11.790591804780888,-37.51011235604659,0.035128379813415,0.0867622002577377,7.745051492120524,7.458365356787965,-2.7317762141027515,9.280653660824392,7.682507105135642,3.243695957166153,7.817923130987594
3.319735999380555,-12.776888614187214,7.683783844471365,-4.78683585645598,-34.02222059506727,0.4154649458794452,0.9498916041786174,10.588731630666077,11.783275929791388,1.4192668335732606,7.140707267472671,12.900558799441455,8.532361807127415,11.583954669094908
8.924906557291479,-2.6124713404839213,10.526266837851551,4.716400060024512,-17.094467294425613,-1.1251653718559889,-1.4268685869560045,8.53395197639901,12.06980126359531,4.9275967006060455,1.9457690404797805,13.081869446208998,10.24452041056452,12.0194902786252
14.412060420292391,9.138187543217214,10.402394999047509,11.71441323337706,4.572535190028589,-1.6663203504761763,-6.8450503697403065,2.545161085910877,7.974109632471084,4.8914480302019,-2.6427902144729662,8.151524329157382,8.712856470901329,9.874308200991322
18.048466940475464,17.208584988688358,6.47010606654757,13.292849939938264,20.765373638227288,-1.867274219766288,-12.757013076802082,-4.597613203522997,1.328360150807498,1.5331200933171658,-1.1099754084462323,1.3323335758152552,5.912046150069841,6.994261021296893
18.374163283735925,18.53891732543798,2.163585540661894,9.964765689412388,25.37818306894485,-1.1672844984763622,-15.81893987339174,-10.1851816002154,-4.8741759956424175,-1.726057736473308,-1.274101455941888,-3.376746838049371,3.6160383045380513,5.195980402911346
15.395198251535362,14.145059257749269,-3.525760956117059,4.716779912964967,19.59899771508708,0.9343910727451324,-14.168278164226194,-12.72466074745182,-7.940105790486314,-1.3068367783266694,-0.9832439740590876,-3.98709596973913,2.268781391645234,5.235759043124631
10.96831539484606,8.244554434807242,-5.508752927656918,0.660081268899603,10.438964718830448,1.8588429323272584,-8.62330705951706,-12.031673119638072,-6.689535861609784,3.1415753620295845,-2.097236349955542,-1.562227009915432,1.2894467042965516,6.332763649871822
7.633740086866965,5.094474929990383,-2.9114254615695523,-0.9866928782628293,5.258169601254053,1.7533035194564266,-1.900435203538109,-8.893552864101935,-1.978589853781159,8.241940731239652,-6.487622472999964,0.9654541450265696,0.060320376697291,6.605734504467591
6.672206955238039,5.952467967212328,-0.7932778412045154,-1.17498231971706,6.191406279522312,2.6783011244089674,3.363935973282082,-4.76591814657445,3.6854318636721928,9.745456316069522,-9.535374485423995,1.055450031043165,-1.5544187749268303,4.355091232014274
7.147311630303534,8.613229371426314,2.2056770558063765,-1.5285914929979754,8.991450891666204,4.228943380330598,6.116944041520128,-1.3411102474485688,7.364463481214898,6.030437841073535,-14.683995390561511,-1.810108269348916,-3.4493273613838937,-0.583224288181782
6.916375597823844,9.770347686928062,3.102374036253883,-2.500138686266609,7.384791056342237,4.941729942508554,6.921144033242513,0.208300796425874,7.222806674624394,-0.8866913443810063,-16.666231138517414,-6.123684604971686,-5.645920215345541,-6.499087770636834
4.689110648502719,7.958536525142563,0.9852289784908952,-2.8853928634066506,-0.8594118045662071,5.020333102208999,6.9186404571210005,-0.0890119765995223,3.485523364620576,-7.385040078582733,-14.056011306055662,-9.695762015278206,-8.212230069436373,-10.923430338243634
1.1480902815405898,4.466288075091711,0.6667396268107711,-1.108229621178566,-11.6392952677312,3.850389037358799,6.8509695656852045,-1.0953944532020614,-1.86383420481036,-11.108849447486705,-13.348176251336772,-11.182340643588532,-10.90888475603242,-12.392907627453267
-1.894052407945594,1.7112078587045971,1.3474644566637186,3.0174360899416115,-18.021129828831302,1.0553398880121143,6.805326991272295,-1.530779450605678,-6.475093015402422,-12.153667334421698,-8.44638960519335,-10.707899972194356,-13.126550007906417,-11.401270639693736
-3.3193310821411046,0.956019249166502,1.0483382257152571,7.787099544580826,-16.129115164002883,-0.3335774300465501,6.503005574909196,-1.0119148452513969,-9.073471412764547,-12.055420872300374,-4.12516694694582,-9.35456711323701,-14.265365620128478,-9.760486669776183
-3.6111926903261065,1.5490800726961425,0.4188106627212726,10.83713817741682,-8.019446210757337,-0.3822213154448325,5.636301071346452,-0.2180928496043179,-9.87630775645539,-12.048913502842195,-4.642067927420319,-8.176419794585172,-14.132125698703362,-9.034649593898394
-4.052694622693252,2.035638388748339,-1.5238920693865314,10.914779394086509,0.645853632995113,-0.9923508628344604,4.05333215102587,-0.0863020114604751,-9.839371350167085,-12.226817563455825,-1.703220306000663,-7.592399661358286,-12.95479513239411,-9.479791692583149
-5.279384966448106,1.6568419812392676,-5.102893886704127,8.600758820373926,5.409957450334105,-1.563624243721672,1.858537030150842,-0.8799756499289515,-9.61776177232673,-11.955221974747474,0.3539663644525321,-7.457806181817659,-11.113661159692128,-10.283284891079006
-6.809176084546152,0.749890634792564,-7.349802123915194,5.528386087020522,5.894094184828532,-3.176315421655057,-0.5941097937859467,-2.027699173784413,-9.236543040925426,-10.773161577959058,0.244793305977531,-7.457438980174857,-8.947830695876178,-10.601514796106471
-7.913003183801948,0.0216990471559483,-8.38938863412984,3.0029931401791146,4.861631659105456,-6.13614453002362,-2.943632682455018,-2.797237696310617,-8.576478222308538,-8.913399814618629,2.30576095928332,-7.353056747974392,-6.7384910458577,-10.294792172453754
-8.640954222022742,-0.2432632421979406,-10.203844324033296,1.2203004160525095,5.177766938707919,-8.275494395582399,-5.178767235762393,-3.055036584189338,-7.883514343129832,-7.140637394794226,2.670582521863329,-7.018915368621151,-4.669584905995066,-9.819406127045454
-9.72492716767033,-0.2840060769544834,-12.249891258640483,-0.4833921646253429,7.528912262100334,-9.821266640660232,-7.668889245825085,-3.342088615771331,-7.586925194168771,-6.099460990077319,1.5382962915964171,-6.483027398058312,-2.6916136831700896,-9.644740498120882
-11.467599201417327,-0.4830761288257008,-12.590588595912616,-2.7838001673854933,10.30934839983354,-9.09477165152522,-10.622453239798348,-4.194742189313388,-7.631469079774661,-5.605368952291997,2.852480663575627,-6.00041543726411,-0.5206073213200852,-9.816060478134771
-12.95183462275736,-1.0743925460226365,-11.278925571290271,-5.621097391132821,11.191169023182963,-5.458165082233672,-13.412183644654649,-5.357801991971314,-7.188262136025855,-4.4269478235137285,4.774678389609113,-5.887789071051884,2.0719280315586275,-9.856099483405616
-12.578608759184135,-2.053491463155524,-8.301275275814534,-8.015710194764097,9.075064922205115,-2.10408876761005,-14.578504113477038,-5.662695390329191,-5.223451143766852,-0.9627085087630576,6.471458794223249,-6.035270306358029,4.963674577025245,-8.849219123297416
-9.4780235307187,-3.0383781864302364,-3.117697800543406,-8.559950631481911,5.144020289055902,1.4634477610243668,-12.782059057528611,-3.809405652563214,-1.4133758657087585,5.407168437379482,9.765912720315267,-5.578812794033411,7.808011062640162,-5.706935170870224
-4.387446642174268,-3.1311742217141614,-0.1440320053946998,-6.337237930192259,2.1455632914676244,3.900861495246211,-7.980406405492772,0.4844421506294338,3.5238597406068948,13.289996894799629,11.158883323384105,-3.352651325244437,10.493254571987109,0.1892826429719889
0.8469934737422022,-1.2580039895232176,0.4745268360568154,-1.679929791602376,2.09821025408246,4.485788348062045,-1.7384977462151028,5.914882449747324,8.363798915533039,19.65649771558418,10.901217914510916,0.993314090710669,13.280032253883576,8.11927905668125
4.6013535034798565,2.8435312904795182,1.6855003459532196,3.843686639220323,4.208952778535036,5.921400688780547,3.677534946608091,10.208800488893644,12.126048172686524,21.697134603195597,11.7388820178635,6.248682942776156,16.21582051903789,15.712244541613302
6.386210866084866,7.746966640055348,2.4946264702994334,8.28777557834934,5.286979769240986,7.719576247619432,6.687631343557996,11.608206378709951,14.288163144664964,18.85779601712937,10.683839647083165,10.235140887103682,18.40224626633494,19.943989896935022
6.6911609514775705,10.715163366393083,1.884022308583132,10.375334789072497,2.9197918730783954,6.757633993949323,7.178932072679231,10.110541955701478,14.521173487244198,13.35865738917488,10.055541229963625,11.448171932374862,18.2014307727506,19.12860527070194
6.212889785185553,9.546088913590268,0.0026500110891755,9.920512152037588,-1.4787342739002156,3.1614069718388924,6.223218990412931,7.429443911005364,12.64891782466634,8.621713995475318,10.858941567517387,10.266340428166018,14.640173630185927,14.38274030097648
5.323600323197894,4.5399893506397575,-3.489927446334749,7.476501866842824,-3.348548283128593,0.7238819260514187,5.139992907533497,5.624270375370855,9.114604583510667,6.762113296937457,9.359577536066745,8.49333216595707,8.790913425656754,9.072192953061176
4.095524961670151,-1.2897537268648875,-8.875285681958069,3.806456584308336,0.418564590325758,-0.9918575556669542,4.644647547593792,5.452415978591318,5.268655118608308,7.107483950348808,8.542683145953363,7.589103657712883,3.4924680406861626,6.3295989223441325
2.520182458591876,-4.325573200173352,-10.484840262285278,-0.2588507915018851,7.241976800174399,-0.5346719676578214,4.564851082352249,5.75476661346076,2.6361864944012723,6.894349236484402,5.715220886441655,7.279110604311711,1.1932154913144188,6.543448462936851
0.5384210285983784,-3.2156406117796337,-7.984427694104735,-3.72578094616614,9.739656296163218,3.06623293671437,4.193290405321534,4.369150931204217,1.4635619474422017,3.569692481336375,-3.0036901773475013,5.89924307199928,1.705978660669416,7.00374988578983
-2.01484358321828,-0.0459395018403512,-5.297308131327796,-5.662262431516282,1.80277126821953,2.298292208625045,3.033599274352696,-0.1248267837060126,0.0554724787101719,-3.095930467309288,-12.261085449824478,2.150022189286233,2.106287014204966,4.1885995140113295
-5.22095440012798,1.3174558443548392,-1.058304066181365,-5.819279826865966,-15.412001852626917,-2.670809560991349,1.4500051841981048,-7.136357067603512,-3.9464667474738633,-10.69278552787695,-23.923518920969084,-3.4131555248676904,-0.831293288238669,-3.113256381590489
-8.68298409039086,-1.6006726341864237,1.301166468145219,-4.990636367101523,-33.18234415152098,-4.335384759154949,0.6471694329237749,-14.186957647277268,-11.121322502494005,-15.881905514745624,-30.88095620110184,-8.537386306743443,-7.714520180156036,-12.469528432690232
-11.411715687849696,-7.842965603426652,1.1204816493747811,-4.496599026184107,-41.10054680212003,-3.8916123604305968,1.780266392508814,-18.327174461114705,-18.97220564459954,-16.834175670118995,-26.044777366915923,-10.902908718813457,-15.785963040494783,-19.424763902693588
-12.313596889939197,-13.738102935928763,1.334991309992538,-5.083985279872613,-34.19941691920955,-0.4662845721709261,4.788737708157356,-17.86098590633008,-23.348666848232792,-14.537695870797208,-19.498068927281764,-9.752776532060086,-21.03892175428332,-20.71703867754874
-10.92387538343013,-15.642009853416448,0.9695386027989138,-6.255410672580378,-15.812804555115118,7.463084896440749,8.057926489882085,-13.222589054257298,-21.60800582002146,-11.94080768986294,-8.633053134178677,-6.156191613819088,-21.23309014595213,-16.387625731542663
-7.664828029849858,-12.423620129380197,1.9704525010950225,-6.692429208680217,5.2011133040511055,8.927422821134854,9.4941414112502,-6.47683141160428,-14.711264210377948,-11.54483266592755,1.8536608714322893,-1.8344561986705727,-17.112554806397235,-9.14026304981602
-3.379017967646419,-5.941993418500744,4.775575493069826,-5.393149084152064,19.91147531373444,3.856106359742032,8.27689670231375,0.1050261970863388,-6.331687687162244,-13.307608305024168,5.374228250483627,2.2762404739395805,-11.00656792460935,-1.7936664605385957
1.3104075329587914,0.4263876714792189,9.339425817333453,-2.5269275935643947,23.60100665213004,0.0169480302936601,5.690478185054744,5.321434864440988,0.1494672457631622,-14.545458831737932,12.164859114229952,6.428616403489528,-4.541699408632411,4.718800168267748
6.098530684144592,3.842068425297569,16.40858419095942,0.6319542296939318,17.10553891092465,-4.840151310867984,4.084702639933695,9.299749968676934,3.9715932196912007,-11.981002446920684,20.19293040552252,11.168043387893448,2.16244165951413,11.108733309935277
10.564880250104691,3.3654015528236414,19.792150197323732,2.535597441135664,5.546256077141749,-5.954865391497815,4.739960781711801,12.728031819465684,6.706361677258528,-4.370266622671011,23.835951040631095,16.106703790707513,9.259220720936142,17.878312243801247
13.941791781077027,0.2207607257637533,19.286057314764857,2.3641278353100006,-4.523691328450539,-1.9430608808532592,6.5752156533220045,15.850883398589644,10.035682702737589,6.342762741021872,24.665159109707567,19.675585594329533,15.627559289704536,24.01635406590556
15.599831292800062,-2.88604712765715,16.4135746503098,0.652772880365518,-8.454757603739381,-1.5581220504056306,6.991358795005695,18.10878027964924,13.979338761023314,16.2400484706543,22.89579669204468,20.258301098431204,19.04078824015761,27.656460590583592
15.774722589823083,-3.1867887359389044,9.511446316531105,-0.8228038674383242,-5.815928764485022,-3.678743351171065,4.198291867377208,18.657070595382837,17.157417339549966,22.053698445848116,16.948493184603237,17.746258192200912,18.115362169304603,27.91588697174231
15.525918033566342,0.4011257722975188,6.16482630524071,-0.0576122112100847,-0.1438538844080881,-5.168225609262742,-1.0491680218836734,17.227306877864464,18.44545598862956,23.183507247674697,12.576369981362648,14.003144931204076,14.00220771076988,25.850279834328404
15.655872066832927,6.17031746924215,6.624104651643274,3.62421443342177,3.982072864704861,-7.457901113617066,-5.909998191052125,14.531983542360765,18.094104488970885,21.629473865930063,13.043252200639037,11.60126718817824,9.845325688548968,23.427994643444123
15.621290359464323,10.302122175644628,7.419813562715705,8.521771299262184,4.390368898469063,-7.174139220240736,-7.751596711609324,11.823360398780435,17.204163254319923,20.015473979973592,11.36130283492809,11.787993878603686,8.261641856822024,21.57664185793081
13.780669318921184,9.417475144387907,10.390552876229702,11.207797783115211,2.3814443335344606,-3.8538603282428663,-6.272619613967805,9.943544956524365,16.30530052834908,19.339600583102737,9.183030163079838,13.4644002602127,9.188749543901594,19.3690593054522
9.04691507834218,3.3454669421740846,11.273749566243817,8.960501011495694,0.5254003693186178,-2.2238249518898576,-3.606148573428726,8.665711047713046,14.6910865343051,18.25593910374525,10.317211340902482,14.155652407549042,10.193010392747226,15.225366844145697
2.394695528475524,-4.248304044127394,9.71678016987302,2.3231577455383388,-0.5072198984875342,-1.625199744754601,-2.373155924094988,6.9476163704681255,11.275397979970592,14.462113375280296,10.868743819503877,12.184707415636524,8.947517447915487,8.896251448302081
-3.4502058565392986,-8.2814878473379,8.310464808999015,-4.542324517540266,-2.6884361892198,-1.3606621111443056,-3.4602157485455507,3.9688315866239066,6.079038853885294,7.0746203612334,12.40514913919845,8.15472999041748,5.483461222562568,2.183132755054544
-6.088343367518462,-6.020560490035308,6.008288112025043,-6.570657985297089,-7.939826858132704,-2.2883487079952136,-5.46505620369129,0.0671789212110809,0.7552406471430118,-1.9634309570952555,17.859740324625175,4.440792755366431,2.092116598326328,-2.3618350144545843
-5.365507306110317,0.8825787696104612,5.082935435232973,-1.740098353352181,-14.681748842055384,-1.865610098726264,-6.194529998316284,-3.336174296662449,-2.4902468173862644,-8.677978811212824,17.394752645151762,3.167915301684048,1.1109713580255232,-3.47893952618216
-3.2454641275427605,7.800918063919255,5.882589748827474,7.023161923266343,-17.494686261290525,-0.0940816679172229,-4.74466798146068,-4.871063406122801,-2.6241870153376112,-9.578052371292642,11.471612738535327,4.456585085527223,2.837670451339136,-2.0480531671709628
-1.7903096373094058,10.73469509784951,5.797009983314027,13.81119303725322,-11.064526179407608,1.7032372506009743,-2.254134942475673,-4.423803646843993,-0.5419006647618971,-4.043588122109924,6.963444886195837,6.406246108948864,5.520990742742953,-0.0720826695736889
-1.3463026356441503,9.00549097618105,5.345983893720375,14.113842067768871,4.648908000901287,4.0635730972897415,-0.7451744991827525,-3.2726874971789077,1.797877429944606,5.127250023873103,-3.1817125907090573,6.710072512010754,7.186005759406214,1.0424016228859043
-0.7789007393047882,4.935774078989397,4.070082049447866,7.994785569061122,22.7625512298894,3.367633608090012,-1.253937387785868,-3.017871746755162,2.923506626799252,13.267266163272836,-10.161694985449907,4.426116828183126,7.270283035941759,1.2156381327749273
0.6381454745645954,1.2453127405373152,1.501696066410819,-0.4868416088754657,33.38076123075328,-0.8222104221130613,-3.0177509982538595,-4.34636283919852,2.568878597636939,16.25633603419044,-10.579207151509769,0.4466340297409488,6.464182527821606,0.949148019403168
1.9038604710215168,-1.159785838461005,0.1258452133246649,-6.792509276263246,30.29325790147541,-5.141339967116497,-4.367141003330289,-6.76314683956079,1.0665614851909595,12.279241264752956,-14.991530045760404,-3.5268530537858283,5.215874548803242,0.2101749610264391
1.1510927286665549,-3.0580702435826765,-0.1734441020864439,-9.051225496368232,15.166590013503368,-10.484375299773236,-4.338748040076496,-9.330270411941823,-1.592814646226202,2.2612571917712785,-16.1286920647412,-6.41647672398571,2.813695431771947,-1.6575368478840744
-2.1056617112193976,-5.033412967255003,-0.8274563772923998,-8.255830911612861,-3.996813644651666,-10.297957882032843,-3.422054694493923,-11.418003188438334,-5.719698187166941,-10.665953010041846,-16.66873174193094,-8.35421371447714,-1.7397029571208122,-4.853887812705096
-5.805954591985937,-6.154684235702064,-1.3735364670030628,-6.016419488161546,-18.47966357787695,-3.4933354047534237,-2.806873014176176,-12.675856062881294,-10.880609751611315,-22.164108827158486,-20.526442263584865,-10.103046972951816,-7.985886296720892,-8.194502627121125
-6.778704651545212,-4.761335484112863,-2.1195224872797827,-2.6812437501741897,-23.745863041663668,2.439760539891953,-2.9800994607123386,-12.561305706570336,-15.226815530960335,-28.059299049887585,-20.545472484510324,-12.064979540521136,-13.509649288548715,-9.68096969216444
-3.654906858874455,-0.5534854782836476,-3.2403802680550644,2.1316162844153155,-20.163884736069505,9.14995947523787,-3.1032386793295927,-10.38538308622313,-16.401464476799035,-26.049095786669668,-20.815127502908418,-13.8590335305323,-15.643334169425998,-8.376176236825074
1.463387215818031,4.275448716463501,-5.327753970601109,7.442266626321327,-10.407984794212156,10.83737409773276,-1.8021512198668572,-6.142243857689081,-13.516158436976625,-17.092988936451448,-20.76365244580151,-14.779020411817228,-13.960843695795802,-5.827258267833457
4.240106206885727,6.22738292376269,-8.607470077673133,10.017475074824802,2.7688874178547564,5.792730782237612,1.3581113692732458,-1.21307976065755,-8.285691935928469,-5.342628945633294,-18.48202251301013,-14.600550153102688,-11.036222349829544,-5.38440393075517
1.2926077521602508,3.1047389257440585,-13.716859047751091,6.326043634936795,16.097972750347324,2.6804701534887374,5.111946505234769,2.1444137325925112,-3.974043683241121,3.90201329550284,-16.83650956271658,-13.949221580180293,-10.413636922974804,-9.606833669173412
-7.2517694312209215,-4.214755125692619,-21.024462471581423,-4.025215358494222,24.33296568044694,-0.1348159564854681,7.250713600705637,2.4304497474440296,-2.881603811415559,7.175555288350253,-13.027849114802,-13.874802373114818,-13.433961375140475,-17.821606779784048
-17.69484723687824,-12.27108415492539,-22.92632010433985,-16.594110646039383,21.36167386636821,-0.9897069233207378,6.392302714145927,0.2742042666870432,-4.567795663954996,4.716371247406556,-9.012979757212785,-14.93945952323734,-17.80514612911466,-25.98555175823141
-25.001330510343685,-17.23923745380862,-19.039245729551627,-24.185269014517,4.920936122026639,1.7080772092347882,3.31494321387558,-1.820917823502576,-6.347924999511029,-0.1305610790880607,-4.631319358500343,-16.520542040778878,-19.30472730280362,-29.15874132344773
-25.66227235919509,-17.11626256481525,-12.409636976698584,-21.59221946273764,-18.804660138701216,3.299315015896912,0.6330512907303145,-1.3230948587096307,-5.531298651254545,-3.393789669888669,2.182025411429024,-16.95031722726899,-15.185633761543542,-24.79986364507613
-19.5558424996105,-12.543263079576732,-1.0147721610807885,-9.549429447597367,-36.182651891050966,4.604307866715872,0.864771881312727,2.336815235316589,-1.4416870202127008,-2.868917317084378,8.091774068712473,-14.620255283940828,-6.401579891811227,-14.539899442025234
-10.04995986662815,-6.160624807215953,1.5834694937810023,5.148622429092242,-34.27572929903344,5.899902265191288,4.308115435152182,7.208052147351346,4.28793108865959,1.127073370688766,8.952426079193572,-9.466162848320655,3.059012883516065,-3.3605549317705226
-2.385160461790125,-1.1721461087031957,-5.694836692013856,13.689890993881004,-10.961978945263205,6.447675805847334,8.47894453015511,10.095441644501634,9.030309369484195,6.571507912134917,1.972493111905166,-3.7225660700714087,8.916791063094461,3.083392002209571
-0.9498537378650518,0.1969333629140353,-14.466181802551144,10.84858095539782,21.35000824726478,6.160274616256612,9.7550585762628,8.672350522825031,10.813406158050256,10.946082268120271,-9.33538342217532,-1.0236907049550767,9.10204538181674,1.315459727754588
-6.6879267294953735,-2.1756399968443176,-28.19781021625759,-1.5861817990848943,42.78559065245298,4.723015152397248,6.08712559044963,2.930813050003267,9.177060126845866,12.01465775780841,-24.722660597296255,-4.032759371945407,4.343992001795348,-8.358442954383701
-16.256949649847062,-6.1578405602513975,-33.0081444621194,-15.940783641272809,39.65562751197924,2.4156678507774725,-1.3498284414400643,-4.914424143856418,5.032960262071189,8.372283807775801,-32.12354749805992,-12.148425740101658,-2.973830283983789,-22.0682223969652
-23.864734626651664,-8.56393092661505,-27.14194551763281,-23.72118388833359,14.53627505104546,-0.9709353343150556,-8.930153119593863,-11.812116190122262,0.0101038717224906,0.2388011696067202,-24.820337410380557,-21.22395764414461,-10.309976822479754,-34.198844649624505
-24.876045453840163,-7.26646459051684,-21.40204301899078,-21.21586596245704,-15.314400718008477,-3.5004932043893726,-13.16303662707478,-15.503103953863304,-4.201491623078095,-9.853708327619556,-16.44915655261919,-25.94262017553361,-15.726682669602978,-39.97670208683294
-18.676781357007176,-2.802939434610927,-12.161760381122107,-11.68760040186569,-30.39735992634461,-5.028928830776722,-12.98272953080576,-15.382057059776614,-6.319031788686324,-17.563570706971667,-2.476604660667676,-23.333057422590294,-17.92779034470214,-37.58640756391642
-8.621091123312247,1.932506245850824,-6.887251542410598,-2.541248046899753,-22.870531313657203,-4.1356617432277245,-9.974043054388254,-12.304505589274484,-5.7701906922813535,-18.90556151109108,7.016756788377068,-14.759456411598372,-16.241794363347267,-28.679578181832323
0.7801678672724748,3.922259569013434,-7.230601548076125,0.3816429029207029,-1.3193441033788744,-0.0583310391898389,-6.6282335457353625,-7.80920466928022,-2.8418616068571296,-12.905190339400209,3.2329323839880857,-4.795230128566885,-10.926847833090662,-17.011305571697704
6.973026273035593,2.4742417436236366,-4.579370444748043,-3.045978156854183,16.894534252511015,4.200239280148796,-4.37226306412439,-3.428229193002032,1.390212853139964,-2.598717945406328,2.567493470782824,2.0877569936586298,-3.4748610010497103,-6.1876245927699
10.274465110979378,-0.186964300999314,-0.9184921154482296,-7.822715200970201,19.21720291437637,9.171198478560164,-3.046153762473544,-0.3539772948121893,5.396540768531857,6.747402749320109,-0.4369060106949161,4.328428828600544,3.669157872456111,1.8936822228476444
12.31753536110172,-0.7535654076416662,1.7513786888353322,-8.409368969934675,6.646827823659116,10.96727120525244,-1.9053810226546304,0.7432690254965095,7.724237144013223,11.014832060474106,-2.979397762051361,3.494043651883075,8.11113849330389,7.022801084987833
13.999742578139,2.4257909670682736,4.434059409332453,-3.3132657293888457,-8.643456368145905,8.683335928113067,-0.7626342452224364,-0.0228933725267239,7.5338048110379106,9.574670780227436,1.1609371608187076,2.1723403116905478,8.686125947629662,9.61707888729088
14.956090597664463,7.976934938180939,4.265172987304241,4.118850148771728,-13.911573401122707,6.082571141886929,0.0062938078890297,-1.5735926201448436,4.913183430140784,4.848297142802245,2.0817462711660792,1.7121822414243013,6.006242208153495,9.946520403399065
14.616140588493394,12.563816400888465,0.8694331795181255,9.004804043262865,-5.6619312489868605,1.9692427011229607,0.4263509770458569,-2.180282659930562,0.8183563247082688,-0.2062863581682279,3.506766005397332,1.7555419345951293,1.9847226417821704,8.349078403837026
13.205629645568855,13.401181704497844,-0.5832765865928081,9.100848183179046,8.74462443508606,-0.0145301306722285,1.519107181838237,-0.4055917705489378,-3.3512490715452543,-4.297923682395208,4.2902707434812415,1.5441706065229113,-1.3373666090802203,5.827305833897711
11.42217183683917,10.162823333325967,-0.5328071053102598,6.176589751668558,17.85491214266989,0.8389966761590917,4.560782215344887,3.828155386518461,-6.378399841832319,-7.94549153855408,2.723628216150443,1.2982649997307334,-2.885719618660815,3.897924824330417
9.328921297558791,4.917362681603976,0.6480516866609799,3.760300530705152,15.031268020575652,1.7879658452368052,9.552743366186933,8.875919766605392,-7.791073003994995,-11.972722241873235,2.984296014851981,2.137738313783529,-2.9232660314982155,3.4728671434419454
6.063116161744858,0.4004492439568423,4.104172855145978,3.730806916846632,2.665399511831908,3.921271762770034,14.50684333169336,12.180549675047828,-8.075673880311044,-16.193437619927174,0.956731603892416,4.711789635396713,-2.5874838926415578,3.885549028640895
1.000619194568202,-1.862410972235068,5.704677315050179,4.973761922201859,-10.489176811259084,4.986919992564196,16.561714745779042,11.87721402779816,-8.338500409408681,-19.498978138555977,0.6225139737473151,8.118114625802917,-2.9954483792201643,3.3507510004146326
-4.82341793982026,-2.190236965240061,5.552437880623056,5.055737888279197,-15.783960777447277,4.636961559466528,14.21292926523222,8.132371587081195,-9.476492556454858,-20.82617221310427,1.5993527563505598,10.404848072969555,-4.484633437758262,0.7629098795673883
-8.7910321234246,-1.898899669364667,5.2394703183481655,2.958463232179639,-10.056071877407971,4.803941987508983,8.748566206614484,3.21076046683892,-11.319276215486056,-19.69363409746351,-0.4031668836280305,10.304546945061958,-6.377463348704211,-2.8254457730471643
-8.569850605562351,-1.9050107365812323,3.8812950452663206,0.1202834259267007,3.017965643945942,4.906208880686807,3.520667880475685,0.0891744379628676,-12.42932685178002,-15.91912694468408,0.8962859049347318,8.536058452618931,-7.333890393657882,-4.670117976554138
-4.135698325598554,-2.013095739226628,5.672880805938505,-1.0883664169508904,15.484073341360656,4.1611259216110925,1.508796537688866,0.5052963349718311,-10.937796949966028,-9.417153050144009,3.98934028617898,7.365215634725757,-6.075697015815095,-2.544119823930302
2.0071465602800487,-1.400842710272343,10.99324150123962,0.2349003319647664,19.67256480568819,2.6829279825865133,3.1065986970394306,3.832676298481815,-5.986864117870397,-0.8439772564018,8.390585053124207,8.76682412283374,-2.099632210214793,3.3520951929308183
6.705332563019994,0.2825577594827848,14.697729195718535,2.688298992650786,12.493412135533276,-0.8834184803085819,5.893015492443041,7.627960820009051,1.3140665259120965,7.611518880494742,18.00670222209902,12.84897000167726,4.011256511995541,10.682930066072911
8.497506220821371,2.3431183776543065,17.609952013234906,4.07181997176275,-2.593622561554838,-6.858706986840716,6.5346568410164,9.425093352846815,8.31634655647997,12.834068872717111,28.166844022705646,17.9028407147716,10.881225091084886,17.219705034681027
8.460607398534925,3.6383354215098223,19.425650529146584,3.6867688168451167,-17.348921709108474,-10.448687277358587,3.2983405063414537,8.377509613718388,12.47920280872126,13.07946406707012,32.17478774816882,21.88510568953751,17.08854192447152,22.76012025780941
9.055080539340366,3.843402559992036,19.156387410320345,3.16298985208671,-23.894922394033596,-11.717990296352443,-2.740122798485736,5.539320111270342,13.023864990515136,10.032936337064555,31.88635315216679,23.881297234352857,21.888642407430936,28.73056936907531
12.1310466988768,4.12573763713003,22.48158675176772,5.030060075066331,-20.201499180939344,-11.51566174197694,-8.60761284003577,2.7765232735897385,11.322079345615144,8.17881526127811,29.30723564625509,24.31127376801254,25.4050682831778,35.89201226283601
17.647591985667702,6.340100857317012,29.37457135834252,10.348779853394165,-11.653030994668434,-8.634796880421723,-11.673075502339906,1.3807761953738478,9.74794161807629,11.327139622701928,22.019005007947285,23.956747205000653,28.14145242660673,42.63407851275429
23.752130281965137,11.215978443004026,30.36220765346817,17.500291923751988,-6.626739067961623,-7.956516944863056,-11.465259623747684,1.4555575655595518,9.91126349021691,19.15879221668524,18.132428457225416,22.954216480012747,30.16752943666785,45.82024076987202
27.81340871966475,17.099904795893785,26.003144453315667,23.070857894247503,-9.07749092553616,-9.536235675978782,-9.745262813198934,2.219650416011227,11.555759498220093,27.07411409345044,15.54622619868387,20.710862869179664,30.627320260766467,43.47751255451474
27.697062843139,20.62107936528936,18.79099336932865,24.02591422311025,-14.54521487723752,-10.9785435397399,-8.881705606646669,2.6123043106620827,12.80005122309054,29.68762864044577,7.97425740017811,16.6593719283919,28.05113055564286,36.61708860382205
22.824474794522743,19.120359469459554,6.640369905543946,19.576119089547596,-13.866958171011945,-13.383267744409656,-9.872701183553026,1.7057055711887443,11.451871878511646,24.857716918238232,2.7408357296464376,11.01394647201102,21.415693507797368,28.305985942836102
14.69417210335364,13.026231481243164,1.7981087953776536,11.66722109844718,-2.06981515608728,-12.919159048114617,-11.596776564357825,-0.982824467945747,6.5221142239583045,14.729237749334771,-1.4086720524448948,4.867588797966448,11.305855489189897,20.95946343725466
6.450838545329649,6.053396015763433,5.061174444196262,4.019483877123264,15.527403510459775,-9.149201684085734,-11.858419087430644,-5.062097348709813,-0.9761781026261644,3.301572626884443,-3.545569616118032,-0.3281418624446317,0.266717500142704,14.64546725199218
1.3163335423366291,2.640598760122753,6.901852204817085,0.2659546987090664,26.32823479801427,-5.910700676449328,-9.317475207940532,-9.03054613792391,-8.469357499582042,-6.689574695083,-0.8673324771038368,-3.4412509261130424,-8.22006333372235,8.016511985694713
0.5477202042499769,4.3853360237181285,10.136167993875658,1.975738604583654,20.846044254464356,-2.324415742876984,-4.657664790247566,-10.857272581481496,-13.341742017375047,-14.614298433496987,1.6067961603406755,-4.157335139707815,-11.780046598946312,0.6106261536064785
2.391730641258839,8.425141430424784,9.84593428137346,7.525664040563114,1.5231793432709644,0.0088658108040121,-0.0024638776321062,-9.372515448081456,-14.61157369445884,-20.382033771651983,-0.233988754844973,-3.196748412564592,-10.890527825659795,-6.159668575536383
3.1718211541938004,9.47164755967424,4.492880425452549,12.722150744888268,-18.15599533150188,0.3686675449801271,2.89369735947852,-5.3940720395883766,-13.528318001251751,-22.929355794604515,-7.180101045038918,-2.140000174099363,-8.843921985047992,-10.423183694551764
0.0204199995260907,4.197245492893648,0.0037283532056078,13.242068293153082,-23.898700759370783,2.8019260267648303,4.072497693064832,-1.3488146835048411,-12.487448125617115,-20.82931185739361,-16.01727276698008,-2.7084500343956943,-9.55426976595734,-11.983251898180184
-6.830734348960217,-5.64131909244337,-5.139974194064495,7.520876193807521,-11.505069453574423,6.905334386190369,5.1382534516687,0.5690267566527805,-13.02246111779606,-14.37567960805517,-26.748321302584397,-5.678352073714075,-14.596895565999446,-12.643679542622468
-14.194698221537513,-14.278430020088424,-8.29384088081676,-2.0787471926138767,10.571476229848956,8.532027010237158,7.564579989759009,0.1087776724067648,-14.579015828797283,-6.598216021530508,-31.28386823372464,-10.16043530604048,-21.80583430409548,-14.255734800262196
-18.48897982392758,-16.614887952474714,-8.458624192951593,-10.943280443485968,28.327799859997864,8.128118188202954,11.08570551482694,-1.127977183694837,-15.217986258311594,-1.6562231570366466,-25.60614736326901,-14.022441197759214,-26.75254218920925,-16.632208723998332
-18.502017004302854,-12.483130593770008,-7.826372377759811,-15.49553403787634,32.19347266044585,7.232192169770447,13.697145836523132,-1.5240133017881885,-13.599237549988365,-1.7980281747565812,-18.732643673762997,-15.384558237865892,-26.060937079485004,-17.682017421491274
-15.930211054174258,-6.553798597664317,-5.380288397049871,-15.338318277327192,21.93806914024596,5.07432710616323,13.359342925468033,-1.1486751685134644,-10.27558978757423,-5.622081376566214,-7.187936619177602,-14.037269115981736,-19.83903657959854,-15.666968928508494
-13.333783184499977,-3.8272574350541344,-4.774476403460749,-12.512487242679535,4.334455949870472,3.6270698025984167,9.892269164142036,-1.5216794746000764,-6.950321801129324,-9.179272077195208,1.716204643891305,-11.501051580962892,-11.208154157233984,-11.117538104598472
-11.597713470681864,-4.903277478176899,-6.374566034759329,-8.89514304394492,-12.381242785441824,3.1068020418077884,5.259685769535041,-3.671817344827922,-4.463557837254527,-8.857202863014933,2.0868570950696745,-9.63017857508778,-3.509804509863465,-6.330791897528641
-9.38965236342928,-5.60863621693463,-6.506567759888203,-4.543768293704421,-22.304970912625286,-0.7701493637168728,1.8485545626702056,-6.615176024232163,-1.7218508745107242,-3.600606133446861,4.77488563681742,-9.074968487449455,2.14400088577228,-3.073392420820665
-5.062817158573006,-1.4337268710373756,-5.9799067952701614,1.325770660394081,-22.707707423847104,-7.802952276378296,0.2527309418625982,-8.035179574445468,3.080649091142151,4.9990514481197,6.229526117028541,-9.070270751438796,6.785534324432557,-1.102619206850166
1.0008322892108517,7.517209016714569,-6.691891048980015,7.979362573960296,-13.914852568970955,-10.177109329578984,-1.320164780094533,-6.627454134023035,10.039430485243956,14.16909513963045,5.866616537432416,-8.657441222266765,11.36769065954391,0.8451808271994761
6.03951481678455,15.98012250532729,-8.28485506314407,12.339791670395716,0.4430479328865431,-8.166346806130806,-5.297392307947533,-3.684047063717664,16.49884216726276,21.403741503151878,5.513162170718242,-7.950194215696637,14.924731502208967,2.798348033276975
7.006233150122082,18.058785459404373,-13.284868398281464,11.121339092934369,14.02047531944939,-3.6477179727006286,-12.130960374410218,-2.1098845549769827,18.83343921865576,25.056851851474416,1.7331199689838412,-8.026587758784343,15.166375305829098,2.781911735621751
3.177924814205582,12.538897542818727,-22.317829953454364,4.127118016398189,20.69757943148246,5.232498825945977,-19.265133328938035,-3.645163885702541,15.69320256327824,24.47559710821684,-3.755878255032355,-9.537690682320662,10.969952797042184,-1.2535862531331503
-3.1297806778476414,3.944350863303626,-24.83292362751483,-4.677662399214082,18.563077692171085,7.015710032436085,-22.802268492589235,-6.984589286198444,9.676483691775283,20.272486137429446,-7.004866910422177,-11.578459494627069,4.18096097097829,-8.660376450901426
-8.360140058277928,-1.562728927687839,-20.793813630585174,-9.83608727926585,11.251588677240592,1.0401573625019953,-20.559766328004585,-8.722787624051966,5.606166044791774,14.464365576274552,-4.159089174433932,-12.17149695043624,-1.3037129073973652,-15.580985344088264
-10.38750976992404,-1.456830673419411,-14.002114423438725,-8.71417931151846,4.615638698215385,-5.189316922968472,-13.906949305883042,-6.33746453063079,6.664283962332217,9.672288506628409,0.6681603808195813,-10.0291950153921,-2.556735931607616,-17.73176183084786
-9.786592104546376,1.561529735827822,-1.895211730690112,-3.579691216591968,1.3756957458331378,-14.409212770532834,-6.800991753752044,-0.4525640417460579,11.7036772746995,7.387627900482691,5.453284899763733,-5.853648975853723,-0.0334939994842535,-14.125085547279326
-8.821536401374477,2.759993532044934,2.9997397500648395,0.5084080118807677,-0.9737746624961758,-17.04590179380164,-2.8345923353280256,5.666896418406168,16.139350358472395,6.698339387061019,8.563754011305836,-1.8148410751620505,2.842934246086351,-8.14908082270814
-9.28889246559536,-0.0759815844167555,-0.2107316637253638,0.0936013815204077,-6.556593406670082,-11.59823809999398,-2.7122643142639937,8.814430367748557,15.711706661733066,5.012827691535023,5.172696051434764,0.3330714560699626,2.5589319707000016,-4.767722510818079
-11.16631189329494,-5.107578430563944,-2.3064004597596317,-3.9956252925005415,-15.293459685117757,-6.576580582652526,-4.082474765796999,8.224590395536357,9.904581422847668,0.5628125383210438,-0.6431782830511863,0.6627404093834564,-1.715607673275546,-6.304751908802
-13.075263930691673,-9.021970442127866,-6.246727283382571,-7.981921052608413,-21.19336499854126,0.5610174008319146,-3.670942885076261,5.650954032167245,2.139684660379622,-5.566083035931161,-6.1088096704680295,0.6761021907526974,-7.802427065442309,-10.67363197387352
-13.851116684266891,-10.771794794647878,-6.576662529506518,-8.987537954972588,-17.343601849002475,4.931696443918065,0.0851066099663775,3.4375222572944324,-3.269249453312128,-10.086100517745052,-9.800184309423312,1.613157178667489,-12.659438884594852,-13.58896379120882
-13.595047771573071,-12.586581768126347,-1.875243542903872,-7.626295030941126,-3.209224773791973,5.1625060659499225,5.917646876185842,2.6071603755214525,-4.61059181778101,-10.54881162719652,-11.119036802303366,3.2619361483887275,-14.834997587848347,-12.52566962865486
-13.227616332572609,-17.265281349209708,0.2455570036079787,-6.976835058155569,13.180802022837147,6.414061091721863,10.859072605837614,2.613825750659202,-3.6834080111715473,-7.912275372351623,-11.518833412316845,4.450755764727102,-15.035323250116864,-8.682078925554286
-13.123975873090227,-24.534706892938416,1.2079395923158844,-9.171997559670114,21.083197916555942,7.180650442825257,12.636017888565522,2.5513307367535383,-3.566753193344791,-5.937192246368486,-11.147761103338476,4.572051568641978,-14.6076945197021,-5.3516577427887775
-12.38096626277362,-30.262084023057053,1.3118870435158985,-13.08453430052018,15.943106237850778,7.167752579411577,11.406727021160968,2.260087044298686,-5.565768059472113,-7.756658674113527,-12.225712971655287,4.381153138714161,-13.751655220368496,-4.634031361647278
-9.653073660943193,-29.61616757791844,-0.6721812170556326,-15.35384418207681,3.050461221797285,6.871906904752756,9.435475436473574,2.170782637074552,-8.234679873800921,-12.881687503301595,-10.274505217060696,5.114293639225814,-11.358781853359062,-5.778610095843121
-4.822280151399347,-21.44836112169343,-1.327910528819319,-13.631825325763405,-7.463433203404357,7.707227081569069,8.947698702309175,2.270072435358756,-9.206602946023406,-17.61875806164396,-5.723349800729029,6.83920621177834,-6.566910538705493,-6.476207724110342
0.2978169517644637,-9.83225175095171,-0.8552836089687907,-8.80513645020157,-9.379313516432196,9.950517235667617,9.98002787470818,1.5709247790006202,-7.809079271380236,-18.52423365357538,-2.759067738734794,7.900374998727891,-0.2888734802195678,-5.367798898665527
3.250356303714316,-1.1502573980476392,-0.2986521108677292,-4.091979041757611,-4.628090837216451,11.268106341552675,10.188350963604648,-1.0916086143694097,-5.791429353902844,-15.47760706823878,2.6820997174728314,6.280334935563811,5.017173687370011,-3.092703758814949
3.230032501218321,0.8720547683101287,1.022961566339195,-2.0395492113913605,0.3411753011252187,11.99748937751676,6.964250816063158,-5.607850327886688,-5.489151779999151,-11.365381992307478,5.283958782931435,1.699810716021645,7.266143498133275,-1.0775855120327478
2.156386307053808,-2.099116499721923,1.8604613760130615,-2.3977102956005467,1.5126225020999495,10.016541335449675,0.1007879642379343,-10.003500351653688,-7.32508869311647,-8.826406910222584,4.845341254565785,-3.619515976739578,6.559915391024827,0.2900604305342469
3.2522003317331745,-4.8083560640273895,2.1712742414271875,-2.7892284689279894,0.3266110910905588,4.656902102627659,-7.430102029354675,-11.539778497242937,-9.144416250449666,-7.471331509518663,8.677577992125027,-6.426844418951102,5.190243401992365,2.0581893827549607
8.231232523146831,-3.048223067351044,3.194011969114837,-1.269092760625849,0.4458059367675471,2.954589010454725,-11.474422110033911,-8.727168499590205,-8.022321000202654,-4.438632364117677,10.167569491789926,-4.92916372602641,5.861736958467287,5.431025077304216
15.653323885949945,2.9460495696068243,4.712545389374706,1.8481216040928263,2.750686370867907,4.672411066742189,-9.879871088407704,-2.5302189533610537,-2.829080749960019,2.303574188729229,11.152579034463196,-0.1118532740863091,9.746406380357174,10.371202355116893
21.988974500446528,9.092472057724546,6.454856979478794,4.530409869128423,4.390848431993204,6.430757037852553,-4.17105591265817,4.302711342725734,4.738882288237727,11.2979589014081,15.625174698311584,5.178205295978334,15.894223760530403,15.526150899038376
24.383315012898013,11.148683817715291,8.615445845182826,5.102263428305456,2.5819651343444434,9.69099547202896,1.6660532079978785,9.188131516431037,11.402509339896318,18.30834344298091,15.752991675055751,8.419210588730927,22.09448618852527,19.293986350900703
22.55781052177525,8.040655605164165,8.037632165399568,3.61925888034201,-1.650484761996042,9.404656202082665,4.189477107766903,11.257744587703584,14.56537439026758,19.77097061451078,15.97035370437879,8.930578115027142,26.12782528733189,20.72500559713009
18.265407923099676,2.1172151611588017,4.421116527669059,1.3001974918798496,-4.288928517901551,4.925871906879525,2.82344233433378,11.342238013394418,13.762915757044969,15.730185816904026,17.34990905907127,7.672807709305511,26.518620506344455,19.506223511644983
13.179957127622846,-3.3553966901831904,-0.0920320013000983,-1.0611836436901465,-2.7783153989219658,1.972347931271625,-0.1372762397599984,10.75883099140954,10.50098553672963,9.63348058958199,14.661093789913036,5.976459890266977,22.826645314235225,15.584247186344932
7.511327651841026,-6.806373320335563,-6.329842651328872,-3.7879203063794407,1.0038153814608703,-0.5858046531965251,-1.4722519591758143,10.253089144949696,7.0563612961636455,5.446248902944323,13.480744415613731,4.5773708552897325,15.91275927569237,9.322368429969924
0.6791546196906193,-8.800451858271588,-8.778130016240516,-7.330833543951577,2.701341407467635,-2.1277046523517904,0.7662623308261098,10.009593667087634,5.278921761700291,4.855102776887456,12.10922293898638,3.6512250771491694,8.059033492780943,2.1086992929941286
-6.911016808426519,-10.418224059218344,-6.754022271899916,-10.840783142736765,0.2056698251533788,-1.6584041853477391,6.208570355765257,10.288767681197312,5.926126696240347,6.822333834661282,8.65273980197395,3.3144621219385577,2.3003632105357044,-3.655320638520685
-13.129521673305042,-11.616844043721349,-3.9651627215287344,-12.19246355123849,-4.09386577676474,-2.302230492416054,12.548228651832542,11.579320791006293,8.465572025630177,9.22662763491883,6.958374935006493,3.738232525996085,0.7869872076770061,-5.844514200098064
-15.460833667970713,-11.300274794263093,1.1062175673713446,-9.84305184057747,-6.008760687056639,-3.6909952773022967,16.80072661761251,13.884121160125932,11.235255491876304,10.557035133591684,3.341628104746329,4.772130668937399,3.1782536530426566,-4.3198448780865855
-13.246191968078833,-8.845361282014546,3.865782818758786,-4.777764587160313,-4.203719041951175,-3.874543206687577,16.780896243421097,16.003653933553693,12.09536196994219,10.22989178733664,0.0758841766453809,5.741791284333845,6.585014194559122,-1.3309486296958082
-8.605420463750345,-5.297448176455184,3.696810189324296,-0.3546393723731811,-1.6851099678522985,-3.2734936543284183,12.264809463230293,15.94219735626788,9.595823333943969,7.98973613959628,-0.0002914562580037,5.898306971336098,7.535844901050851,0.1389936761369927
-4.976360510526787,-2.852686091675084,3.04258109585738,0.2348852031479387,-2.474988546951097,-2.7115790999299234,5.287768068489416,12.433563585906494,4.106729378529092,3.747146901763915,-1.53257115270473,5.1150355307874005,4.6116876414104855,-1.1684959003347335
-4.432549461270902,-3.0321609784614654,0.582873388258553,-3.270738989787519,-7.068929643714103,-1.9490662358106825,-0.8568550156732311,6.248501401917217,-2.0435714561341016,-1.7809941360434127,-1.672140182961671,3.988716833617613,-0.4296532453287622,-3.747551845487639
-6.081841375867769,-5.281109010538878,0.9591840109876528,-7.803068620679645,-11.589213418865738,-1.3619392413653653,-3.609183785880591,-0.0557152646570102,-5.8612826444684645,-6.66168018045988,-0.5508957514785017,3.141296137836288,-4.070993826539256,-4.705007808457586
-6.865313141386129,-7.289635557799063,4.553849288540032,-9.403956183296684,-11.613528673655878,-1.1027703490235086,-2.86190902120629,-3.869025929377152,-5.667907347178047,-8.592131962033914,-2.04421286907004,2.506582889412313,-3.839934435813898,-2.2837111091628524
-4.00817380725084,-6.692610097154472,9.592800244535123,-6.334221968316379,-6.731473802078477,-0.751036352569614,-0.953289623376362,-4.276568001023415,-2.2420766193409447,-6.554406763272794,-2.25888015209822,1.4945591427684866,-0.1434019875395034,2.7805743995910417
2.871989450590295,-2.642130444541033,17.35379068167374,-0.129923423620875,-1.1102327310146718,-0.4449934779294673,-0.6658294641354976,-2.3951550231771543,1.8716535587398155,-1.674129753691573,-1.2532186409521011,-0.089747758032364,4.304064999064382,8.142914015526992
11.476759712777357,3.8973590282284016,18.4493895089513,6.073944668143936,0.5479342409701129,-1.2810024309199817,-2.7427947463001328,-0.2309500823670198,4.3403510004171215,3.668155961351112,-2.7087847668150893,-1.4811173873352468,6.747652718184778,11.842448426299232
18.295028940609143,10.987906157728643,12.161623096528109,10.111822598847832,-2.370013163463323,-3.339727902533321,-5.1264859888323935,0.7764962400497959,4.6153769539051055,7.616789528481703,-4.012245140632031,-1.5725615279413283,6.296300972501729,13.39359618451233
20.634199298105138,16.737398315645784,5.571576750765921,11.89267078293477,-5.712693942527981,-1.995727990472624,-4.800423235470772,0.3741600163689291,3.8017787908394896,9.746622240314371,-4.440794348266836,-0.1927247881804117,4.028485406757421,13.21620595727251
17.97327329292869,19.872005111961,-3.5779747419082675,12.457978424646017,-4.437519587663399,2.8669480735220807,-0.7645660760462807,-0.8889929750304244,3.135550050297126,10.373003243300955,-7.1911999217421245,1.3674198096528745,1.6532343829605676,11.509014144441007
12.040586575148511,19.99070856020977,-8.183229333002807,12.428463757951167,2.6501409574283343,4.71575025937702,4.5511738732544345,-2.4048250188655684,2.640223848377172,9.346167905338602,-8.20472060012135,1.3079502823547653,0.1882057339808067,8.052208472816204
5.704392542993947,17.768808924766834,-6.845467346513653,11.516380105127938,11.564981539809528,4.239218921736767,6.937143818053163,-3.9533950372723687,1.231615655048966,5.905537610684936,-6.0568841702057785,-1.0852938049633636,-0.3799043232219272,3.03481066637765
1.289447605354658,14.865524540426309,-9.094319990821813,9.307012854742249,16.231925730992494,-2.7842328983765685,3.886159029601825,-5.685898548887489,-1.9779144459245863,-0.1910564710401292,-5.311721785422566,-4.769820594418439,-0.7487018893208912,-2.4023218468434866
-0.6846964251794638,13.112037249178051,-13.222493988156051,6.151635310516327,13.2404279971916,-18.225026716754886,-3.074922756184238,-7.778715273172301,-6.562620075236945,-7.62002022162018,-2.984810545496679,-7.790571540996255,-1.957853727956932,-6.808562265880502
-1.4388599040924035,13.2487188711706,-14.340529834586809,3.130075804868655,4.448940361155605,-24.006935097260268,-9.379409612527724,-10.026889660565832,-10.9506086359523,-13.880790141879068,-2.582380871311678,-8.745745454813624,-5.141422817607094,-9.600461123431668
-2.5191854123616864,14.30529801506301,-13.58238652157956,1.2440146981323092,-4.39543062436855,-20.48958431479612,-11.052241039781444,-11.717938624109486,-13.64356055221925,-16.907321246897137,-9.054380128793564,-7.569004552448099,-10.928677631797797,-11.345070485084529
-4.222828314832302,14.447825691160666,-9.718929223004118,0.7945541904173723,-7.80959788088599,-12.77713311921672,-7.889877955447945,-12.05786419037749,-14.299421258803545,-16.388302680874215,-16.400091252160852,-5.254739373250713,-18.582866150453373,-12.787217363302096
-5.380530997565837,12.695603182971144,-1.8191952444202628,1.489186451301881,-4.463009713753674,3.388531231834814,-3.4014077371882507,-10.968618938868108,-13.776610739096146,-13.693340456853562,-25.57139109244505,-3.170027460565125,-25.904983670950905,-13.872755605172603
