AF3,F7,F3,FC5,T7,P7,O1,O2,P8,T8,FC6,F4,F8,AF4
-1.5007819178475186,1.7630936036533336,-0.8438507803320967,-5.5464765966806135,0.4990621762163162,1.4301092213257052,0.0772443245090196,-1.8287868323539025,-1.2442851680233211,5.155462728829882,-0.5795062004805356,-7.794219545272142,-3.204390824802644,-1.8615350137585869
0.5569911149548796,0.7046755719160043,0.353977792163437,-0.6751679603965672,1.236213566353842,1.0072493519172043,2.3059755163138256,-7.277892236745776,0.1423845258036635,5.2059476052727724,-1.877372325239119,-7.854293493262619,-4.394219355005316,-1.3981019251325064
1.2801677462898102,1.9060598731509768,2.2788197842130504,9.105706396727808,2.9088632449474447,1.666394756123883,5.339721572167328,-10.374993972306966,2.759162589559086,5.29921342269996,-1.27816397349856,-5.862494589968343,-1.4014285087122147,0.1461870692031507
0.8643983221364897,3.437670485468429,3.0393912579604536,11.043252993052102,3.34174627318241,1.6797806278388856,7.634364029159165,-9.947277505024594,4.868778448145928,4.9921531455887695,-0.2738348789077952,-5.4410099763654936,4.712173936553786,1.7611544760209874
-0.6969847771667161,2.860738016794657,1.6504126876139602,5.169878784783372,2.719958623435601,0.8165071712081567,5.853809542714358,-7.174251955082191,4.8869958182875735,3.7534873911492177,-2.0991642755246187,-5.576747413248919,10.343072047753154,0.8856658491330669
-0.3298590021841897,1.7460461434177967,0.4436742820011837,-0.3808447037371723,1.1049174441710718,-0.3726200451250836,4.018155504273173,-4.632167260220939,2.504166204121841,1.4383325579041184,-2.097649383073144,-6.994363647229325,11.99812332760865,1.3312306307387876
0.7975356463770557,-2.6679372873634906,-1.7127106860854724,-8.291078469262127,-2.010696945001765,-2.45119734845693,1.6067076571063112,-4.28180479220492,-1.090183408197568,-1.510073810154445,-2.237750036151753,-10.255375454590087,8.947409961375175,0.767096959530819
0.6995392514791849,-7.185532334064947,-3.704946506629805,-10.5806604094531,-3.577622415630544,-3.4733130687300453,-1.145211125321926,-6.018409821586808,-3.992422842877719,-4.2384505858542525,-3.6909280687731374,-10.315720048416152,3.6180462087186704,-0.8163705624688777
0.1763962645751112,-6.610568291552065,-3.337694993823148,-5.673032933273593,-3.5455786262973703,-2.38668134632571,-0.9413081922747154,-7.9294223811917135,-4.768644005286284,-5.844626307062413,-2.8363395720712146,-7.133290575501022,-0.5633685318036505,-0.5541071678834965
-0.7108583560449563,-4.489391258756185,-2.468830779200054,-3.739799270547284,-3.047475724341977,-1.6832489378416502,-1.1707955859062176,-8.012414965662472,-3.256018041289422,-5.744098271458199,-2.2297132805132254,-2.756343324787903,-1.9182259591987252,-0.7244709676506973
-0.3792632242168739,0.1465536508008378,0.0980627906348994,-2.811840211278618,-1.3385501039135912,-0.0334132006001923,-2.1812510998297228,-5.920480436097684,-0.5533385385026861,-3.9773816443116914,-2.494440474828997,4.018523932253509,-1.4225617550264609,-0.0481289560219552
1.5576910247627456,5.008229274847161,3.419120204422301,-0.6867942368704356,-0.3236729898601287,1.7893268467986203,-1.140339676268581,-3.269448128391531,1.729319951258418,-1.3185762416624662,0.0264730831201103,7.955902976333939,-1.1034672418487332,1.2573864914624997
2.7391243975416346,4.756770787688317,3.9398266461977935,1.2020768989322477,-0.0898874931768472,1.6902920382469702,-0.2641331631363186,-2.217272612150829,2.512262355121969,1.0662697401930077,2.8294081841968968,8.630164221595223,-1.6137290429291582,0.703078320841771
1.673065435060532,2.398445133259127,2.1275676998079147,3.762828815567869,-0.7735359631539209,1.4150157003161934,0.7484553384438537,-3.496971816486095,1.9605726931362923,2.407263964086969,5.417270132163156,8.082288919864721,-1.4214611721289856,0.2130518252038521
-1.4016418665362638,-0.6066210556102545,-1.4176830139342085,6.980353192832422,-2.938801542133371,0.100577066898482,4.144764279378787,-5.626281053101895,1.361806790583433,2.99929131199751,10.940970104735548,4.86519969953755,1.5297849406306805,-0.8122574969886553
-4.134606438241096,-3.2584925134519884,-4.564207713967375,7.080882806558567,-3.4448715663249736,-1.5978152930362943,4.709608826068663,-6.099771547552361,2.13355138875529,3.9819571933360822,12.664191168158665,3.35575300293388,7.271804205209072,-1.9196922455746144
-4.039716562961958,-2.1649194115882704,-3.689929200214864,3.8563546308985246,-2.3325098932448896,-1.21118552466284,2.7064170740321507,-3.6520238568270926,4.591609016347999,6.138706403525696,10.500269148484556,3.732545992611648,12.934162566659712,-1.0247471394387666
-1.0932672527743148,1.7702143239940291,0.9658634906451896,3.466074425027525,0.1739563542370871,0.4980422410961727,1.9682155485370123,0.3698637324492679,7.448941145459024,8.71511019084716,9.763103939024065,4.583315619102922,14.629020724092836,0.1523365146863149
2.622453167500108,4.896062654685108,6.242859067697368,5.365238287481209,4.883972828894734,2.856966731067029,-1.7163150790127122,2.859358602635826,8.583198449708085,9.577478026046547,4.868903146086771,7.026728423596028,10.60168219228818,2.1387821101948057
4.503462766232604,5.544858445313151,8.27849900197775,4.981484278033446,6.512021832760007,4.083733426376754,-3.601885964631939,1.4686793566421912,6.594713096569254,6.947990911954129,0.7092323029067985,6.46758822664839,2.860467915774313,3.8052616535397688
3.373218998798853,3.3136066519207787,5.253132725852041,3.253017257275335,4.910859008701121,2.5054974945171704,-1.4956978960174283,-3.3019048332868906,1.9266162215398064,1.2998062153159855,0.0989731430479726,2.682660272231613,-4.24710921331058,3.028439298350926
0.2123031227486165,-1.344798168860844,-0.7363383962646893,-0.3908007272091297,3.5471205938731165,-0.2570502963644641,-1.7240152972363902,-8.288541144149628,-3.4089149623747854,-4.5171882556724725,-4.409764254596972,-1.468973318596014,-7.374965365251146,1.034648103207765
-2.329426215579014,-4.360656172723651,-5.772526637312585,-6.782302195666984,1.247056731234398,-2.7726156868032272,0.073729504372546,-10.057254746257744,-7.295093246480009,-7.411859295836175,-8.046922544399255,-7.058916774270285,-6.636858335779042,-2.470579931283877
-3.083403536297438,-3.903539539925276,-6.869865863739712,-7.051723167215142,1.0206636157540996,-3.346170457855051,2.521141514306916,-7.53139430371125,-8.930921079284717,-6.716519582758657,-8.647666867287269,-8.658143414641554,-5.184247330497184,-5.062718306603259
-2.30767180164099,-2.282005548696409,-4.60435634198596,-0.87783312219359,3.4747707772340446,-1.711643916812629,1.546304181312626,-2.668124649045472,-9.037603016923129,-4.84594050725592,-9.97160362897305,-5.526629825907521,-6.365002203197633,-4.231641241673645
-0.4140967647550195,-1.2738094591654523,-2.343566307856197,1.9055590211365387,4.0257857950314655,-0.6751981580046101,2.706147887306773,1.314454130657765,-8.80271501008007,-5.08251891814701,-9.016914204305335,-3.78699021903012,-10.852856175029492,-1.872996733485276
0.0513614995488259,-3.2131950807228096,-2.525379741916865,2.921222783931793,3.339027584395956,-1.0047886013738403,4.15699624167379,2.590962686443481,-8.641502910448146,-8.361490706472757,-5.700806017870036,-2.1725483151613574,-15.994915104551565,1.489056011119982
-0.398854249638548,-5.653610404251894,-3.296458223233949,2.6999701158044163,3.046278505837427,-1.7092455419757688,3.318250638248205,2.0375929737170075,-7.932535257934043,-12.09649314011477,-4.630580114804028,-0.5683640796882177,-17.76245136973101,3.6897507161125622
-0.259887525389157,-4.589969399771429,-2.4359316686198267,-0.523964798707498,2.4360910368231106,-1.8140486059420828,4.394767835575473,2.221694895581993,-5.878692176216336,-12.348215128555674,-3.20403873279394,0.0750270358633211,-13.7566309560929,2.478830272399895
-0.7877409509401985,-0.7258064234000783,-0.3184078375833426,1.895418571091744,3.467772501942111,0.1446588680854585,5.2198474434923705,5.070010595908927,-2.562451436419797,-7.498245876176931,0.3057590746652814,3.0398605165491666,-5.117727702032967,0.4611408467841702
0.5176753579174171,6.415731784539249,4.660135338258732,10.064656716157064,6.425939207848902,3.982025467498147,4.060818884801109,10.205659101644256,0.8576711875702365,-0.039110173874846,2.5050566975179294,8.212394997948754,3.9328799162208554,-0.7839584948614183
2.508525121035426,10.619608765310216,7.984268204508776,11.942923430910994,6.714537636933395,5.704330614285968,4.275132614384593,15.228901859273222,2.979770441594079,5.2853035412379645,4.583177197700273,9.85007155758057,8.63140218612536,-1.1255567919795488
2.5347229739226718,7.446517091577758,6.369008592044327,8.697613230443201,4.540135587620855,3.4972399492821906,2.8587712197920334,17.55656992847726,3.2211557156507205,5.421054808829442,5.989877154228424,8.174644725588935,6.744623404271189,-0.031980212406667
2.937976254100472,3.088015717603166,4.9191044331745,4.409131584797279,1.5415771808316403,-0.2678796530690719,-0.5893991446787967,16.26956164178902,2.1764986263099284,1.5471127847239314,5.382810045185648,6.71083194894155,0.2524327262433949,0.966880973152602
1.629342510590996,-2.3890318690896315,1.4563233055236813,-3.2121016864353047,-3.271819229299348,-5.315001196448257,-2.593145211996053,12.593149696136912,1.0582943447501751,-1.9816544929430755,4.940969606335223,4.330539627176822,-5.601554155661014,-0.0762731686275244
-0.8244359403534492,-5.303194099222042,-2.4275803901669213,-4.736226863056289,-5.333504133031159,-7.256672423662109,-4.802623247753687,8.823948926289145,0.7950990415317573,-1.2849483814677325,4.715910569259573,2.929091292606198,-5.609021356777878,-1.597032142265991
-1.3381447163565592,-2.28342912912243,-2.6107610143597424,0.7007771392221206,-4.268870449742825,-3.708506622204176,-5.624613868326947,6.666139434401186,1.5099282652967922,3.957494807176544,4.216663091319959,3.0579002690410286,1.6861326232157816,-1.8341721823677144
-1.260839815945365,-0.6402862996700294,-2.956628594948622,1.9088598390565292,-3.737297196512916,-0.0469449796265628,-4.447618201408883,6.223408465013891,2.636038346426773,10.429601981533832,3.5220728856055814,1.6231667230445606,12.460533190851043,-1.239228090765114
0.0535868219754342,-0.1882260382748016,-2.2055500266935804,0.7709673469628913,-2.6653780829837705,4.057116962644747,-4.311287899924363,6.26555114765629,3.413421823015369,13.873969376847551,2.098402780291426,-0.8988774845516094,19.766358035185448,1.2536946391555412
1.5304106677533276,0.175210425713313,0.547039229348276,-0.8692881144287876,-2.494397149218233,6.014665792548099,-3.375346259089796,5.428962016512801,3.375970751335948,12.184446134259645,1.970374147900668,-1.382523853108066,18.31336634967307,3.5185060848204714
0.6276598060444245,-1.228585633271968,1.4018565748392469,-4.8499332440434495,-3.7705943190517712,3.1696353740920813,-1.660824501463037,3.406895617244861,2.5982800418776506,6.591523694094749,3.3082957211474877,-0.0776020221573672,8.556654433713213,2.754370520051025
-1.691815967186023,-1.1799642261395686,-0.0900423469092575,-5.666920970998,-4.04299655895303,1.1587905352489758,-0.6439528261279756,1.264133123944796,1.6360776653067886,0.4429805185077491,4.633676550281512,0.9327727318344424,-3.215969983161859,0.8643414386699912
-4.568000907817618,-0.0225607194231812,-2.113405903549649,-3.1978157950785357,-3.726102931270606,-0.8357365047946836,2.2428332598527634,0.6572862016856806,1.181195324325942,-3.144016628042759,7.582877977985534,2.191100042785564,-9.30874982097209,-1.7953736957385265
-5.101386279583566,0.370141256568527,-3.5536791286248666,-2.304131114414524,-3.6553181567242663,-2.4313108733025595,3.4938963342706724,2.522306275741066,1.572823290895644,-3.041508242613217,7.88786258358753,2.093502616275317,-6.382309039647909,-3.352566915978637
-1.7651585721205196,0.6756652030876585,-2.566557294626824,-1.9558090480218064,-3.490086262308177,-1.1150547308863938,1.2448826486645688,6.19136694803496,2.475794266112296,-0.3794422375769013,4.544165459230619,0.1879999364776301,2.0726791422165918,-1.8588298840862227
2.0939524700677827,0.8566755454644447,2.0444413765979093,-0.8338168489653022,-3.6441206050489727,-0.7016550371714502,-0.4775291859155872,9.630230007394394,3.0239216016071486,2.4589872464645994,2.0881430463213357,-1.1485891987541728,8.753498124290559,0.217696021237983
5.8970603255216725,1.2466636239658695,6.559476443589526,0.4259243970174794,-4.219369723733246,-0.4603181189713557,-4.220676866902027,10.683521855090872,2.400705730294174,3.276562604871918,-3.053078508371991,-2.354704855463628,8.638441614416122,1.8848018981059629
5.944973342364656,1.2855824623992531,6.351642896430544,0.2427252154411323,-4.345091408493997,0.5610136717482522,-6.844509936696001,8.459864488991858,0.4361624573012204,1.122763922767998,-7.27539105740925,-3.84262855766587,2.9388141014948177,2.0321641299572346
1.1458353758040292,0.2884958115983596,1.6597014792721008,-1.4911218727898623,-4.09028187733505,0.3541627385526982,-5.360652951230303,3.878904929762911,-2.249748731286422,-3.434775879217627,-7.289313235481957,-5.258387757050204,-2.523445176951511,0.1819480597421717
-1.927034009829077,-1.0071590973321474,-4.651685436956971,-5.396263249981957,-3.935228982713191,0.0725579948541202,-4.794976070215483,-0.949220119487542,-4.63273927787921,-8.765546507049082,-9.144239521286073,-6.166200630755683,-2.938014630880141,-1.177694581204772
-5.028153690848693,-3.309540090685551,-10.678082351367555,-12.071020085981198,-3.728961729633936,-0.3181532072344477,-3.1987345774054634,-3.974942619311332,-5.837028187603464,-12.967996140960034,-10.141457992467126,-6.455239612435004,1.1092937487524654,-1.7059477988645837
-5.661292684213607,-4.263832006878042,-10.611272188735006,-14.504792947810222,-3.436393076711928,-1.122623617955442,-0.970150428498552,-4.194721471380886,-5.447440499599233,-14.5676579135058,-7.765646665069603,-5.219818406945982,4.518222811717888,-1.2089840666101614
-1.5358276893665972,-2.2836618294903777,-3.781535529777599,-12.496404703047697,-3.1058153805827176,-1.0383310206909746,0.0328553790350419,-1.8645300259408175,-3.5168216269500565,-12.915215899716356,-4.840257962192805,-2.164882588662268,2.8420808027732427,0.2701752747701101
-0.7192436205834017,-0.4116115243258154,1.548856124459684,-9.259113942909964,-1.6515784388752053,0.0856637068522957,2.4036342838057574,1.8819975476747963,-0.491987447640847,-8.343632568747495,-0.0517568545041972,1.0936257675041867,-3.260353988176245,0.4297004714927154
0.9307898252065644,2.722881327105425,7.311746004956964,-3.0683273041432764,1.027317469822012,1.5058573131384403,5.27732885792525,5.527072100510666,2.8043696579359203,-2.16866092720208,8.061193083230595,4.817010931738593,-8.490789947499692,0.1263491583166573
3.39811203605597,4.842181179193068,9.89628006605014,0.5713202513278599,2.4811590836918334,1.9819889186428823,6.694991293144134,7.539068682449453,5.286988369274967,3.580328114433523,11.549731135683489,6.326627852418079,-7.759626606856163,0.1083300167853299
2.4100300539887742,3.142184501663518,5.457269188499125,1.1839995331130817,2.8179562837963688,0.9360844928807068,5.865231006276698,6.766016014321693,6.012544563189307,6.8886170724818445,8.635892306407715,5.055710377589151,-0.8391220488051276,-0.0476723030512228
4.074333353606242,1.7953503940544182,3.595418232252669,1.756656050469788,1.7219155841686486,-0.825944209571366,3.986361659639064,2.982923474779069,4.744022774901338,6.805513936831437,6.352613699427165,2.769314175437612,7.353608937105218,0.953787973979926
4.262835976174689,-0.4728951182968112,0.6610816966733586,0.8593448029865995,-1.4609418469631064,-2.498839720287253,1.3421486376852454,-2.683969043634918,2.211496727209153,4.163613106661238,0.3191142305982778,-1.4140969558102356,10.850478120267972,1.740904488909281
0.9792285082708434,-2.6798972182366017,-3.092114314456333,0.5407338856559203,-2.1106864324733063,-2.525162457918584,-0.8344255360740166,-8.000997603919963,-0.2765327303062301,1.2357121016776975,-4.623142404510042,-3.883122365607899,7.29459363047176,1.139121726083466
-1.0683332266078114,-1.9801340993415395,-2.367569354612825,1.0128042377233848,-0.2084536084795566,-0.7758479628750411,-0.2886866114306419,-10.7439590756833,-1.67110005116547,0.2797220593784728,-2.6477164932007087,-4.299362001086329,-0.7077591974970376,-0.0042343597795757
-3.580647455004553,-1.527950131499146,-3.0642843538161646,2.733593690875875,2.113221120556897,0.5581443485601506,0.403597492392488,-10.114456638875115,-1.817945366740365,1.924932441005906,-3.044449120188615,-4.037340245079927,-8.142088412386496,-1.208744832332688
-5.125913567415463,-1.2503233555008255,-3.233066581593226,6.380504611916006,5.912486667012313,1.519557256372721,0.6004490022639242,-7.396218453064602,-1.3633879916069684,4.711464420729357,-3.377637683833098,-2.0722408219174837,-11.351564676692574,-1.8681311122358109
-3.095208386653102,-0.4397280953405227,-1.0791305254883774,7.904356838577725,7.306325703962868,1.6359512842991033,1.297258434470821,-5.183902747063842,-1.037127274343359,6.296335310409483,-1.7384057237852462,-1.3875133042795087,-9.881966818288452,-1.3325796241631904
-0.0609413063191761,-0.0488277725240862,-0.0558399150573215,7.413045744669113,5.900740183140848,0.6625626985881673,0.7214161229215272,-5.603815617375971,-0.971858769566285,5.428251204429898,-3.5551935778073167,-2.0760733467173704,-5.576246865960753,-0.1075799684052407
1.7735710962400577,1.1944682728790197,1.0521966413930277,4.975648300101659,5.722485595678828,0.716252062580031,-0.0572290612435354,-8.832606226015121,-0.6730627697367986,3.02130484921227,-4.849094577166143,-2.5040485958045973,-0.5798139936223428,0.5825755040890604
4.109318063306572,4.24482377558429,2.675484540037328,-0.444776814324497,5.919906158877365,0.9126218016544794,0.2045403138013576,-13.068971370644611,0.3538840119684117,1.3354032229499495,-4.062989125564329,-3.346673387689276,3.697845515872908,1.3465533468439732
4.3147105234711605,5.899048771324854,2.4390435667769568,-1.4561256811208738,6.068975072722155,0.5548942199270108,-0.6139492497519536,-15.96760751576456,1.9222236341324663,1.917740491352851,-4.597441527676501,-3.014493347344335,6.278715997460975,1.7177027527351654
1.3139785973578468,4.241894535708952,0.7289976382258117,2.135435662091339,6.752648281784348,0.2135697752465495,-1.709528786560185,-16.352302698315107,3.0947202178736823,4.127449858002847,-4.623687259528584,-1.2746002361528777,6.215533146279947,1.1026114888416687
0.3070263809315729,0.7677980324312623,0.1920599070249325,6.062994183696428,5.341850383894437,-0.602053763614184,-2.3729204886776527,-14.840116870148702,2.8579813675855394,5.630189952486392,-3.052717816222591,-1.1816318026508363,3.155166961626198,0.5567175790030917
-1.8248998786237156,-5.321359811779335,-0.6115256469872983,12.02542623806892,1.7402301408872631,-1.3044660979163132,-4.354215023599924,-13.000874070283231,1.0096868434712762,4.494155287816614,-2.503785398479256,-2.5020158701683406,-1.6982488295114433,-0.8297416030668897
-3.600374091063343,-8.999067525222143,-1.0671974129228745,13.220932492963817,0.0045669474481395,-1.312137317810603,-4.289102484081642,-11.935734929629788,-1.4940572022633447,1.0091617009938432,-2.0061447479447345,-2.726739218017515,-5.764172972669273,-2.0267834006267678
-1.552493806094129,-6.4009465937284,-0.1388461939312145,8.729361513228277,-0.213779766506711,-0.968518349965958,-2.1226923246305294,-11.533044295400126,-3.0829460623767257,-2.473317401440699,0.2563693737173433,-2.311162746705096,-6.900817407183396,-1.5522939555711817
-1.7228756488290509,-2.4091352717719534,-1.250026743067762,5.5477625841965,0.241908346643238,-0.5606196285422708,-0.4313515470691722,-10.875724433253644,-2.661236840652866,-3.589327720964067,2.0684870539304434,0.0244675571258437,-5.301865191840482,-0.8459392705510917
-1.6254928868348562,2.7741080246881697,-3.098345265949895,2.040202020798969,2.2204394257481037,0.1292130253829651,3.642838072035415,-9.185069445333454,-0.4451008377199476,-2.040153736143939,3.8683610771196513,4.86728461387631,-3.352356650380786,0.3154962359375479
-0.54223199621679,5.6257703071999465,-3.436897311666807,0.5338057612345011,2.53494854853562,0.9556056542663912,5.3780096281282015,-6.362980267550412,2.099260154928728,0.2113695740952168,5.597267880341335,6.253433277521349,-3.2420417519598503,1.1827045980920852
-0.8812134105716594,2.802485007628766,-2.1187236715927344,2.257074070473491,1.0887336986514302,1.4991330309450002,3.595670238990789,-2.830451078544296,3.2204289063835563,0.7717107526452764,3.974773349308532,4.24223200412127,-4.655704129050736,0.6893860445496998
1.026938450998767,0.0136368675185859,0.811173731456727,1.0582515812979134,0.258236345354691,0.975766912888357,3.2905630261586016,0.8612632642920292,2.0805057596208134,-1.074332115212401,0.8538718541817302,3.06272951507366,-5.079961599343836,0.336766143623865
3.686366176333044,-1.882829843891446,4.488854553095675,-2.417163196331173,-0.6227058813396126,-0.5410780416257495,0.3671722737897925,4.122830027712423,-0.6805732259745396,-3.915248829262171,-2.176786817486091,1.5368020172162489,-2.627073155346121,0.4660825115779197
4.643027939493733,-2.284542311526097,5.9615669713145625,-4.022649778791509,-0.7201261311398656,-1.9266236884514645,-1.5119264952626337,6.217361808899488,-3.420364875387445,-5.691301300648924,-4.4462196723306215,2.06504906860232,1.5332624869393685,0.5523026855273053
3.63107480924753,0.2148242054905149,3.476295621715221,-4.6337561900824005,0.3345857177993714,-2.1942446106228752,0.0414422879158956,6.467382724098172,-4.619903831789401,-5.53420112418154,-4.384749439551161,5.412617612206479,3.880199329399296,0.4274617225188629
-0.1865319048419835,2.0025466577056124,-0.0935108792349271,-2.54386011372958,0.4370161747756075,-0.5447931015378551,-0.8164944135398474,4.91323217255723,-3.780340124261405,-4.217823135032434,-3.059776183811228,5.581058588049637,1.9526412107510256,-0.4197234759198078
-4.986769129242935,2.9150427114265245,-3.9092287202226834,3.11711796171093,-0.2157341420184378,1.7621117124712034,-0.3064655904766371,2.792401208602786,-1.465866836156072,-3.0100816020319696,-1.612801560132091,3.009070821558417,-2.896383301829003,-2.2054808641303336
-6.825425539123625,3.001614558975865,-5.459182715371414,4.729530051926225,-0.7733101282025882,2.753973928444497,0.8076969204112588,2.0526116747159047,1.3437538246673455,-2.311745958094953,-1.128862719592003,1.468217130597588,-6.314540899837184,-3.097504713045105
-4.35799100163857,1.3322030534510905,-3.0550308482883746,2.444143580080656,-1.6095978352619555,1.6308582146508084,-0.5191452473650746,3.9445820385294375,3.8571510152842494,-1.4962864316105038,0.4886796096295251,-0.0518659220492869,-4.789246397594441,-2.101632090452916
0.5849372464330794,-0.4295451402507848,0.014497212794589,-1.6178725830510126,-1.7679888210954586,-0.7954730760012496,-0.0976489302381428,7.801171770855956,5.522922960531593,0.0634234898171564,2.9517594033922325,0.5023180893009,1.0363352140593347,-0.2556379508037386
5.643796625881833,-3.243509707772547,2.876452836875613,-9.251277236084247,-1.1154660390033049,-2.671128050380083,0.329978995276451,11.224570809581932,5.78195197347382,2.071439105377625,4.631650436456082,3.84488655647982,6.702685594076595,2.4058868277110164
6.646282353523199,-5.181192146193826,3.479636386854279,-11.486795445255042,-1.1550232095421,-2.6253533057711755,-0.3604284186343195,11.780034236534217,4.176918958204443,3.553741762470024,7.172829623706445,4.086288178195122,7.688886624508228,3.7219364452349466
2.791514340514271,-3.700794556115005,1.1269244667337213,-7.822393947142201,-1.714146603249981,-0.6219081026277331,0.6802518573064105,8.90638200556116,0.9711359398669916,3.947514935352824,6.634061227765947,1.5575997939274564,3.2541465224718165,2.499210955079853
-1.762349770793625,-0.9775313015249838,-0.6349957862641833,-2.1817708668688964,-1.8046046865696708,1.734409815995568,1.499107743647072,4.433159762194647,-2.4367382278115075,3.7262437055674935,3.3685178216968423,-1.1374221920593195,-2.972205344255243,1.1556236626368477
-5.5257332910524735,3.890575692629404,-1.4845319577131324,7.752962117978714,-1.6421118586130825,3.2680919951224565,1.7271404902426994,1.2219820391191845,-4.131342525612611,3.765179662386572,1.8451139585704164,-5.162501537822964,-6.068396259827576,-0.2948898219496113
-5.901277674736872,7.18720312322353,-1.0188781004866487,11.562696339870383,-1.7528332057546894,3.0589205336142915,2.4838354881399463,1.0368432643923908,-3.153489307482753,4.107111522843978,-0.4538178803184136,-5.950725818772049,-3.838486070161003,-1.1480286674696365
-2.468649158706203,4.816883404921241,0.675034006780247,8.418518062913423,-2.028589453626232,1.2923928485385645,1.681215689306634,3.378345938616477,-0.5188237023227282,3.5774180901360464,-2.5279889044876653,-2.9495297183491616,1.6173077521722203,-0.4860071119874558
0.4429500566918132,1.134358399875488,0.5419901179771871,4.806335655497059,-3.8763768520652353,-0.4930575385751539,0.0858741650772524,6.140633264663589,1.3986209394659856,0.8925263609135281,-2.287631784445622,-1.4416155992806234,5.920026966022498,-0.3666851555176312
2.967898673713224,-3.600792545546332,-0.805719114433212,-1.8973935138806928,-7.536957479014366,-2.41032781189528,-1.031267173391832,7.396308445665804,0.8012587823827109,-3.721505762014671,-4.105682856339419,-0.4270308757538856,6.086022789714221,-0.8553529173227655
4.117982874584301,-6.328490127032408,-1.582975112713631,-4.591520814427516,-8.889140110866348,-3.1811235905216964,-2.085397324290168,6.767165493940569,-1.9852869008278056,-8.112103803921244,-5.463676669471966,0.1397011028356005,2.694821665645464,-0.9730562188104912
2.892755901063743,-3.4863777476513755,-1.246089916099802,-2.2587131093273887,-8.036056419607077,-1.9930761818776128,-1.9549674273814848,5.373818611855545,-4.803384164442599,-9.650121705895906,-2.195300142681432,-0.6240564695311387,-1.059478114313467,-0.9792218259937652
2.3940820051908185,-0.4142096396584273,1.2348320781402031,-2.45327422127614,-5.861226277455456,-0.6197779223435653,-1.07577195006781,4.666289293518988,-5.499503852921168,-7.353683554457698,0.9707240356945782,0.80442679191703,-2.25748210459728,-0.628340743150231
1.750120087440666,1.696429919746279,4.5090901596198165,-3.499700354792376,-1.3685217342771454,1.517486101123517,-0.4899280100022192,5.283667660811329,-3.576209022177404,-2.718669769740641,5.116752214675825,4.343118707155176,-0.4351461918902313,0.4059326515897635
0.3183288936230647,2.267569040153976,5.36106705459696,-4.720937302221532,0.1510871705588362,2.9938611272114883,-0.3015389495414682,6.803408206131589,-0.2738184820559781,1.536631121332254,9.090916945382638,5.28645006851856,2.588998060349638,1.0435104222838525
-0.2528598144623234,0.1595964842554872,3.20900823420363,-7.16566319418263,-1.531661760188033,2.0660009610359897,-0.7385342825189832,8.283977655709233,2.665220589923757,3.611872533649044,7.389213360278612,4.051637877815676,4.613266454619481,0.8216110402268403
-0.9446761102975368,-0.564162813047366,-0.2943765018910045,-6.0515912172703015,-3.081791626427344,0.8238956853947451,-1.4869463796005191,8.885245393483604,4.1669012143003,3.661886331141685,4.424931871766679,2.3885877654391576,4.740749812686884,0.4430503065662246
-1.82610159165948,0.875769098000228,-3.8622880436452056,-1.2174227543547085,-5.7263249168847015,-0.5939212607628499,-2.2835465893418734,8.082562431294683,4.018132876995817,2.951668476388914,1.761073977053348,-0.609420802764595,3.5668355014035305,-0.4612759502959457
-1.5166421739561722,2.0816020341150785,-4.9277260916842165,0.4734702472142501,-6.617936845394893,-1.69546535241057,-3.12228263094459,5.623030542672195,2.4355630250546665,2.2539871553674136,-1.1997484989826148,-2.131297085436693,2.1847673823783467,-1.2096815911318812
-1.153926930761361,1.8875082052430632,-3.312160408968686,-0.2990572627442613,-5.23765930120185,-1.4032221458511418,-4.306422434793875,1.6194596858173176,-0.1400928386362836,1.2184465008922016,-2.865056787537458,-1.894371404931103,1.2144544946952154,-0.8165524049247831
-2.168141637245978,-0.526586535979843,-2.3583505645927647,-3.504097384873627,-4.958607507065624,-1.3483196727644606,-5.874546625996783,-3.193153564682605,-2.880407569200285,-0.7914242068857229,-4.601256792375073,-2.904139443837653,0.6221709839250655,0.0506744421609549
-3.2343310909713496,-4.774683254216073,-2.629510870577932,-10.670097024889612,-5.089094771721333,-2.3034443791882437,-7.611219462032258,-7.455473295960543,-4.676701330664125,-3.524980422149132,-7.199642016085599,-4.561281933520955,0.1431753823270192,1.262592258862261
-3.553311747845701,-6.602304767460141,-2.8958408124400634,-12.886860648220656,-4.111727809378851,-2.6686089437332448,-7.494625820275647,-9.748246490291034,-4.875858027525032,-5.72088694560667,-8.884187899290794,-4.551385903512125,-0.3235849400268193,1.8622686835238056
-2.6090253876032548,-3.8507762480400434,-2.3342694678729328,-10.06902192542165,-2.398907751636564,-1.8317235930486744,-4.742162982737422,-9.43695992063359,-3.985335949097148,-6.154606738221547,-7.337852073112034,-3.125160169197045,-0.7016517952923511,0.9376077602925452
0.671108754142332,-0.1467148402038664,0.0512183776680803,-7.787535437215527,0.7354182962370123,-0.2856160075545474,-1.0287625396504114,-7.09244884411864,-3.348769833297371,-4.701828476195324,-4.187746338322415,-1.6600573559038865,-0.9702384767640446,-0.3895782638302583
5.211894763286332,3.9384337157820672,4.576338288074578,-4.136041616426335,5.607277860661807,2.7477533276907846,4.483764636642406,-4.066028225489257,-3.793458867233552,-2.3425835270254924,-0.3616487021184608,0.2364582767281231,-1.2937006405114315,-1.5971274421589832
7.650637861806897,6.027790739921988,7.156996898809667,-2.6083316747209224,8.116699443685992,4.658805348216799,7.916183975014776,-1.545102803192657,-4.556359875744599,-0.2270783357457486,2.6041594780389854,1.305352714652638,-1.8412800810858605,-1.6675439314509657
6.445546396774632,4.183671776516132,5.65740652123566,-4.036804539083843,8.19737668056499,3.704018986649363,7.828307914660905,0.1191830305509551,-3.795780941735657,1.16961154240341,2.6596857593547565,1.2426753929704084,-2.4298154286740363,-0.2855724350846567
2.793244019721448,3.155362999045941,3.3003471793725025,-1.1642692195428628,7.94362957672647,2.708304522767094,8.434175836012624,1.2931688412968343,-0.4547565898207333,2.0601701472169065,2.1441711580004155,2.9693492974749893,-2.40755568274494,0.7347085757771028
-2.7974355413562564,3.1293246048522594,-0.3213651319286768,5.388384886744474,6.396742886029453,1.0808817277226566,7.3393093633881215,2.3623131224992773,4.286993709452076,2.750978019939036,1.6165245497898433,6.277277553821409,-1.1143427572231746,1.4440676792335978
-6.6872953564491215,2.271504706540509,-2.9758867808210225,7.704638509525847,5.427592060287775,-0.5045697756306768,5.141446378573392,3.140233109692523,7.547263261130924,3.1994633778174677,1.404196689723037,6.916190418302329,1.3100253348874036,1.4068963501370209
-5.684001697324026,0.9916925502392868,-2.394397380660565,6.614579141751894,5.266861921221928,-0.4577586514609066,3.20963051080817,2.9037879512336104,6.982660473060561,3.127727509093727,1.3854644328507872,5.135941648490076,3.590941177499956,0.3547047164096328
-1.4102142143471816,-0.8489984606129033,-1.529983583166758,1.5743653400512905,5.216645133904232,-0.8066295192719036,-1.2803830868341235,0.98821101394651,2.766971748298886,2.4331328693972303,0.4089655781836021,2.8362472947237225,4.1170165137906425,0.0385916162333829
4.586585445094985,-4.06920019518261,-0.6769468977769886,-9.24956353447794,5.817792270919726,-1.6109219546523024,-7.102633000142327,-2.5701638857947424,-2.4851711606395823,1.4024129649352384,-0.6268753565550407,-0.8476260375633891,2.433373581545962,-0.4682302912194978
8.194616569945252,-5.72031984041334,0.2827919572843654,-12.593939579065346,5.708235953228172,-1.888246699546236,-9.410763339461102,-6.837453360160911,-5.76619663398722,0.5419127908526171,-1.7497744816062903,-2.5211597869730347,-0.0210777120659342,-1.1683578039387927
5.523206181994722,-4.266881305761885,0.2031684088936422,-8.253786479592533,4.870925679088305,-2.1738947071353496,-8.003961923313792,-10.371263221264671,-5.870233784720105,0.2223203330674052,-2.639189536655795,-1.7833261643662637,-0.9972420627433594,-1.089729050211894
-1.932654469420063,-3.625524386966866,-0.7972774472408575,-3.662702144839169,2.183493883914332,-2.623598292211088,-5.915157951343794,-11.95842507788264,-3.91736865895204,0.428528120952119,-2.805201718965744,-3.040112950283024,0.3550623214590698,-1.366252111213886
-10.93752962253406,-2.240754835177699,-1.504222188820607,4.170192295314506,-2.836812264265508,-2.4955067380344165,-1.0365885253440803,-11.284737799503766,-2.0057879759527157,0.7587441456669755,-3.4014648079126384,-5.603131795793981,2.2691567797308,-1.1330597981158832
-14.771919332572534,-0.2710152852448054,-1.7090428548818546,7.647009746031409,-4.602778399305317,-1.5907668821650445,1.5583983440512288,-9.147818980762978,-1.3886336016669163,0.6614507866149015,-4.135254437183992,-7.039915356022847,1.6276983429014005,-0.2058635663637752
-9.326220757824691,0.2773087481970082,-0.9413889108369864,5.614039789423823,-3.130506782164272,-0.1741269814206043,-0.8763947943260488,-7.02981410681321,-1.7394822402124066,-0.193926698391444,-4.085259539312085,-7.925945182702643,-3.1279787402545147,0.1797384667560508
0.9211258627553514,1.735974235856889,1.0577790769559143,5.269142424406328,-0.6128237373453264,1.2444902884673334,-1.4753611927776504,-6.195661908946327,-1.871884018908054,-1.5981955310285234,-3.974168596305159,-8.153759433717738,-10.0684256078818,0.3834802943731143
12.054968047401305,3.1615657684163923,2.784426211798901,4.699789513395507,4.261698625028238,2.540878212386164,-3.392270456123885,-6.846175938793354,-0.996827969626104,-2.774949996013931,-3.747041846988595,-7.325967284288584,-14.783709798681526,0.3630123760131941
16.0456885878457,2.7941036676251545,2.8635600468038835,4.345469116561761,6.108711992385141,2.70505426037653,-5.061966420489751,-7.946904265517285,0.6416585022698327,-2.775922473703333,-2.307823263379788,-7.224520797646839,-13.691318992263716,0.144615728915852
9.095443270176869,1.805046219646196,0.9187701906758946,5.128264138477378,4.505603193092524,1.8264574033057837,-1.7092352213705109,-7.962435973679298,2.1359097676104537,-1.129424002330036,-0.1526315196556764,-7.802497715223239,-6.914039759678928,0.4640413873707779
0.0200138274062133,1.5634444590517111,-1.8383213043724789,5.215437254047947,4.350299505626552,2.073846060744212,0.6901765631904057,-6.022775714800685,2.776159118434005,1.7059171958901214,2.151632909920373,-6.346512126884277,1.674392582838502,1.3489801158830388
-7.83657033132756,1.7782914068745377,-4.225489425370103,4.979639768711291,4.454670046483005,2.2815165386885883,3.11583368799991,-2.611721816872348,2.636375923539613,4.488763468766919,5.757105528621377,-3.032486959725229,7.263701263520511,2.3590842848570603
-9.970342705727685,2.104575764644494,-4.305141067874046,4.358705482994941,4.305596643371134,1.7103036191197802,6.098630452445177,0.8193837987673382,2.497485661812668,5.929503423532349,7.647386512933281,-1.4158390888951158,7.509408383627697,2.3508904175777885
-4.456216409216932,1.61185615250414,-1.948045116965372,3.086672447580597,4.528214585413774,0.8457303730103704,5.041510264114374,3.003916983999078,3.2352938328797123,5.507890043333924,6.0716378536251225,-1.1989654840526516,3.903417620106009,0.8742462910797879
-0.0935672337647646,-1.0229245783734666,0.119180026487351,1.875353989519456,2.978560503958696,-1.2548071322165817,3.452757864969964,3.766665603683284,5.090091967087632,3.747677639943989,4.369132920950475,-2.3873153145162185,0.2138143540455932,-1.0110013525969963
1.161545350472556,-4.94063181964068,1.818785311987096,0.6460209829474064,-0.4062162586511534,-3.2697769753556867,2.491350761703493,3.882513139383621,7.290603992459566,1.7403180505090543,1.1462804071914858,-5.817940645620976,-0.5945145611127822,-3.2824794310113603
0.827330587712117,-6.486362722339463,2.4773291173151777,1.5949817014105092,-1.843616387632332,-3.1503710330969583,1.1965277785786754,4.081910419723446,8.38292183487154,0.340666574058198,-1.1149152193955474,-6.601363557163659,1.5406784698107598,-3.834114034278332
-0.3986984300686036,-4.030537998311063,2.013355636930893,5.091000554993414,-1.5532776288241783,-1.684602208863384,1.8355393215158533,4.236527396368885,7.227853447907,-0.2769901991114265,0.3811294865976569,-4.699541224051742,4.239393744396202,-1.773383980146584
1.1954519648149635,0.0966880753943553,2.921844028534408,7.040055166709809,-1.119489698658171,-0.8444595261588528,3.079782485280035,3.5784530569770743,4.045217259907222,-0.3917028069260464,1.490800696256714,-3.6163312404164913,5.115069403961201,-0.0872009867427567
6.282692065984632,5.2425866664562575,4.256614804672093,7.84402025810065,0.2283979360987417,-0.8709038287692005,3.621317339951712,1.7412359044737356,0.5750108432227297,-0.201768655942911,3.090864863280252,-2.356548532883157,3.9668580747689504,1.9957987492267424
8.506111511499348,7.031005637830996,3.61175673480986,6.5941173650929015,0.0428238028024946,-1.701944773352519,3.2066870472513527,-0.4878074043025151,-1.0581390372848114,0.3763524536978888,4.144870477830761,-3.098164711273034,2.789715235973425,2.7431622281253603
5.129333394169577,3.4006816801261084,1.1031892824261662,2.2936329971148277,-1.9434854553853849,-2.2711189159215506,1.6615334458362885,-1.5923785866476496,-0.0316535686322865,1.3640487430549015,3.0896874004056767,-6.479681798219118,3.647119975358203,0.6877878074600879
-0.5747787548216762,-0.5122521493112777,-1.9508526780395332,-0.3601996620316916,-3.0182419202874318,-0.3124286340337148,-0.4120910745427281,-0.639969042444541,2.425397354097239,2.2974997571597857,2.7116535874886383,-7.211586872141646,6.407913019349177,-0.1892296344325828
-9.34401973032944,-4.6939885389030085,-5.429398349242617,-1.688986039461275,-3.7063678255986807,3.2916079981027897,-3.2569850496525667,1.7836101053256677,4.072138236619409,2.353811048581802,1.82040368432978,-5.679236477878389,8.51023938830378,-1.1349163903902262
-12.890054881769188,-5.97490952739779,-5.647572253603756,-2.011492317163987,-3.670252821188771,5.433207648893376,-3.5805539092566163,4.021556386504344,3.678448421683978,1.06696036548537,1.8990002782747384,-3.4336374536409644,7.11128147212699,-1.3767948183707972
-6.614460263617664,-2.2514380385978683,-2.0107464018089973,-0.2711208401378417,-2.42538588728309,4.676046085378167,-1.2170387326996268,4.864409601868793,2.138707733058073,-1.0490296018633636,3.755006825980919,0.6013638049398078,1.816348521008472,0.6582029368579788
0.0203371495136358,0.5548434300780074,-0.0349611666228734,2.435117359590976,-2.196769274264038,1.5789907484039822,1.130848961153398,4.71545519383595,1.5284088415605837,-2.6897744080244657,4.614487306607097,1.6125538014537608,-4.434103830310516,1.10392669414332
9.001453507308028,3.458459589689185,2.397380554243564,6.492634946001222,-2.866460441100459,-2.365769948824109,5.970559849937659,5.216117971605755,2.950144601677671,-2.73336233368712,6.797421776748644,-0.7348818203060961,-7.276224621017391,1.6742870382025046
13.538036824434029,4.70449275885891,3.591092630786105,9.015204284092006,-2.9205266125891063,-4.175746139984033,8.492745474918515,7.58666182022313,5.272960466477475,-1.1784578886272392,8.108819597699291,1.0393565977291035,-4.275971677042506,2.0837868332362657
7.19045578594501,1.6384308162506898,1.6298834798874466,9.6661889454474,-2.738219352389047,-2.682747732882357,7.133174023480102,11.235295064729783,6.042898366501007,0.7928088877318213,5.972772464640975,6.212535302266571,2.9093973205653825,0.6317713548081694
1.866852819593975,0.0457986437769682,1.8850277386019405,6.756897149872734,-1.9340976096774511,-0.0897083533138556,7.307390486776088,14.041510341930476,3.71925888648655,1.7033069319959075,4.727642285168495,14.06583745631504,9.404968883837803,0.7007490738128743
-5.232445463027117,-1.893274835416271,1.103337172709613,-0.8710228807792878,-0.2543470836853531,1.835418689824448,5.271678207145428,14.18047153627634,-0.8849850077105064,0.8828596193574754,2.4531195393338923,26.19765901303202,10.560513983846448,-0.1044213548209861
-10.585431589398578,-3.4264271619312114,-1.0576899829730195,-5.117923004483706,-0.1020972928652491,2.0899739181858723,3.132275204367481,11.83831026536508,-5.252567933468972,-1.0919538641896196,-0.6934105142933817,29.21918523245777,5.3998021965404455,-1.7835467684854491
-6.920766021759565,-1.1913293705372658,-1.637967141056204,-6.300301560268912,-1.4891859090441355,0.5068177480470909,3.3199018702265177,9.1694381261708,-7.190377942760567,-2.9130941029788486,-0.4073237108917511,22.428860256149047,-2.661489867786715,-1.9378199364435145
-4.362181143179583,-0.0895082702081631,-3.4871260400021127,-4.536706336239008,-2.43994148755466,-1.4672012120832458,1.0527763250560709,8.438431577641147,-6.368672267718985,-3.548138511106987,-0.4104302162782453,15.901459995054209,-8.49204911891546,-3.10758344399085
-0.8795646819969499,1.4016620841137282,-4.471195909221624,2.200724927055884,-3.4207247884103635,-2.2527918177993778,-1.1749814683340942,10.015353667260014,-4.190726044581444,-2.939223214774948,-1.564211334364752,6.588687220719345,-9.19074196690226,-3.119728475295748
3.655424160974031,2.7432134691619376,-2.737734613350225,4.295205317244191,-3.3144906187105265,-1.6292252465389196,-1.9897429041617465,12.088411776159957,-2.430515072198565,-1.8800965404339784,-0.1654782812892154,3.9580743269422594,-6.043375648436044,-1.0616829418602665
3.1430084163624112,1.1571001881513037,-0.7870011432702946,1.865581866022925,-1.7181443168825572,-0.1058976529866921,-3.3705889192557947,12.376964054471156,-1.9781634296099249,-1.2237789399203862,1.3348150502966711,10.041659081026747,-2.909413861774084,0.4897050719020552
2.969712647231628,0.7583565766274042,1.6832849486600068,-0.0448211775532488,-0.8620403989891398,1.327104187589767,-3.908974759830256,10.235925019029104,-2.5768287485924226,-1.1210336870619937,2.119086463444169,12.985175566179077,-2.588070816816124,2.1415075157347405
3.493920778218344,0.8241625332021252,4.925063969942413,-3.455595627963618,-0.4537128567155813,1.8973735569588783,-3.72486948506742,7.155834253481743,-3.3853144074240227,-0.9720690359110638,5.782634481823234,15.24503463885451,-4.462917578890721,3.497936405824616
1.7161764731012954,0.7577184645126954,5.469539199482715,-3.6631935727537854,-0.149164638919626,1.3928514429962726,-4.428119724440924,5.188782586149376,-3.664888560439959,-0.143514797651683,6.537962132357888,14.503884251831856,-5.441418089201779,2.6711778437031493
0.2183221035409385,1.0941365909924974,3.161998621448363,0.0859951857635007,-0.3537817742313921,0.2219979872616961,-5.236277077727976,4.830361542909706,-3.1360944934022896,1.235775139982653,2.0782501477478785,8.689729394243965,-3.1123122778978143,0.6909733338130402
-0.5951584673345433,-1.5365766292779035,0.6997559241797897,-0.1695045986785028,-0.1558633266174593,-0.5107434240460037,-5.485904792334579,4.432304553155566,-2.01950176369351,2.2196107381823307,-1.4110804378216524,3.21558274126136,1.8997567655116203,-0.5567547049582583
-3.526893422769311,-6.241174365214976,-3.753171628528527,-3.591819477768711,0.4172540444011501,-0.942072021918521,-6.026452631985415,1.756864734935128,-0.9100033166801323,1.864329056299427,-7.779284927006465,-3.0806810615503197,6.448696425744736,-2.509397152076332
-4.5666540700526745,-8.352966019000206,-6.313889361559531,-5.4665931813495385,1.142729502440229,-0.8210739379668104,-5.958092490574794,-3.789212173122694,-0.4958812287104113,0.1750459318188131,-12.434856202916167,-6.404251325089945,7.572542679933459,-3.155076921356434
-1.8934639322986428,-5.815360752306695,-3.749981161433893,-7.031105278695351,2.2193336784042144,-0.0898612687358034,-4.720694899709242,-10.374167396324635,-1.1210657094052507,-1.7455374809185449,-9.482810967516142,-5.603008429667607,4.863162977238408,-1.333008523856336
-0.2710198666926177,1.124998062640266,-0.8141538803877396,-3.68276762341972,3.029037807937072,0.2482707627566473,-3.45292421322486,-15.16198785216976,-2.409035222008306,-2.515371724338161,-7.227809670862019,-4.146651190748864,0.5670213136616198,-0.4900732561206702
3.9125054115342985,10.618920473746016,3.9205452690862175,5.708538828777988,3.557775908034773,0.8756136688388652,-1.6035840076829542,-16.594491425777903,-3.326303415877645,-1.507949021104988,-3.6570934659312218,-0.7233490780980611,-2.366924642943985,1.27522052228422
6.755382803696513,13.964150304703674,6.981863420276938,8.426843242460444,2.978278142940236,1.1654478882249342,-0.299319084593645,-15.446627124758962,-2.833705516520375,0.7888341440179882,-0.511037063494897,-0.4098331751244277,-2.4795386637847265,2.6762371371803386
3.405516997347293,7.697261933850417,4.009168996193103,5.043010636361587,1.0330109959250673,0.4069179799606978,-0.7959169410328815,-13.839583384204731,-0.7547603935764968,3.257349360375139,-3.1871829241309437,-3.901548557847228,-0.5715449978040787,1.5458010745985655
0.885679293573947,-1.0823038700821384,0.6371802836860636,-0.9714015453773356,-0.3355949186307366,-0.2346036186122173,-1.453768091154744,-13.357882522454322,1.84138068153184,4.8902359602905605,-5.431678485597357,-6.111907206064357,1.2365913272541906,1.655363278536891
-4.083391268474723,-10.716324379921424,-3.6164600253007375,-12.451315686624264,-1.3073731872633652,-1.6088962874971675,-2.5631191187673465,-14.083390606365818,3.2057463268004938,5.187070807791454,-7.7077655545898915,-8.278848324808783,1.1920374307805233,1.4038826520561711
-7.840721219800838,-13.171090162313376,-6.070012710312023,-15.388958566892494,-0.9966534668728528,-2.5013352973544154,-2.370241257914603,-15.174191364565242,2.1674541823373303,4.172562415313092,-9.139427207536826,-8.804598369855947,-0.9109635733173392,0.4058929781510806
-4.2590785489079135,-4.815213894571793,-2.8481893945188066,-8.958489938993695,1.1186251307254027,-1.5122477274415296,0.1582833799144162,-15.971808672337094,-0.8181901867183043,2.3566674711822917,-7.415389668025512,-6.83473869708828,-3.732501278181751,0.57197718173132
-0.901523499054572,2.322670661317453,0.3797564077228066,-1.9815640176425888,2.5685007310919743,-0.2672798047984784,2.823285269594852,-16.308111137093483,-3.7289091644279218,0.7027134550217546,-6.139261083847827,-6.470651806440925,-5.392690208562872,-0.5899446209524188
4.989967389675136,8.882665563208725,4.13859996383475,8.906868835152878,3.63685172050286,1.9725326649614685,6.638853623002527,-15.918977876371962,-4.286069951060714,0.2913307388828556,-3.8981252155744497,-7.255589627569923,-4.729057058257283,-1.7099951785330056
9.141855175219362,10.287021346377951,6.0369461249950405,11.567046973944906,3.3047892056103167,3.3458127201539347,8.060388698597873,-14.093613090288676,-1.6762806481922503,1.5402909031448075,-3.494352807466421,-7.926967562897254,-2.014121892319803,-1.3506350385234924
4.74875688360593,2.267071791299584,2.291855020409892,4.230043214478894,0.9599516590164824,1.9262752755061876,5.946080747218953,-10.375023241309414,2.601675675153178,3.500167823831628,-5.937386418876475,-9.20642750188716,1.229712448439205,-1.1348092773862504
0.0139925842794311,-2.977346744334614,-1.834371883660436,-4.611907555333632,-2.391102068707944,0.2500917780717042,4.330251480042872,-5.624664916402452,5.53275319808003,4.072977495023196,-6.963387116303548,-10.211589209598412,3.111206799041764,-0.9496904695190724
-7.231229263132118,-9.101673713094808,-7.344568722117364,-18.34683321519053,-7.2669951413187395,-2.2543125844991816,0.285751076058727,-1.937594379545985,4.627103464830938,1.399016665510306,-10.205945613292643,-10.887741444399284,2.401552903175673,-1.826734389712844
-11.757669842930738,-12.41812559400902,-10.227905734903551,-23.517600877992763,-9.32935383420533,-3.727576642808467,-1.9540040962927787,-0.9603740472411708,-0.17181545217157,-4.465790383926645,-10.976009759546391,-11.003684304763908,-0.7983329793212519,-3.2567951435810287
-6.219256092197861,-6.1213272519663615,-5.709078497504254,-18.36865139985309,-8.173002733123216,-1.9126444254239916,0.2936324758585218,-2.104629196825144,-6.134129295787613,-11.00512587314493,-5.612082695726999,-10.289896608629387,-5.027286399346156,-3.0822135712949894
-0.855254302269147,-1.6752290350164123,-0.4833785539759931,-10.640111112546764,-4.446080489778141,-0.5077622339760884,0.6032106780492559,-2.7119660877880136,-9.366249762926277,-14.545912614039896,-1.500885169305636,-7.085409444735034,-8.100855459921856,-1.015218815860212
6.113677021343712,6.1725336907559445,6.581863849490626,3.4946150757376717,3.209862466225558,0.9328992224462408,2.642116203793038,-0.4619932597208844,-7.424316563131587,-12.655581713807525,5.300589119386269,-0.9981172685095068,-8.21996058261352,3.2193774020722574
10.619987188635111,13.203015609606537,10.742014401170136,9.676181785794135,6.74899515009652,2.0941284278919814,4.454397688757988,4.125130777296604,-1.1149581315291517,-5.892950361229332,10.364863492492256,1.834188734956573,-5.068607650590703,6.31410921308018
5.714852064680015,9.648973043942684,6.646701265806756,6.51682174071354,5.954599428269682,1.1368886424839522,1.1836892229586746,7.708178202533803,5.890871358219041,2.4298724879706004,6.519194210634967,1.4820581618022843,-0.2194764504701858,5.411106199418061
2.093111012259909,6.439980962155966,3.035699436079842,2.5014240511816195,3.312259224962018,1.1679531547903672,-0.8027924500112024,7.004508445571943,9.490850688731973,8.317275394262623,3.1479098431666337,-1.4731919253875807,3.6120630123583695,2.595972008929496
-1.7565239161663864,-0.2914323077306491,-0.9681350999235364,-6.143291892659327,-3.2420432092076057,2.040907808904884,-3.010004271697885,1.973335994458532,7.9315433946437235,9.456534346014092,-1.6716133678414726,-8.636547558647484,4.193078310435425,-1.3082235137676903
-4.852934918577011,-7.897418177287822,-3.846854347256781,-9.022865679268692,-5.9511472012442805,2.014028182850874,-6.591163755263986,-3.790098360466797,2.8631788682835406,6.219833762905546,-6.667292165274842,-11.461673938976286,1.2471842592862767,-3.680724590838339
-2.157306790453406,-6.683156273811682,-1.6026388330208092,-4.901234756650844,-4.505951618849037,1.3057246899970258,-6.435479505216575,-6.0085217189721245,-2.138150762118189,0.8288731546985231,-4.879843021478012,-9.817818997029564,-3.325937344261241,-2.332753386706939
-1.4274025422617158,-4.26848461727047,-1.438666814968365,-1.5712798334083775,-3.129452856727304,-0.3939075037504922,-5.999161319776437,-3.374569370035963,-4.380244874694865,-4.35281659820431,-3.425527155057748,-8.453266215390647,-6.75206903006704,-0.6111914238740782
-1.7048989150212537,-0.7191269485176623,-2.9149390506659354,3.614355687441192,0.0027252659696491,-3.3048247996169526,-7.018978423795237,1.4856052915789988,-3.9029658922445503,-7.975442753776788,-2.8358526746688244,-5.456761695612763,-7.314330286458837,-0.2056004999523035
-0.9936153713324594,3.586209617371707,-2.8484380224483004,5.212373234231281,1.1440491548930405,-4.731015540587014,-5.356923668082496,4.608873017788629,-2.9107644546287097,-9.688535396826069,-0.1421546013660002,-2.9711566558482674,-5.492580725565621,-0.2860287678455488
-1.383280172119815,3.013243733680904,-2.4618319421208383,2.0414819585598107,-0.2219416361358863,-3.062829989658098,-2.718373346207907,4.379276751309389,-3.441692159965061,-9.507127150399723,2.1609595171476927,-1.453963681763027,-3.4395980877724845,-0.8352494622136919
0.5832838942062182,0.6138787984901803,-0.0502922314069117,0.1815670294541042,0.2273091995892731,-0.5253687027077063,-0.6732444238803632,2.8569078868927957,-5.429322688648641,-7.492722945165067,5.046492281548598,2.9802281620427893,-3.170720074640852,-0.8711373065924964
4.476576101983947,-0.3863873711606116,4.389382137826153,-1.8216372286871072,1.6743111025920752,3.060251848108384,4.359833682289023,3.597636363042552,-6.856852962809047,-4.037196761310996,10.259754849130134,9.956759064812308,-4.846261926097675,1.332478873733171
6.054400461661059,-1.0691977583456531,5.870452032644273,-1.3245235951955865,2.786085533902137,5.013128219831388,7.624607233771614,8.118311973367488,-5.731236344472677,-0.1938679032033903,13.494157490721047,12.673558488883414,-6.516448522879282,3.0247820865041133
4.346762744829792,-0.7619520126064272,3.073101845654379,2.7681024289752343,4.148922728708822,2.956748392977977,6.1252874495591705,14.344268460331664,-1.9821626411049973,2.592985706192378,12.433448799280091,11.286525291373364,-5.616718995973326,2.134305817005961
0.2105285970002527,1.1102081086030506,-0.3343517910016819,5.92674867386521,3.5356423552059506,0.3662575295992057,5.673583562763729,18.41487699600521,2.4182528795869764,3.3210068523186926,11.14397145829701,7.770239242540971,-1.109977290734962,1.0430981807220523
-5.890053228834233,1.0570784914387452,-4.705622656889657,8.985071195024682,0.6395591241381171,-2.602404001015529,3.59784563026066,18.07736115303644,5.101927431263068,2.131318003356281,8.49824016261121,0.4900443712023849,5.446541534652743,-1.3961713132322873
-8.812237842627649,0.1503343821894265,-6.327507068258506,9.900231896923811,-0.5913555378188795,-4.0238142016098495,0.7011390075478134,14.538812331002646,5.152329209120289,0.2534960996609641,6.53081481602582,-1.3532010729963957,10.87313093048324,-3.3293583112749414
-5.58477792859412,0.0795895722274599,-2.6651955166245096,7.716210029578354,-0.5239228443675059,-1.919541781623598,1.498819569974435,11.21189692951701,3.5828297617174645,-0.7832733285705178,8.62646018355842,2.816768600879874,12.691308374510182,-2.150530127059622
-0.3896995842599379,-1.7861624760199817,0.4711725980947616,5.775681841437778,0.2033284060264126,0.0552197552743853,1.281421253791296,10.660971942177651,2.2429744606284068,-0.096258345054669,10.61432501227674,7.036658005512525,10.926349375793524,-1.184198270221812
5.853057824202024,-3.0010084587973966,3.882134770288498,3.342315011740394,2.4096912074502748,1.682545491381786,-0.1563516499568231,12.530409373435848,2.2936240727121566,2.056051825506209,12.51442018295044,13.529132277852744,7.899014116167187,0.1557416411391161
8.68378529753477,-2.706562309455431,5.318743428640213,1.8302955014171975,2.7957323309419904,2.3546832689240347,-0.1970334376150145,14.120141671657436,3.536516390895051,4.483658363391622,12.5546186152387,15.28670738391458,6.2171920154334135,1.6114133597580915
4.850305684481841,-2.014973614703061,1.8581413237548217,1.859663612297508,1.2929745481046886,0.9956722008101188,-1.1710844814167674,12.8153839798205,4.914624281867214,5.826402386413717,9.202214287179595,11.20815171963438,6.702561175288821,1.1727828093317922
-0.0270162384653057,0.6898644014851528,-0.464457554672829,1.1763089231797368,-0.020983514186852,0.0705674033754572,-2.6329242458716835,8.110149353644779,5.480378929564535,5.421858605928999,5.42306379076697,7.505849994401002,7.952848663132276,0.8252093826530545
-4.872266998889945,3.4952844286990827,-3.218351269677991,0.2649826909572035,-1.8599266491500832,-0.5760182272485892,-2.7855528357071955,1.64848798578164,4.953060117158173,3.727810287737925,-0.1770468431301619,2.3261771902396142,7.7393168906216285,0.4235547981222675
-6.886062972683178,4.231952689164846,-4.827547886672669,0.1054891576775875,-2.0845442057872265,-1.0912371323076613,-2.61846407826292,-4.363897534933717,3.610819788154575,1.9620739994898164,-3.082599264352214,-0.4930887165858179,4.919549092340379,-0.5252266679359071
-3.5676667934345816,2.997286665888105,-1.8050427604344617,0.4708638876546436,-0.3016231578620777,-0.7838856633787027,-2.0335916621481243,-8.73227290232722,1.9192762361725952,1.1861435999048258,-2.611273825953817,0.0792767908526581,0.3467192309657632,-0.7837775313261004
-0.1672721629293232,0.2714366567817474,0.3379121965269171,1.709775644765567,1.5323388018658204,-0.6088769387530175,-0.3068222110910489,-11.549025407825514,0.3580591964733859,1.567693004054422,-3.607397644206208,-0.6119310541015903,-3.6946684430364,-0.5717974566791629
2.634383109477274,-1.9710623463840176,3.5864589951863435,4.026032501785619,4.007964963618899,-0.1124917145180497,1.8516460881357564,-13.2977572526664,-0.5390127838416685,2.4568117058375165,-1.7687868900722243,-1.4656046853408662,-4.872749400084082,-0.3453414667148777
3.8769879431586576,-2.264133689789119,5.909777410124041,4.532557075695222,4.736362854122535,0.7904962539247021,2.359326000746372,-13.93306184191683,-0.263131802357174,3.145263498329985,-1.3927523268538866,-2.406821880117619,-2.0938896981322763,0.2137869220857876
1.796159929758123,-1.1604746708863978,3.2846419892757828,3.13585995955412,3.277321755186521,0.918296710861284,1.2961230367206928,-12.886772315763118,1.2915069254797693,3.483551621651168,-4.672587200420881,-4.059317362929729,3.81975572233346,0.5764960324939149
-0.0775629537337952,0.5971568258769312,0.7367705955445172,1.2262705149673894,1.1618451142135575,0.5843238796534032,-0.1013361047369947,-9.920614936260456,3.443083901032404,3.7023834798226094,-5.17890704127852,-5.288130814557924,10.228939695226586,-0.0053921021416855
-1.5632742374996005,1.1364428573874694,-3.516042025048133,-1.907552434029488,-2.347023351471885,-0.1950817575006178,-2.837094998910049,-5.911743679107051,4.832522792474354,3.707975500016357,-7.33921517042328,-6.2604911864425645,13.67229882131729,-0.4969034703496142
-2.515462801237991,0.1620158885724827,-6.472639583821691,-4.4168363499527326,-4.193572150756349,-1.3046428797348333,-4.446896979145328,-2.721779185389881,4.176535883388963,2.78430185709496,-9.83433153932019,-7.457200344789764,11.6394998918066,-0.6102374038735233
-1.324220576773308,-0.6931638170008303,-3.869891090609049,-6.130971453712106,-4.074025637259236,-1.3863984261046212,-4.688971874701539,-2.1029350614184104,1.1885869937097835,0.2240783799026662,-8.865722329478348,-8.733192397767358,4.30060572859384,-0.4146151532077023
0.5288708355216178,-1.3114371478182452,-1.2766357129925765,-8.149218569187436,-3.470385247162497,-0.3622415930480384,-5.773567731055411,-4.418938708955363,-3.070696733056403,-3.681905661990577,-9.359460189829132,-9.218376809630955,-5.144584423976077,0.834679978545525
3.036448971193277,-0.7674681210911909,2.982333838487752,-10.001127652753985,-1.5379958693125375,0.7564317277664159,-5.982644031461529,-8.161689213010341,-6.759139232421665,-7.418720547265492,-9.57035004615641,-8.883128678882988,-12.21682138927279,1.9848464448182608
4.985025127751261,0.4485872297980909,6.387799494953993,-8.82380865336485,-0.9677559591726236,1.488670080150958,-6.210778984076143,-10.71293955786132,-8.357223019190597,-9.227330875319296,-8.459982490475413,-8.358963044564401,-14.063921569361304,2.0291962132851693
4.222307758495278,0.8276740128398493,4.428586168890543,-4.355020276632291,-1.956985647274587,1.4075246918965385,-5.990895841795727,-9.93580926864784,-7.524343090426671,-8.484122365371581,-8.993976924851559,-7.443048334334454,-11.319854182419736,1.27420324906148
1.092585976372161,0.7368444330157508,1.974538807009445,0.7320491368350517,-3.078423391048687,-0.1803683477827213,-4.351081044287908,-5.583274853748881,-5.149220848774155,-6.173680815094237,-9.231917352554552,-6.910038871271467,-7.309502782275532,-0.5511336154090914
-3.886623893505707,0.4331837864091543,-2.156318907115564,7.137164645886058,-5.014273564038827,-1.7651473304914995,-3.036827086373485,0.4223613637253756,-2.6572133108994045,-3.971263354725888,-8.569668170836863,-6.8999153462234695,-5.203093044361438,-2.495628211327656
-7.434313815519858,0.2237797529286521,-6.177014556776153,9.032613790316988,-4.975074822772969,-1.970662037166556,-1.2365632728901117,5.092414101785614,-1.1211736452527994,-2.787266842307803,-7.302972232887008,-4.94942712876409,-5.5549031675047935,-2.794985224869229
-6.6207209304939125,0.2036579949246719,-5.488391052905739,5.479244973401807,-2.6711812636774304,-1.1349551913361,-0.0678996946191136,6.227646419502181,-0.7473372910656622,-2.138835668362816,-4.724156994543142,-1.093006426536405,-6.303588343002335,-1.626909878814215
-2.6931773980963247,-0.2203883415345341,-3.246999655489674,2.891119663752133,-0.1120177202138368,0.9428460955965524,0.2832466163404607,3.872387061242481,-0.9697373882851998,-0.8899256364184112,-1.1839983518598065,3.624679752859164,-5.022003156427218,-0.09626870351721
2.630289041684164,-1.402868609902652,0.2361236832781125,-0.2110385535934587,3.4124965270777565,3.172791588735345,1.9834740504567705,0.3982177428733529,-0.9850481375018808,1.4349433972311747,3.290693167361252,9.761547085395604,-1.1831199427640495,1.2053844957218904
5.944983426390659,-2.2111504465847256,3.6838775474011416,-0.861225344109154,4.99453670427312,3.599631275499946,2.9675247280152792,-0.9395101182553488,-0.3291595424887088,4.091460870782004,6.087997132506692,12.370721926897172,3.606600270800332,1.0865226826572232
4.343179495614311,-1.6444241395285075,3.085263681403215,2.159627715733112,4.188985509669069,1.956004334359055,3.816345636329736,1.8581200335950336,0.8773965566978461,5.847998656318554,7.594200942688478,10.966353992804454,7.333976838607876,-0.422734471855894
0.3167590488138636,-0.0893807869829936,0.6893872502627283,3.840662854281208,3.7049000944079378,-0.2394611125154493,5.850528696348274,8.061342384018172,2.13487122068711,6.227183669469087,9.7492236194515,10.703131527060526,9.31666931059559,-0.898473534712809
-3.038138973037504,2.1541498506271046,-1.3226892997998392,5.125995633982783,2.783596972610848,-2.5613381861854005,6.449714986884576,14.441446476088288,3.0076225161601204,5.948017324982784,10.12972581677554,10.47143923198316,10.21868719542565,-0.3691412190050624
-4.156184050239074,3.144550750080363,-2.5393062019194925,5.62335049642074,2.4321706178468503,-3.666507465255808,6.565032816938239,17.160055770225156,3.4126840101155995,6.081249920237688,10.325665277697086,9.949334483369384,10.585562855565277,0.6857783439096745
-1.6934551078310744,1.967723100482784,-0.7346149804944913,4.48016207338098,3.061633465274311,-2.3205907440355986,6.403989176113955,14.12827900174648,3.5227262004728743,6.791937029666597,10.448375969238704,9.89558357083069,9.747702948373965,2.177316705697518
2.6957533454766422,0.5664722766433875,3.254974160845184,3.731916726622936,3.337742204218538,-0.566401716777875,4.589102111482739,6.2758814132448535,3.439654100193456,7.044802176912151,8.050205535456886,6.812704208551415,6.496049650016035,2.206505255375763
5.331006710895217,-0.7267352964358406,5.898869980639708,3.0351877037000072,3.6054027307455367,1.140127695674281,2.7190819228517924,-3.0827838905386717,3.040214388110625,5.708074366048761,5.460226557680484,0.6320216682085862,0.9120341040165608,1.568458989908618
4.927083354765465,-1.1402606086250038,5.489829160767268,2.3466863600319465,3.532163060095456,2.2413429664769544,1.6828601686159368,-10.263747809615085,2.2024918726364104,2.998086028100677,3.3266877888137545,-2.1588194285210225,-4.713640246543585,0.7227788170916369
2.147480384419368,-0.2218465957755958,2.4415469690347864,1.9983044010808315,2.924851849335756,1.6827264170911167,1.290834899370679,-13.192139716212791,1.1649046727286274,0.6967823461264171,0.4951131542954964,-1.8781675523550596,-7.215431372248315,-0.362135312460044
-1.919035381503336,0.12931572619461,-2.235115474568836,0.9387639756570784,1.8906771189643572,0.6124093958793755,1.2329566547224384,-12.141835210474497,0.5390419614988975,0.6717158645923176,-2.308748846918365,-1.4872667423308223,-5.218342694797732,-0.2109048699146653
-4.749525246965949,0.0980505784037476,-5.677406490758633,-0.7788060440789601,0.2530366130781286,0.0128300624914738,1.348630119644944,-9.063374780888047,0.8124350539082332,2.94827145165217,-5.370213498690543,0.3456658519090042,-0.6783111542542848,-0.5356026278987301
-4.487650808091597,-0.0539847217695489,-4.9125436186320846,-2.1258897709126727,-0.8410527001701624,-0.3977540325030061,1.6124256464096405,-6.243126539443891,1.7594234496757617,5.217583811889783,-7.739534100188401,0.0032625003620148,2.330408426524597,-1.0934736380923604
-2.2928295418682194,-0.8437771256603657,-1.9726518103628607,-3.24618328911372,-1.353037559777006,-0.7911515351018921,1.738731381798166,-5.173020981276094,2.402139469050799,4.496412676984934,-8.027797234324268,-2.9732283676035114,0.7256351278799347,-1.1467467195843952
-0.0653379786383085,-1.5491124222003507,-0.4266372756631466,-4.006200331068769,-1.958827273583092,-1.0288453344882071,2.236584664606933,-6.036235516844087,1.7291288148771216,-0.3118562319014497,-7.269844030252102,-4.657904537791801,-5.1816646772393335,-2.597610990822704
1.6469256247850546,-2.595080202062015,-0.1764536390696269,-4.182970777820343,-2.3921214013495757,-2.297683180202701,3.3812276224915085,-7.773563539344786,-0.355388140023428,-7.146741910044233,-5.461919494626694,-5.862569395195371,-11.9503983604367,-3.1262879936908723
2.0045298468494206,-3.1530232860532115,-0.9742161661544352,-4.067456444724066,-2.7644593690844066,-2.84507665487426,3.895112975889913,-8.620203257975945,-2.7015782732241123,-12.012658471425995,-2.982899575265226,-4.756704924784762,-15.524259303878344,-1.85340013891387
1.1938319180252943,-2.109721722207335,-1.5556905597159494,-3.531574959865645,-3.1234204169166477,-1.2500471148134598,4.182199449513199,-7.026905417238069,-3.604375671662611,-11.814476339931195,0.4064764860931644,-0.5338541552162956,-13.808927981669612,-0.3222096098625552
0.5564414281666911,-0.4431537687760024,0.8527871394989598,-2.3305001283634628,-3.195730511717292,-0.100547059029329,4.875967740678516,-2.653512378899089,-2.0606462068988938,-6.576023901062335,5.175856341486497,3.625785331733864,-7.473255680008176,1.970572189873519
-0.0772093267756626,2.1623807297234303,3.842530025876131,-0.4374086722877852,-2.999460384677337,1.869904215669029,4.879776073814707,3.195561387797905,1.3796170680341708,0.6669448687844077,10.97611315998401,8.331368325955316,1.0450399088574418,3.46324432164713
-0.8353787678116839,3.959496673337783,3.692811060026057,0.5475995371379974,-2.54179056546968,3.051441365302552,4.501455879107156,8.196039926890053,4.858427119291584,6.100974531203288,14.102444693995873,9.529948536624609,9.008455539300412,2.4000003084790245
-1.0482515043469676,3.511261279735402,1.2093954163004803,0.549745233962122,-1.7592374340366397,1.6373762997559147,3.469634945473813,10.43938247101852,6.392186674282189,7.661665411078617,11.764567215279692,6.296074172544009,14.250394056439738,0.3941049681572129
-0.5394671635698305,3.1295637093385515,-1.404489547516931,-0.1515633965238544,-0.5985192202138484,1.813955880794748,1.2709532260019671,9.65130369314156,5.122614959933174,5.967728216160936,7.702527419256225,3.825078211086173,15.469386264050808,-0.5142105861151023
0.0965959622305006,2.871857258406518,-2.7225170186102075,-2.0181864055955976,0.979208165171743,2.069463495565431,-1.2029191958894352,7.205118121990827,1.7578169259709773,3.2254755702472746,1.519195780675625,1.014123835829688,12.481795063078328,-0.6530422121711723
0.8154071687954308,2.1606021697555597,-0.8879252272554354,-3.309494425881111,1.4385901454378622,1.4768300394803069,-3.2254496080300785,4.915391325735947,-2.0191087011239564,1.2759653621873257,-3.439823045222989,-0.7848237487218728,6.47183561628741,0.2402936920705411
1.084318953275112,1.5056220710337236,2.177929756369421,-4.034735981241356,0.6616227916429883,1.1515054501130748,-4.816057256584619,3.662059814025863,-4.649631789306339,0.4112640038880073,-4.010149671218639,-0.6456457364467554,-0.2914827181170176,1.2935222224758152
0.0874433046671459,-0.5010364902393538,1.527225093189437,-4.657557163327772,-0.0930868128373076,-1.150036418417362,-6.181236275657644,3.0161421836689124,-5.5208296383396736,-0.3154938874240383,-5.24690193934638,-2.179616238642637,-5.501073040581007,-0.09108759236196
-0.6208572319151041,-4.381999855540653,-1.0802525737298123,-4.763545745489016,-1.192531515154287,-3.9616955433918233,-7.515515995161754,2.080170291740642,-5.054217632778433,-1.853825516100048,-6.532868809379013,-4.901439023190824,-7.965103055895094,-2.118116817045168
-0.6277162216884021,-6.1705394772073765,-3.0752687519842064,-3.637422304578229,-1.2165395532617649,-4.418231690299463,-7.572200064586489,0.6327278543823933,-4.170028788973392,-4.14266095483536,-5.786891393056574,-4.969803705675763,-7.883673460355293,-2.772227187458603
-0.2550320886434829,-4.548365402247802,-3.357388033125485,-1.0997964312741342,0.1196687621847584,-2.6559961825881144,-5.081854154638301,-0.5482693033100707,-3.5748650480983937,-6.053361505985904,-2.865386252220106,-2.68374913165798,-6.058697507758028,-1.9490479535700376
1.0981992313334272,-2.292724323486916,0.3994683173356371,2.0533998366593087,1.1023045476630684,0.1179291257667459,-1.652804621389973,-0.4479039230782629,-3.3109271939650444,-6.185439565258364,1.92915996038906,0.0003273511241822,-2.950339540988318,0.9399362350785416
1.6219464558198164,1.2839050338801588,4.23345532749328,6.062419584960073,2.0991950540721867,2.8999032812398573,3.2573050682917395,1.1357826329017833,-2.796139202654423,-3.8702440776661895,8.904813881061095,3.811214780753333,1.3579970324309825,3.9667111161382937
0.8749060428966764,3.104323169644937,4.382987117860781,7.211070160238544,2.3665186045400897,3.2019528910192303,6.262586071003696,3.2931103854196992,-1.3387416586628618,0.2697022663191131,12.729096015630512,4.749872295396842,6.286720464841966,4.321122128932144
0.0061535538510295,0.9109382380274638,1.651484740853168,5.038668233039604,1.5694751546665535,0.7579531869968368,4.081496190821133,4.730755648570984,1.1523756413378674,4.524475874421461,9.015724089429204,2.25733921005922,10.122498051504817,2.041495428096418
-0.7050542926870288,0.4850114390101975,-2.051120618351744,3.832339702045575,0.9265015576790088,-1.0162766118599258,1.7135191210427962,4.81726291483676,3.761565340113336,6.956808362699068,4.31510735780304,0.717014870691011,10.677956921091,-0.911343667316716
0.0028861494398919,1.2090954041362156,-3.430850680909362,2.7384065934398985,0.1801688063335629,-1.8631146169453725,-1.9230765643112988,3.987136605185899,4.921181717546526,6.431727703428399,-2.257328995726783,-0.8278527595021181,6.983195959870613,-3.514190830969995
1.2748651656530998,1.5119432765928542,-1.6404312953878972,1.8940861709478287,-0.0111189429775096,-1.1168450311489644,-4.850366097085807,3.2276875959609885,3.490707952780978,3.179168846281681,-7.721932134785018,-1.8456690920680447,0.507600853969044,-3.919930859517257
1.1920047585875049,2.6121259392602383,0.988632208148938,2.0089784140399125,0.6002461488206764,1.257711254528134,-2.630573132089829,3.26009238273378,-0.1705545530112946,-1.4705861147868022,-6.304707802884777,-1.6225202398347247,-5.409891824115874,-1.790194094009046
-0.446392515844165,1.3183971813471127,1.893255551501461,-2.1478225079373567,0.6603963703578805,1.8334347572601264,-0.8328814237153266,4.22099485591608,-4.105997303248763,-5.930324923666388,-5.35888505310147,-2.217937690896348,-7.718318443646702,0.0804128623762375
-4.129515554776398,-1.7063177106882577,0.2275024423149979,-10.710780756941167,0.3441906441183674,1.4992372854801026,0.794674992032096,5.997036158838064,-5.966779892540541,-9.091460796420913,-4.783292128229938,-3.3315166949072608,-5.751669127130031,1.7179521981063013
-6.506897367570616,-2.976633808048084,-2.013164294550561,-13.4524502260742,-0.2694997749068714,0.6592141204089114,2.6779742790670475,8.586939873149149,-4.7218136783072495,-10.466124014514527,-3.6277130076426,-3.8338541176460894,-1.621981643110665,2.445817941235584
-4.448764132135565,-1.9304924552609537,-2.2005693481976314,-10.832653024333476,-1.4415174060067062,-0.7094196460302367,1.0365614479866123,11.8476379786313,-1.4865607065998,-9.91882560455146,-5.810965825322843,-3.982711453606305,1.3206785610169902,1.3408636308924309
-0.29365609777948,0.0371259035846492,-0.4965863264532049,-3.7649655330066056,-1.4693809908863495,-0.4482207698109596,-0.8755127057071752,14.800143492444969,1.2926937799834617,-7.575457329876833,-7.789047963566747,-4.11861870929593,0.6928711843224056,0.3604774827909562
5.770952626081308,1.8985229260585497,2.1499002967176706,10.259345990583403,-0.2964332103624206,-0.8000379368457788,-2.102479360434847,15.452239439794996,1.6846490218436427,-4.138967871409866,-8.589053021150495,-4.092754889842614,-3.619156018069532,-0.8646227231465015
8.884708523635108,2.169262196673959,3.6161758821891694,13.93534430182716,-0.1113914015712725,-1.4481717486909864,-4.136304643668504,11.859965918576847,-0.3662650514574981,-1.1164841496353928,-9.624195887871842,-4.623222878485856,-9.683683095038791,-1.9451674280209412
5.112371426197098,0.005301062072047,2.030299001452661,6.634994949480251,-0.6412819089544867,-1.082669679303841,-5.1923227593584045,3.9042488592258326,-3.2455555366267728,-0.2857495289498839,-9.398603891181894,-5.80651644641422,-14.76346791564463,-1.511322084086682
0.1161471434119407,-2.0913162718084304,-0.7424019489355504,-2.029577952297938,-2.5634778675062133,-1.5543990050677847,-6.029188004021992,-5.817367753052971,-5.146929684091255,-2.4585337900517974,-8.79977960857061,-6.739591488560454,-16.667075923518233,-0.5733006610977782
-5.255425264479827,-2.837468172243861,-3.293902013205947,-16.169880137591395,-6.403860707860421,-0.0166154817246165,-7.91927880638209,-13.219393823913965,-5.473658875744424,-6.528848020826038,-8.37194782187269,-7.579281062522155,-14.635859147863185,0.707576236199444
-7.16357889464169,-2.0511217375187267,-3.833908028708525,-20.12971454554345,-7.0854020014697685,2.333835019032913,-8.004920424747585,-15.52392493653042,-5.001214286375425,-9.852157372522864,-7.610052153982566,-7.944314665258145,-9.588344779701464,1.6973916350930405
-2.720974328523313,-0.2335033273569073,-1.4712252739735543,-11.972918594861982,-4.563049021080104,2.15745447688348,-5.990450725585877,-13.405890202361588,-4.81938949862321,-9.949423404418834,-7.45705269267497,-7.635816859609201,-3.673345113365013,1.2431920758926456
0.3740216078737862,0.7718094443059533,0.9689936692985104,-5.841563529608637,-1.6443973329110892,1.67374371574523,-3.587177288096409,-10.47388821778667,-5.131763724856724,-6.294725971181897,-6.932443414140822,-8.38844615712966,0.791538243555447,-0.0400142113412852
1.5569084107276576,0.5939430122201511,2.5017122405302614,2.1190633350436245,2.8083693539237267,-0.9890572177558824,0.7768889918063752,-10.270061570473077,-5.025220576267743,-0.7344660926119206,-5.861731534502596,-10.167506508946266,2.5247882274274573,-1.294780594093293
1.2494882362276385,-0.2921772387669513,2.0303178387095207,5.8174503105396544,3.967839286063536,-3.979639383519378,3.075663305895236,-13.279677388464211,-3.3910901848848978,3.834271880012517,-5.323014307588411,-10.10063936944902,1.835088274764746,-1.5852264001277971
-0.8988510689335415,-0.4451609052607733,-0.3640152080796682,2.943941864129315,1.1999348006966533,-2.960655238666258,2.186099975189084,-16.60238370010827,-0.1462704523165947,5.477897539249534,-3.118086446091357,-8.350232137739976,0.0700311065012617,-0.5007956443563664
0.8359320599385772,1.43977045469747,-1.1750043096869205,3.9857096848442377,0.0655118624392109,-0.4073353569453325,1.9691361282410893,-16.601198529523074,3.368796089823547,4.374651356609624,0.0459538245279446,-4.516649628603618,-1.5566391504534094,1.0823731555848122
5.387295843219226,4.084782646705586,-0.5977819014363,7.172155160639561,-0.527563669967209,3.747668479713897,-0.2038049807963038,-12.115624749922356,5.259838965883844,2.347023421158477,2.277925398981464,2.1565971774718085,-2.662337768865682,2.374880420418277
7.28658947100063,4.72646217850123,0.5353154191895089,7.730011091215368,-0.1920380220628252,6.563659582365011,-1.0188127383837993,-5.340998409879689,4.588049193898487,1.3615125077027246,6.196424452221333,6.245904432188047,-3.3178895299451163,2.3679767878378497
4.770673882366117,2.271030875760862,1.1041460695752037,6.996003606058846,2.0210310151908706,4.213162924059079,0.4567638603978534,0.2603242810194039,2.280797262400036,2.2640150572587,10.324396261951502,7.729185090558663,-3.189371894069499,0.9344793789074114
-0.936125333052986,-1.8395507238631037,-0.0490762518951297,4.3252309521543815,2.3941278959454424,0.3636081257776259,-0.1486424843015472,2.862282557702776,0.5765111500291442,4.56223060434165,12.788610374245804,10.162557261204327,-1.365634195365225,-0.3503820943884342
-7.7553408876049374,-6.154953860276957,-1.3981882384264912,-1.0077815553035436,1.144293838232961,-3.977676482150657,0.756887154935521,3.2780314586951684,1.2910471500562828,7.064357960552394,17.557466892062145,12.411661244790396,2.7458626142520277,-1.497871458100811
-9.670481468326177,-6.343629553908992,-1.7555421108660123,-2.0811445567111284,0.99888151179652,-6.058415692104679,1.1457537062434098,3.4526346742302207,4.253451180980204,8.6250160865328,19.873051984137653,13.327662032056534,8.395535751756032,-2.0117027500752465
-4.661045426603035,-1.6738256342450362,-0.2003852068412717,1.284302922169021,1.3624202106001788,-3.437049865504288,-0.5045578879961646,4.323640534532662,7.286438116660935,8.528575395767145,15.9491400519764,13.142657964669969,13.601864867172091,-1.3231088919029463
0.5670941811709033,2.470586574806826,2.5668276180497296,3.843211858322296,1.9497189814799771,-0.759428603686412,-0.1650662965349814,5.2460391619305495,7.9129457805618,6.626140806008063,12.746141626806244,9.62253985523399,16.5060401897894,-0.9708865701545674
4.992888494944588,6.729878870495599,4.4442520747208025,7.067699850889545,3.1674545876532987,1.0723403940146283,-1.0363658992323057,5.2161754626454,5.452574485444207,3.474014748646845,6.687907250468611,2.295021504193912,16.69086757765034,-0.5325485241486624
6.054770968970645,7.575745652133148,4.130820857879474,7.796597436158096,2.77277668562701,1.6917184740078852,-2.284141936115777,4.183554532727939,1.6854529756100556,0.332559448106279,-0.5231654771898919,-1.4213877847286822,15.145287618177,0.25435173308619
2.4860196795843974,3.208378260822286,2.335628173215366,5.079804006546918,0.6593116073784683,0.2710585558396744,-1.0126650178543133,2.904936829788273,-0.6039553790566767,-1.3584836338220754,-0.2816945199701911,-1.6489673017545552,12.982534148772476,0.6283007205101779
0.4280577269672567,0.6517507374398624,-0.2376185374382369,2.6867119647711624,-0.5891967396220386,0.0873065460225966,-0.6677452848058102,1.6832525263812377,-0.0109778614448812,-0.9697202881215654,-1.021259645238918,-0.9794794640797124,10.34674737844447,0.8790425188436808
-1.0116803249156283,-3.1459814968411592,-2.540741783096716,-0.3562979865616331,-1.378408576364038,1.3806069265476777,-0.130638230775863,-0.3219531235216895,2.2839484318037195,0.6499013697106752,-3.858524413871244,2.311475130373982,6.679691224319269,1.184080385701974
-2.203973268401489,-6.509425318088058,-3.180138252236105,-2.9250921936949275,-1.477743354490561,1.92952636459256,1.2737658260684943,-4.233170627449107,3.612245219502233,1.6621789208894509,-2.2345544232278134,2.2343184678608585,1.9476478237543875,0.9484513650310094
-1.7504726598048534,-5.4579628741490405,-3.448582761558821,-4.444751782413561,-0.3743731903442614,1.388873946849506,0.8113270646921742,-9.923922642481536,2.265612401711744,0.7456801755705946,-3.240974070573308,-1.5772081976744765,-2.6735833160501805,0.2282037762333997
-2.3191004710577,-5.831991343974042,-4.261629202433012,-6.003528748871706,-0.2994324796335071,-0.145949778601973,0.1163774314331443,-15.54508174571227,-0.9103454978326138,-1.637277595292172,-5.714071172855925,-4.940467771947647,-5.544120210567673,-0.2067257494071424
-2.633534228110711,-4.601448683294129,-5.0509402362254745,-7.114745720656316,-1.1440208253442654,-2.647258044197372,0.1498053473727899,-18.74283223327932,-3.221796685148276,-3.4672557244801983,-2.62020923812711,-9.235988930084888,-5.984019600014236,-1.359794109142684
-1.169011461433923,-0.7953124405278656,-3.891308528895786,-6.249488632884124,-1.1558685956807748,-3.3975994643791703,0.6343582383337598,-18.41996130403379,-2.489072166262216,-2.8235908249032144,-1.9436006286796093,-9.702860576352633,-4.8182525570150805,-2.260983737012445
0.2428295323793938,0.8549455224602331,-0.3952176806410039,-3.251880515017856,-0.6952709524658364,-1.387502656925785,2.1983764798062198,-15.363861884762631,1.0608393675125145,0.4792565705842833,-2.5334647628997926,-5.481029554106822,-3.4345598731156173,-1.7559548501563718
1.2104463288248637,2.5955341845738644,2.806216826009963,0.3085214870417938,-0.0564047297450494,0.1410006344135399,4.68113817512246,-11.273439008425898,5.022334248582723,4.752998482746412,1.4937962658229451,-2.0861812653876943,-2.388189187908728,-0.8904765891640041
2.251784696215963,4.332441617056122,6.061335652418909,4.810669871363917,1.0218954186838245,1.6998376958950876,7.679260088111521,-7.292827199401756,6.868276976783706,7.861343377734602,2.559952000027442,1.6775152953986172,-1.079334294545184,1.3216341986928526
1.9545773804529796,3.501984926964944,5.5802216276997765,6.436579572882447,1.1384185740728603,2.448275594655891,8.542220395838376,-3.480957335064644,5.955955181222192,8.830057921695339,2.041042589689806,3.2935781472395798,1.1779805257137088,3.136953255121251
0.9618637779532446,2.5046804451277214,1.2499964925082416,4.575928860180616,0.1987277480496475,1.0567681181469664,8.086993050220963,0.4777426489417564,3.774689383356693,8.204510741891312,3.19848609414828,1.6761180718334785,3.934954388924156,2.516576247162305
1.3681564173634833,3.378519984033,0.8627305182964831,3.721241795249789,0.2880510271746819,0.8675974616166992,7.908766048368327,4.298937129236081,2.398778078189668,7.041235685616725,1.2120197143910745,1.8727394665661767,5.64710160765085,1.233320430892237
0.9405438448091736,3.4699788806881613,0.6961590135577245,2.9324420761422934,1.1858075741087235,0.8808379250366898,5.533269776320564,6.983130585520729,2.6715289763375383,5.7311561862699705,-1.2844402027013166,3.1322239860456165,4.998877089562413,-0.8539193644862162
0.0212269067221026,2.858280804039397,0.863755135561185,1.8094862780807672,1.5545095286280617,0.1998183378182484,4.81170767062235,7.670081257934845,3.701866426180562,3.862865651627297,-0.6951230639720583,3.4401635007654514,2.134731859600945,-2.258690943502692
0.0899784141242842,2.063872883155781,2.608649222669592,1.0081766869235087,1.7117360684712293,-0.0769662205391559,5.836226898706208,6.526242878858725,3.9018237431473786,1.134966795614293,-0.4491165644828901,3.527857831444792,-1.4583396548330096,-1.1834741249473628
-1.2589220931578389,-1.3573979731534602,-1.360834143847724,-3.1677575661580346,0.8231881291528783,-0.7572055886834846,4.729312750507348,4.714990083121928,2.415931926658157,-1.791733244861856,-0.2137236554899434,3.079500931225013,-4.2004498382274615,-0.1525676168451719
-2.120819035204963,-5.008974622386796,-5.024566787848598,-10.88030343281232,-1.4015110383439766,-1.1785116577380348,5.3446253449997565,3.470023324259663,-0.3303800539286738,-3.5178178971678005,1.9912239378092416,1.8795989461020604,-5.421691534553141,0.2515877608617591
-1.469111833391827,-5.762973397741742,-4.865533459030982,-12.493118725054943,-2.0217957626976144,-0.8126284980603712,5.116814036556321,3.209055387416829,-3.177619607991935,-3.0646649280999165,2.2576987331498275,2.354601379765489,-5.164206698664716,0.2908586844494368
-1.2539638597642364,-4.4880509355692,-3.741557109378868,-8.114214187397401,-1.120209328413076,-0.3063374349521167,1.9300885935302552,3.5418445513358137,-5.068716716666016,-0.832832472427544,1.976182280695716,4.576344946780778,-3.31924339886886,-0.4539498102661898
-0.2892875456921152,-2.016919039243279,1.0225190302315468,0.2036164385091747,-0.1122265980922919,-0.1877380482265337,-0.0892401345717512,4.042314951463188,-5.415454176935155,1.6091954511680413,3.150069342637805,6.634580226206439,0.5490881042751461,-0.3406936186157874
1.0241911436403814,0.9822077970995708,4.123850944693185,14.88528531189629,1.6215419823514614,-0.4367380027391781,-3.4029427217660904,4.825388983790491,-4.064140543239343,2.7320710476261487,2.6118947447928136,9.044930887380966,6.197770748910873,1.1356983477868192
1.3839585039521254,2.5956329648040675,2.851450005979632,20.055366177640483,2.039470559850728,-0.5366727645866524,-6.126685020196946,6.213755367399824,-1.3897425484552943,2.128097483269487,2.9429505163440304,10.127401571840773,11.645141595379505,2.255177732220168
0.9675726732053588,2.37006406239163,0.7756557924656453,14.881524730358857,0.8834988806247999,-0.0831808973596061,-5.91287978257917,7.879258677689569,1.4453805567767368,0.5372798600224762,3.639705721641673,9.470174825182845,13.689915086024488,2.034641333499818
0.0214926478181329,2.10400039941478,-2.131869799861242,7.983286867706403,0.0354599503466023,0.5503469375992067,-5.964774126013419,8.59389990807874,2.7300386978836064,-1.0313888761842716,3.0025477657402564,7.72924341648764,10.217529942429127,0.7383160805392863
-1.6006538815651854,2.3338516142431995,-2.888482552782236,-4.57208310036383,-1.0027913907925656,1.0635316369767107,-4.9429290624529685,7.190387401221207,1.34308801514846,-2.0981090711401,3.772285891285248,4.289341082802483,2.437529394412397,-1.492401495705522
-2.729539741810614,1.1303730906472804,-1.0889039277819317,-10.2747321893349,-1.6843201911810262,0.8501015739068745,-4.568452729911573,3.954778930940208,-1.994974624697056,-2.7034145941897583,2.510181423521072,1.1690954004297454,-5.292229813571885,-3.0097436678608447
-1.693358730075979,-1.1032303247377726,0.4839539937249063,-7.698452548588899,-1.7205118130334758,-0.185042779642297,-4.920753388549215,0.927474569508151,-4.825739904689792,-2.8629555628945003,0.473465192047689,-1.609403157221132,-8.476392799545513,-2.488632341286737
0.9444978540982194,-2.5173772312292115,2.38488529151054,-6.942211822836125,-1.6172745483062283,-0.6256481552459251,-3.886944531018367,0.4528535672362999,-4.867149521250936,-2.3420061181118257,-0.5734443636397278,-3.734505970164889,-6.027307201869288,-1.2528689605654812
4.47113476866739,-5.60217026422947,3.3570807858607203,-4.9010455180947945,-1.131446544764828,-0.6161268741417354,-3.883931588635276,3.090649563730496,-2.212796776075868,-1.1189751788394906,-4.681708880030741,-4.623137662392264,-1.1900430513833964,-0.1374953245158812
6.102383221952715,-6.287142116566362,2.5716109988778,-3.405367151380401,-0.8529022040135157,-0.1593732002294419,-2.549639576446693,6.881588927405176,0.4593283970378339,0.070578655114907,-5.339615722323861,-4.980190603017848,1.1972405382354898,0.5305249585301204
3.715136144238933,-2.314275822363955,1.0598414969383392,-3.642252701387913,-0.8324250379160513,0.6236919761075774,-0.8810038123209505,8.885976963964401,0.2611835494012933,0.0006349984322699,-3.845166999685545,-4.457166319797366,-1.1525138293614656,0.3423848965002688
-0.6446101121403474,-0.4564308720119364,-1.355817981053122,-0.7518400565371308,-1.5090660671030245,0.1634144007730864,-1.2759050755726309,7.777922022697645,-3.033094876407688,-1.933423154266108,-4.843609277913073,-4.134432166623747,-6.088351882691977,-0.0658293846131837
-5.7651135499989135,3.980750326506487,-4.232532886200736,4.7180417578428,-3.1113941584054325,-0.4688940672362777,0.555243759344713,5.142781143968669,-6.531926029911565,-4.82976584581139,-1.268694151626064,-4.09549853585796,-9.094582699008289,0.5511766723893501
-7.475509595239061,7.8503533007054465,-4.795654220617895,6.783982463250614,-3.406050285922844,-0.5465134283152989,1.401185432725594,4.189892372030972,-6.906796683341161,-6.7363841543771645,-0.3372609317918084,-2.550416190007044,-7.443767183013096,1.3463554402258535
-3.830881385813046,5.417845901044737,-2.2367540504240653,5.8273857139398375,-2.419105077161613,-0.3569417275122756,-0.4157913638904348,6.935104797858656,-3.7360752132248383,-6.298020623193389,-2.906987149153633,0.3501618329014487,-2.6664072021331826,1.3756288445434692
0.4785443581838811,4.9774571696977645,1.1970039536037622,3.3499579203609597,-1.3670627917053495,0.8292527444082485,-0.2010690315435466,12.338527677587104,-0.1478196938058662,-4.092897510231872,-1.1244589445177184,3.788250319720684,0.840795372959998,1.4014739749852692
4.979547672212852,1.8469835779990889,5.43459492913034,-1.981156475925678,0.2264598819516583,1.5302926992069938,-1.8165516061043503,17.047413209436417,0.0714996688803299,-2.230385419076235,-3.125243648797595,8.092391143992948,-0.2889079897568773,0.4471178564322247
6.543851404739706,-3.0585949726980486,6.770313162894754,-4.89063857292874,0.3145427285494888,0.9271399792103852,-4.661799804475901,18.072593605726333,-3.801728858662287,-2.4065303498289925,-4.792121723752621,8.372807631085532,-5.525397771352788,-0.69173631640214
3.2331148629350093,-2.771535905381538,3.5142740379422865,-5.156536618533106,-1.3845247904855555,-0.0431806709373867,-3.938410908135465,15.069551596340718,-8.542566150269037,-4.248516582094362,-2.15269607071708,4.076998573041494,-11.034479958034323,-0.6454741829268209
0.4035979549008711,-3.0574423199226017,-0.1531760495780929,-5.568759612298005,-1.6527160735422597,-1.001085581189142,-4.271116574477102,10.380387204173813,-9.898321892410074,-5.661483464534456,-3.1812144110461547,0.0951168410653476,-12.964045133690242,-0.6798812154259424
-2.491422970419408,-1.8938614737095296,-4.586103754391611,-4.8682331361794455,-0.8721930417040091,-1.198053397913471,-5.70062523742099,7.044994163043327,-6.545370875159634,-4.951945398177269,-2.5516084808519555,-4.742217175253379,-10.401672336604788,-0.5653428433308681
-4.297142132661507,0.7842709972673579,-6.382814616761296,-3.5720810437642814,-0.2164368122963736,-0.5567252454299949,-4.838905484133366,6.631490057250545,-1.2538081156715997,-2.627149635065232,-0.3590937916445833,-6.46130582562838,-5.599044091114207,-0.2633527192730545
-2.8474895279103154,-0.0754771191985652,-3.6213725426154495,-1.7884565330399254,0.8662603190114045,-0.0227979770815151,-5.673179663733273,8.538520741211329,1.837439681781664,-0.9658852630812192,-1.7348982330534506,-3.972642146223013,-1.7042462341344802,-0.3816719945142785
-1.8798637161422416,-1.5972467698675676,-1.581579877568852,0.2066355595380974,0.9318859833008862,-0.051458009960028,-7.795047970023787,10.83561296531785,1.112144988772929,-1.6854853603210316,-1.8809812429188,-1.796604275968746,-0.3211373666980925,-0.1879485878336321
-0.430845634283291,-3.089942530715817,1.273701118382388,2.235844863183099,-0.2005542857011898,-0.2751344480993682,-7.479054202258766,11.472245184064146,-1.2792095233024623,-4.0547979017499465,-1.529230022351093,1.284666482587559,-0.9229445974791092,0.3767865739068388
1.931867802606509,-3.5022846557235665,3.7372724926347134,2.7699133598399155,0.6251631157560505,-0.2833941080596112,-6.730567078454829,8.93229964891874,-1.909703241733972,-5.444935890218169,-2.2433654803505987,2.157670972106763,-2.087158736042852,0.6400062514863281
2.642265760092674,-0.915317057141477,2.635580318734428,1.467824087623083,3.250679018966003,-0.020623696525659,-5.341832355768922,2.5092685813909448,0.3802308819943505,-3.8295871495069136,-1.609888247862885,-0.0223958508050925,-2.8811657739069254,0.443592840796814
2.2842485191584347,1.8762645677359624,2.066055270315061,0.4129603115999222,4.717017306414265,0.2877892573032747,-1.3126930145058124,-7.196679248921605,3.525926967721592,0.2739740058513682,-0.2449825418650806,-4.07133569978785,-3.0384631592777325,0.1196999982817028
0.9672487839189746,4.073992668312076,0.190734204835987,-0.8122005103726795,5.507026776171693,-0.0056248306610777,2.999471586128833,-17.75482557382767,4.701751154948042,4.328865733099498,0.6686581361735675,-11.167125400990765,-2.2374712826039342,-0.0942640013520895
-1.7434127801156014,3.832557075050807,-3.347893495728546,-0.6965598708830132,5.0969507878001865,-0.6188468989340244,4.6691204891204485,-25.40543904728876,3.431384550010943,6.091201634547648,-0.4904644111760099,-14.58422743443709,0.1417245789635366,0.0191937990115309
-3.38698651742276,1.118880662275562,-3.796069749068804,1.2464876770357525,2.870288881583808,-0.5208823757313286,5.71045825103276,-27.099872143172696,1.978756176918008,5.282624265755143,-1.9841540524749155,-14.008625944992565,4.146964070923087,0.3615028405555393
-1.9112508351222108,0.5542461483497823,-1.91655513356888,3.123710617216973,3.504402202209114,0.6295952366426298,6.899460106402231,-22.853568286011843,2.663164524213688,3.126378160044599,-3.8429257767269593,-11.698808887970856,8.28381365591208,0.1505246953794853
-0.0182804190322594,0.6633132315181388,1.5274708125754937,5.4227757778289,7.004301980309068,2.7605854179987306,5.871951407583441,-16.188165997271856,5.100604211456883,0.6989676634152673,-8.3176576999307,-5.874242493750107,10.000868098701236,-0.9875139244524728
1.5896366082760096,1.176503368750744,5.0390036196025845,6.146999455682286,7.784093066543182,3.897197885216444,6.1313815524666575,-11.727763018269982,6.438469002211363,-1.8206352631359335,-8.247687260101397,-3.48470627976054,7.749596384775707,-2.032666289993829
2.0344150381649784,2.306869827941414,4.612488510403916,4.859879217053922,6.556411006356069,2.5670618812694745,7.265135692023558,-11.691949913299712,4.381678876247861,-4.310384700393669,-5.673701611250708,-4.849647106533452,2.759305661218505,-1.846332872205056
-0.6466841318333185,0.2474030414817112,0.4519781847059658,4.9778225999349415,3.1838224546011578,-0.0233024422050235,5.634175966147386,-14.371143086118424,-0.2189706745905972,-5.7082373950067975,-5.317865256917871,-4.798922690750666,-1.5402393220448758,-0.4983648062347657
-1.768392662651392,-1.7927795599602092,-3.643027594035598,6.065426617792249,-3.509307476867168,-3.252067388051377,5.062222782967933,-16.016998749341006,-3.964128151417462,-4.538906946270384,0.1695893255753813,-4.851698375434684,-2.366949907964127,1.87582816491977
-0.7880842715612786,-2.4992785961768886,-4.9639035947952825,5.921123045924875,-5.262725045265193,-4.6044209182265385,5.499245755751853,-14.364203537743688,-4.04855493078114,-0.6730180904039678,2.992623151746725,-3.0178168057675427,-0.1626623716676327,3.444986768818646
0.4448613145647924,-3.461081556849851,-2.639143800101165,5.009004037290189,-1.9024945104565991,-2.873257122284113,4.18821476684206,-10.448059760470828,-0.7174707860088283,3.7715127528808345,1.0605419081068894,1.4778893681243914,1.7379246057655813,2.5188988230838847
3.4506503652531624,-2.724392476742887,1.759977223083259,0.5262112522170699,0.286391450499084,-1.086244828106938,4.02988971339207,-7.138256655748062,3.295674053583724,5.830878918946304,3.5063830364913984,3.795060922053183,0.3177190694734975,0.3974090336108447
3.936916757084109,-3.454210566173137,4.247050129483373,-8.189157430197332,3.021077149678823,0.3861183468188062,4.456086433248719,-6.087680558931368,5.470102720887937,4.323736839829479,2.675518430771815,4.366401940101448,-3.965361521819887,-1.9971027352374453
1.5817508920403474,-4.015844100124466,3.533947413251353,-10.845826045386524,2.8817088576361938,0.9804435400571916,2.6723813054050427,-6.233159486014323,5.461268742658312,1.0593093868548102,0.7981949623665208,4.079374134952211,-7.1887538513087,-2.9953719832153016
0.0699481657391507,-1.1949904372631728,1.4246527865835477,-7.527516261699962,-1.2607991556525229,0.1752605184866603,2.0293135507919278,-5.19213166099766,4.6072030473598495,-0.7656407793413749,3.1698524679076776,1.9489080591666483,-5.373162464956295,-1.514614805914248
-2.2679433740219195,0.3515853670633379,-1.1791113965698292,-2.736428560823641,-2.6522380230785165,0.2383808147858196,2.356137735615748,-1.885803152541744,3.995356049595845,0.473334752835747,2.457073954020852,1.453647593026201,1.714267340558724,0.3717338162330209
-3.3011747074066333,3.96926029870148,-2.1610813052326607,5.8749479786896845,-2.1224271548079976,1.241305245020455,0.6226623498498951,2.3585108090510225,3.390358683663205,3.389506912353312,1.614654820327397,2.6588835154437214,9.84845073818972,1.595074179908747
-1.857716503153,6.685127697589395,-1.459250109572806,7.428049643836344,-1.669600386140125,1.7755879021958738,0.4381066963706497,5.169513491661405,2.0082813045786168,5.0322285074985125,3.0843283786127467,3.111469929068082,13.47725159436042,1.560851046084652
-1.022019124437549,3.996081929635776,-1.2347071925059043,0.8742141553341527,-0.128504516680462,1.5687591132492196,1.0811491386641758,5.336260016701978,-0.0418153976890494,3.727467030679744,2.7654153289861854,3.5274036996314115,10.05220430066494,0.1916738524475646
-0.4403161456868276,3.602215462842912,-1.196576675462104,-2.299683438946898,-0.1417744035990417,0.6816397066029665,-0.0085083626925696,3.6186681727930985,-1.4405410927001403,0.5462180031573922,2.768780699406318,2.7576659312576424,1.935098105902199,-0.7353457152354491
-0.2591878254117966,1.289272585253084,-2.152029097322141,-4.455381352721972,-1.915984884125328,-0.9750534244298708,0.8285732403552746,1.659610526176028,-0.856701576573089,-1.8581185513287368,4.0354621025904285,0.406661411781907,-5.5635894905482814,-0.7937022400512337
-1.0702449105277725,-2.5160972658244463,-2.930535068001872,-4.700187292490931,-2.9856959748795444,-1.9073079501927688,1.3062016307975532,0.4665147264612255,1.6413937167614543,-1.6980572521230537,4.203267991608106,-0.3594468228879623,-8.198583307188883,-0.3333476050837399
-1.5120605524200608,-2.648460953166331,-1.9458832592400843,-1.112657932225573,-3.903232218557174,-1.3677925962730078,-0.4002279723906656,0.0321013761063655,4.445765776580036,0.6074834899793693,4.176249451062714,0.2699836971330804,-5.552589981424014,0.2864833624477588
-0.8965056238166107,-4.181412758332644,-0.6201744961323552,-3.5077057379618948,-4.320564229853916,-0.5283780141838519,-0.9078501031389908,0.0811455955361477,5.662623647953224,3.210918042738218,4.596269892365979,0.6076301174293262,-0.6064413596458529,0.328967518774005
0.5409463077874012,-3.469753994802827,2.268810700088656,-11.657761565190018,-3.834243808711415,0.6746372296897833,-2.1863996626726268,0.6756631915374358,4.521807406918047,4.575189477886891,4.447137775033815,1.242473703907755,3.0524177832258816,0.1149868251709345
2.38660013942649,0.572728890307459,4.8426724560685335,-13.373990526739473,-3.6621667268996303,1.5160154462420563,-3.5779166412183154,1.8730270143180512,1.6910823211045702,4.348768407790256,2.910691474236379,0.8710244965367674,3.8313816320785534,-0.0008698150729188
3.8000639582036015,2.5616978258818364,4.832807355028342,-9.93899474989,-3.627295792809088,1.159859843921769,-3.061698830200006,3.0607115586179345,-1.5680015694551035,2.858123818474204,-0.3249359751103923,-0.7873740152882849,2.6096228058498245,-0.0073187460602492
3.79579586870561,2.6906545415531715,4.355560674072506,-2.78234765846507,-4.210189912437876,0.4662770562292802,-2.940826568747505,3.127771141337008,-4.387754055458574,0.3179403809572654,-4.25119913586756,-1.9778976535158732,1.2407907912009235,0.1669898697679655
2.666494625974701,0.1715226018227253,1.8560340061252067,10.649598483006836,-5.682691429880539,-0.4475854236386853,-2.5642996191137883,1.592658602728454,-6.492506352159857,-3.068894850766555,-9.581334536800398,-3.018830054436956,0.7889339285531465,-0.0471544631052007
0.1928426897670529,-4.349013885877179,-1.8447768400620688,13.676573239625338,-5.861054049593188,-1.268572232029495,-1.835602610303646,-0.5387882566310314,-7.679478178422904,-6.366301716883959,-11.741865118049205,-2.8593316898349226,1.0002241695140637,-0.4793535692279381
-2.473187573800618,-6.046460745729385,-3.309182999381498,5.577749356144922,-4.802308362225157,-1.11027646618974,-1.43830101967109,-1.363247452436296,-7.443824039040341,-7.842155381738456,-7.603575388528933,-1.0930346264017583,1.0799689655562847,-0.5208241788081679
-2.2543345592750663,-2.7794350115580637,-2.617374704615525,0.3637664891942658,-3.115590864814763,-0.2705478586569182,-0.4901530735248964,0.2333550191087319,-5.349399613519649,-6.218348903560443,-2.608844909956608,0.7414924830739638,0.7070302730593632,-0.2969887023350003
-1.4468034852442546,2.3281606926091563,-0.5023677145579022,-5.499625990787633,-0.2955771034229176,0.8506502262731777,0.5746232231473296,3.455444207705675,-1.7754994402838342,-2.1258218484805624,5.061578099255371,2.998014334098363,0.320354528307341,0.3931199477702827
0.0364337155880626,6.618279571411285,2.0626387898808405,-6.596402084783303,0.81716005162421,1.7828512950542716,1.7509927156433918,6.262682180053186,1.896068240434705,2.000297537797437,11.115024673619144,4.587634228179218,0.6286662923501609,0.9521399484519608
1.9356603858471737,7.614847399618244,2.392664164599421,-0.4846568896785153,0.0448097979999525,1.5229107638876496,2.6505613157790946,7.214818956356098,4.084499615383201,3.895520608968315,10.623380227769122,5.186796296932263,1.9682794346418573,0.6361883270047956
-0.55466653112789,3.830278040513877,-0.9980884043264396,-1.3180393021319474,0.011008399049421,-0.0413615304774052,3.399206553203968,6.641586684964224,4.177011095451608,3.519162385611107,11.056126472368351,6.77194504500489,4.048848321362701,0.0238427460809461
-2.458331724863276,1.452751102069889,-4.326558873553494,-7.802811967161323,0.1101947660110055,-2.0433785644586617,4.592264488802414,5.986877792480428,2.9758724620327754,3.055044127795988,10.884745833903674,9.072565576059134,6.161733374951936,-0.7159527080189523
-2.3945017920088763,1.1522246908979137,-5.058595441674451,-9.982168708600618,0.639432644901459,-3.236927469619211,5.537852511550139,6.098014597443964,2.0035880045544587,4.7366515535711216,10.379350574579686,10.745865106602402,7.636737003174787,-1.09052362910681
-2.1231373445981667,1.254853701797599,-2.852951152881995,-9.95448259920351,2.0122961598733835,-2.740068109073952,7.325054566546078,6.312214813004218,2.321026682711974,8.64911867839244,13.068078238343949,12.039318832688991,8.298372614561032,-0.7344112617441877
2.0822214498244787,2.6763113284731403,2.157866271890444,-6.056262450100765,2.397166414737612,-0.2611863985576013,9.461449172358597,5.284208254490423,3.880881858196389,12.700925645882336,14.24738041793093,12.89738361366662,8.64224047187254,-0.1224132510980514
4.826393688151461,-1.2172649805352604,6.196117355898635,3.5416864160954358,1.8969275689307843,2.793060323120398,10.949807924835929,2.610548594455878,5.7978820323862905,14.674725938195564,14.708245971690385,13.06607234081542,9.453302470365408,0.6913859872662965
3.669924158595132,-6.755731661014607,6.12636294208968,6.724077064947182,1.4838807126567295,4.081703579910563,11.453884862612991,-0.5236337548707084,7.058208241107465,14.141268379962384,14.50878239512573,11.924124083716928,10.92848349537502,1.2707820052868215
1.338030184058236,-8.270939497013494,2.431911923469121,3.6575906225470014,0.8216085819021562,2.9758724045038982,8.438320006633317,-2.364624953205201,7.012295511607668,12.343367433101584,10.770541568676023,9.258525263090352,12.00833933358502,1.2291423596395834
-3.729074669057021,-10.011247326144554,-2.860036539767145,1.2650864621129077,-0.1625488809909501,0.1887772520414247,3.747605667756351,-2.1773812457930646,5.487558232710974,10.466133896282557,6.7247697370409,4.71163128443464,10.831130337733027,0.6794039647460066
-7.832101506778959,-7.689824954352304,-8.296298795121883,-2.9628387600905204,-1.3902484863951814,-2.790614936985032,-1.4695581528944108,-0.7443575662519635,2.774105521004813,8.382839363010348,1.5743114488095475,-2.060952803327771,6.374385638956312,-0.5002678820998853
-7.428930875617357,-2.5532221659840406,-9.88007534936933,-3.4874087194568824,-1.6917418732549725,-3.8631098914149207,-6.271344936940127,0.6530274266391984,-0.3992484368443314,5.207282266140673,-4.825961981729471,-6.244538040881477,-0.0470364879189872,-1.5914371633424498
-4.124853920029691,-0.837807050538007,-6.097172963369383,0.7814549109927731,-0.9378168803745104,-2.293162904611433,-7.030833153104447,1.5724229431653498,-3.0982385148131826,0.7986806694335726,-8.457126804855019,-7.650163295512318,-5.180237328998132,-1.42783080712289
0.8849693844692067,2.752992455532179,-0.8136144972746483,5.0988042904664965,0.4720363341013912,-0.017917344995259,-6.906540797670972,2.6070350469065886,-4.720050588113068,-3.6916888019623775,-12.759742438762837,-8.058650097968169,-6.407449120867405,-0.3765173260705673
5.65442796608314,7.65451867431885,5.78775535324482,11.037440520583171,2.902385227416762,1.8044036700199968,-7.523117869043633,4.305232800405939,-5.445235198957278,-6.922074320911648,-18.76148204031349,-6.209718662027041,-4.449753270481537,1.239657741578017
7.032899224492565,8.592660861759535,9.921545068504274,13.891341510324294,4.195308297955712,2.8190813577592766,-7.157823973477164,6.102988624015083,-6.050477574742523,-8.787706453850674,-19.49466113221556,-5.027085916340492,-3.3896883154784376,2.4537873200227427
5.244039456471319,7.922290175681036,8.258975344226135,12.791198430667077,4.230405048335599,2.1513598633688287,-8.036343344388495,6.532594310030014,-7.089776931697656,-10.414350646007849,-17.539980155493293,-4.584162754785941,-7.272256379981009,1.685740832521265
3.479826279505125,6.730674342794629,5.718794021462946,10.00319443760058,4.6219299317674745,0.6615213020670361,-9.520833265894757,4.569191927918965,-8.209106426074918,-12.611370863604058,-15.558483265979866,-4.321439104839169,-15.91555705991768,-0.4550388593401321
3.065613141635804,3.131623921379893,3.42503176266971,4.015997455200164,4.878337277621085,-0.3408266232326857,-8.931790192537614,0.7358610721738188,-8.392394752501652,-14.535736280466828,-7.52491140215399,-4.986010385822428,-23.94146949804702,-2.7524560093161097
2.889369716959308,0.0605391533086489,0.9333929371719658,1.6750469103963963,4.581997923997555,-1.1985985460705066,-8.688739717832247,-3.178586502259293,-7.035422472175306,-14.24278456826655,-3.136123095550651,-5.137526314899291,-24.609235111868703,-3.5847247201025136
1.8928989134271568,-0.9888957672159108,-0.0894499477626067,3.419201171122064,3.8572199768315927,-1.5871978882844164,-9.69937757997309,-5.528730661121955,-4.793843754420166,-10.779629861473303,-4.401393074040795,-4.90012525249942,-15.618553688987788,-2.050412837533877
-0.2288935435338747,-3.031465980690688,-0.87756322331323,5.107893997181996,1.8816870631434772,-0.1545156229248694,-9.280082194161904,-6.005682368522912,-3.226182762007923,-5.673158615701183,-1.278323879103255,-3.968729089375046,-1.7679729675637574,0.6737707892668641
-5.30090757669444,-5.608046363905387,-4.515149322355856,8.41746218661111,-1.4982005066941677,0.9603030824090178,-9.370796431169456,-5.576434851772135,-3.4041318861882246,-2.075135328729772,-1.6060883658308405,-2.012744972946933,8.288329489118311,3.2176126340935265
-8.649597948447056,-5.527612370671421,-6.845991160059927,8.216727508194799,-2.782797150937327,1.01248620133485,-10.140093620052657,-5.398208648538457,-4.786315859993735,-2.131255218332136,-3.003571251808208,-1.7735420309263308,8.763389890610625,3.569742185161757
-6.806709209911575,-3.8082679820074232,-5.64122968255056,3.791384155385752,-1.924617282766958,0.7089778761524566,-8.297715330446046,-5.830141470059992,-5.554600441678751,-5.007349164342628,0.0751499116131138,-3.264809594460498,1.23053253234378,1.5533572420238924
-4.611888752603008,-2.918137005757973,-5.578154353232542,1.2090234917323623,-0.2259571908634845,-1.4001189713195612,-6.473887093614849,-6.373168486637191,-4.27075239459419,-7.505308126838599,-0.63503894351099,-3.7262000545365024,-7.014590704554564,-0.6138058596429165
-0.1009654917382772,-0.2681774283188061,-2.746291318828169,-0.6765923729697778,3.1816273740262244,-2.727679840276483,-5.374667966996262,-6.370288925016229,-1.3637655339752577,-6.782508609119827,-1.9973324499567973,-3.635786375085375,-9.23271319630642,-2.5179349066707126
3.870127584707424,1.6551745892326388,1.0170301543725953,-0.5633537184719504,4.728707642452262,-1.8544307899581132,-3.225492613688397,-5.660622915607522,1.042575913577462,-2.7175355349844743,-0.3053037300368906,-2.494469598787843,-4.618726462660824,-2.8499138218014326
3.037783901580166,1.2549859937068435,1.369823390987307,2.699560077234532,4.179763019456172,-0.2867608780513294,-3.438821618223931,-4.635958514717441,0.9730776653792894,2.151058332799394,-0.4652552693837292,0.2507601881732336,1.7758310433281288,-1.2159876079725749
2.5733750649424003,2.7838635576010624,3.4880260955302167,3.01569498597974,3.364678520433787,1.6622212653975366,-5.023271589221126,-3.8387998799558174,-1.499114286115674,4.894443731575013,-0.8403691473775645,1.178271140910785,4.114290275076723,0.0836112585337665
1.8881700460926547,3.3919536337000493,5.057383450337496,0.7267061788881706,1.3753651270775002,2.244108041857539,-5.210651166099157,-3.593945886439638,-4.108361992737482,4.509179367688725,0.7096471546595986,0.3693927627178864,1.03107293123435,1.4660299762873472
0.495090883483785,1.9058097857938745,3.482323374097134,-1.1823819023978597,0.054236738532434,0.9983350816648944,-5.761541859650346,-3.923696478709104,-4.266592308528434,2.3126984450362027,0.4546790665737905,-0.0048394149439698,-3.54583177265004,2.214670531040717
0.902042528546478,0.5474493817339754,1.7752248572779776,-3.868011896262885,-0.424097750773229,-0.3835740019807086,-5.239168069499304,-4.599030885984533,-1.3106579431215,0.4010043647622154,-0.7905138222113237,-0.6097073966446063,-4.364345465961881,1.282893991202377
1.4142250478320388,-1.859822617809248,-0.295433483689649,-4.111469273926379,-0.1300142251412431,-0.8575862411959034,-2.9335734738130146,-5.122698494906819,2.9238029371335994,-0.1552357663336625,-0.5809920663193493,-1.0342738671266922,0.265021537786545,0.5568779430853056
1.1072413355986432,-4.5393925386088165,-2.9232338908787887,-1.387286013882188,1.5042873269914847,-0.2808895141804793,-1.71062338825393,-4.729294050321943,5.712211237007862,0.2032028301401585,-1.8009929069125308,-1.002444921052821,7.007964145710878,-0.3160102927081547
0.9401481105103464,-4.529114482342531,-3.0298615051051505,-1.3413123284587998,2.0740209154344065,0.5770601903749382,0.1019031628174594,-2.661639945649971,5.713394458415149,0.4163975369403503,-3.5719459100125603,-2.2221841688685537,10.469809868706957,-0.9464623986839418
0.4697332000763464,-2.232255709042588,-1.0316259796294225,-3.4045814591682064,1.643768436680832,0.5675137722465661,4.138406378290213,1.265733785381526,3.8348048761876026,-0.1119270418466689,-3.339576454481983,-4.627067752431707,7.710303591705621,-0.2150753355349704
-0.4668617308909474,-0.0557114130601781,-0.4565980387673634,-6.438199408684628,-0.8986123607660058,-0.2830855057318099,7.830093305001522,6.242472001347677,2.0650423876396897,-1.2605633788148407,-3.77545078734518,-5.638670552054923,0.4106053743470044,0.1285599292476267
-0.8008097554296021,2.7389780602975,0.0711017886553906,-11.561256290340603,-6.279752545941143,-1.1352197955531282,12.651349446966853,10.68614027850525,1.5886995030297637,-2.6631232887851874,-4.753219979892215,-5.420493293351322,-6.846522790785485,0.1061387906439275
-1.0356792437318838,4.120745571790986,0.3130893730867427,-12.285429233403775,-8.61460511643627,-1.091885088959425,16.845578986691887,13.134974122534764,2.004863901686337,-4.094506052926565,-3.88450278170017,-4.662725545677828,-10.356625450065424,-0.0621559437377326
-1.691812556721918,2.876386536315575,-0.368364295396516,-8.235219084257187,-8.021082072138194,0.0265144241508643,16.476159357355154,13.184034075210306,2.1726734055047743,-5.342255200181823,-3.214075496244152,-2.802748585279217,-9.844207246591807,-0.8852304531895693
-2.4026500153510746,2.723255902803719,1.1534149372126536,-3.942710811614007,-5.099585190593221,1.1065123418638778,15.601456242125646,11.69998494912997,1.5773690425988036,-5.961954273054239,-2.8996862510110897,-3.0930185641251318,-7.889393224972712,-1.1500541377736362
-3.882226616077179,2.78661099347716,3.488945601108281,2.109784823313327,1.639552345279467,1.6449788423119125,14.225767672725953,10.116298933450311,0.8039009407717845,-5.490462117009523,-0.685922556146956,-5.748717337848832,-7.11225157353328,-1.0774492398891873
-4.182035745341011,1.9592474501772996,3.979011903758663,3.367761444495029,3.9247649717443815,1.1308427068251057,11.283890897168522,9.377702732577085,0.8205461396486022,-4.017679403850815,0.0660758750720192,-6.498050479656029,-7.751395395193832,-0.8131036825170177
-1.8683871025437409,1.213417769141286,2.651009136953112,-1.2329016829238282,1.5802762430020905,-0.0771491640599708,10.05691472361215,9.351545720235318,1.9616130308058963,-2.3906688894667454,-1.1008055716162626,-5.911240346459,-7.698844613853577,-0.0734971469563891
0.4802864525354836,-0.9488741963668852,-0.5345111867361219,-5.386525864044347,-1.8293035306536067,-0.732130577684502,8.294569495234999,9.060507227453716,3.582959788467217,-1.6041671717994357,-1.4101433760620754,-3.593592541186212,-4.812787626076091,0.1772812012488089
4.120622045966182,-3.9815483527756927,-4.403092203169947,-10.821229753011668,-8.290911605292196,-1.4291666712639393,4.208112498838084,7.426494839187704,4.544330584927455,-1.8669897760806224,-3.165213859354644,1.359648509211996,0.6562502044615179,0.8474408686577953
6.342477716962796,-4.550145111938579,-5.42434327835585,-11.890784987149384,-9.645882726050464,-1.5117729660488004,1.9815030337746429,3.9602962005493048,3.9921436103655674,-2.31654050898538,-3.2782225340358457,3.88346168810706,5.793452314874575,1.6062432375310285
4.346394953307686,-2.88907598155532,-2.974499344896252,-7.278342114457217,-5.195022480317647,-0.716667951957442,1.0952402453871557,-0.9333812534477772,1.9261334522978688,-1.7494615273034562,-0.1602120012656174,4.057083206596957,7.3086019226613,1.477826590611664
2.961306498781432,-1.8309067452700616,-0.0828726071807517,-3.2792449361169607,-0.8610523413561885,-0.4435408959055534,-0.7964376859758594,-6.049348489907857,-0.6506349429499316,0.32388013101259,2.577803004969629,4.048230670098432,4.489614728824876,1.5746507932934246
0.4719923129190716,-1.1586701949746665,2.6351855149543595,1.715162907164351,5.344193981375872,0.7892824578616147,-0.6941232894045257,-9.81071998378253,-2.0940571922492843,3.314264844096634,7.137358630588559,2.744909403919453,0.156432774091435,0.9168116751924512
-2.228520509219455,-1.5451966439363964,3.220792336975325,5.12517614378635,7.289307136628604,1.981428755684508,-0.4718798708428281,-10.976769115913534,-1.0463730681056411,6.131972272332906,9.548694615324967,3.5432723816456027,-1.469866179709186,-0.1942719254813099
-2.102926593408364,-2.882341731887582,0.8818186063801785,5.895980730177701,3.846534032974689,1.3042181389175955,-1.7292867920221722,-9.378998901782849,2.430397674588992,8.013174017817896,8.40120736983134,6.770883474193588,1.65862670479682,-0.4392449266688568
-2.1452448916551736,-0.4500272936370394,-0.3338798976401045,7.777626513379947,1.773165947816202,0.6178631664159373,-1.104837199430158,-6.169750523318381,6.436224969081351,8.816657925385186,8.350940661463339,10.445399672668836,7.522558048298148,-0.4346112700947053
-1.708260449026863,4.074245849469068,-0.6668679692321035,9.90430011506762,-0.5083019302316819,-1.5200987629905789,-0.2138126496351325,-3.199674136706335,8.288691601880974,8.761949199495415,5.853575507617152,15.45186458288859,11.645362368896588,-0.1645439444196045
-0.4895191146918836,6.143513431520699,-0.7849704994603354,9.82819092487464,-0.7826596629441528,-3.537054419888671,-0.2715354048745905,-1.8146865252067848,6.5902533010494935,8.155039954031238,4.2058335579381465,15.476066879148869,10.900525414458016,-0.1801087306354323
-0.2147780255548875,5.649003973854731,-0.009970325578525,7.807790588139649,2.123538981452114,-2.202008619659629,0.8099448911105349,-1.994490107820674,2.589361288627522,7.38808415620413,4.911450061376228,9.831398992473911,6.10537632553055,-1.0122352884887544
-0.5678243928887486,2.3972430060164367,-0.5871231031194525,5.744481517347565,3.588655564721149,0.2749142288675489,1.9462212950787048,-2.592386765213785,-0.6414091464158496,6.906406053534532,2.987461514158748,3.41082587972363,1.0462859428122364,-1.957016833613464
-0.9878740356803128,-1.3092240926578298,-1.992875313098739,3.254387447974832,4.3555556214756574,4.349437180028894,2.5566796360608475,-2.4697610860044,-0.775900308532897,6.841289407952932,2.223822018426392,-5.405518053595832,-1.046501091102627,-2.7137245351384967
-1.5197348317675634,-2.051121962489845,-2.28465632710776,1.7107601954269935,4.076607679758871,6.89733750155349,3.019690240449202,-1.476368821155127,1.7097223876983634,6.653615153593552,2.182464183672524,-7.822937588211403,-0.1329728358999347,-2.218319860130181
-1.433055855576888,-0.1378175273811316,-1.4737006065050229,1.5816893880288043,1.896231162180103,4.310942641805958,1.790774049564834,-0.4081503610550001,3.9971861417023966,5.448522320143965,1.1523676304982042,-2.517999782811624,1.349698564327266,-0.3671902671793863
-0.2274200428805085,0.8257446101665902,-0.1762292151404502,-1.0786030512545022,0.054773327562323,0.3336818097401261,-0.5634779009268436,-0.108385231762984,3.561042741815882,2.942376382878624,1.877413076965947,1.049484180670074,1.558032320330092,0.8026254557386325
1.440831938545049,-0.7538871422608203,1.4241598996152696,-6.041432863286942,-1.7685499567636958,-4.676230940554723,-3.174641893793177,-0.6844491069057455,0.4841195290790843,0.0826519537636158,2.5584839948824016,5.055067996017941,1.3156184577340575,2.2714554809811727
3.3115451852116977,-2.6046501203574355,2.680518480053395,-7.392423495499723,-2.459687260476989,-7.188247302265535,-4.533356727225,-1.5564965763452427,-2.758156685887169,-1.612055731227393,2.6878033758587905,6.076870863238599,3.0002141639151816,3.136646102370717
4.339811114519609,-3.4918149997627586,3.0283873827418524,-5.478560787782736,-1.497333297500834,-4.227225909073701,-3.721209059125076,-2.102803878465068,-3.749344028579978,-1.5722308787575052,3.1960568673938785,2.408637299573608,7.498197894260631,2.150680119212204
3.396513723942801,-2.912772995858904,3.503981847379249,-1.82499579694656,-0.9624590510448991,-1.2332562626558778,-2.507868741951337,-2.106145555728773,-2.335451348370567,-0.9453422479056606,3.603788716128237,0.9376297418267316,12.555323230693649,1.869702559224444
1.5166811838112533,-0.1081641963782535,4.481615506070143,4.884282553924654,-0.4739467427904879,1.5537548666463257,-0.4666353836074427,-1.6080109894606718,-0.4635409604670002,-1.5247670384832883,4.361725165205298,0.5390630442368036,14.395895618490629,0.3449802389031726
-0.9022551333699756,2.0912495651032565,4.083032739737374,6.618975123211581,-0.4113897004055822,2.993671976257412,-0.0191057791778363,-0.5753271453848967,-0.0226418880946788,-3.7094913862413392,3.5141846174573343,-0.5983033032748395,11.081684550243793,-1.9280101378025636
-2.315904623357552,2.0029834977323797,2.1683127069167947,2.858950465691414,-1.156718205342426,1.3183853314291407,-2.1333742538638765,1.016599871500171,-1.0380302162241684,-5.668187872140852,1.2700212236182826,-1.447394297425321,4.307601589322706,-2.229742764185918
-0.653452984859398,1.6620920153080976,0.2727820963932754,-0.2726252942325079,-1.2764656427130394,0.5535970368373611,-3.786959174489777,2.7103195565693703,-2.0266289392239543,-4.902952750786801,-1.20076370936338,-2.233310631806801,-2.0669791085712728,-2.0056782681494782
1.2857108668284656,1.015062152522865,-2.9219575107274225,-4.635986618229327,-0.929944443454377,0.6410361342593308,-6.7238995818500245,3.404480147082424,-1.931844646040938,-0.9340130387304127,-5.801455008335206,-2.953667141384791,-5.252552122724305,-0.4174811509728185
2.037760457163769,-0.2873453347236369,-5.266229155069027,-6.195580573565655,-0.9012232192006242,0.4145707669347688,-8.01703402339507,2.0364228002232103,-1.4039468911036783,3.59545977852891,-7.359143417659194,-2.906076307673798,-5.485607725762513,1.7652724915587732
0.6598803999209181,-1.1122288811553245,-5.352811761699263,-3.9019111119403855,-0.9770123977044328,0.4814547524051282,-5.754258377180317,-1.3007525198497305,-1.9986056759688091,4.804078135609401,-5.7179223000156005,-2.0328281940919117,-5.1290459827790125,1.8577360446700375
-4.948794517538199,-1.373627135487166,-6.888370228124156,-3.167277909007755,-1.1428262290213735,-0.1254260990009882,-4.215710193525749,-4.920387865565761,-4.197353896575947,0.9717876368434286,-5.342290147977897,-2.465516851153423,-6.113402656590294,0.5015887615938913
-10.430268509128831,-1.7556487724681291,-8.252159499417449,-2.902863041116391,-1.5029718316675502,-1.476666226597768,-1.0618254250674926,-6.492174749632321,-6.478512585640052,-5.657354923247603,-1.6693097737708942,-4.193341754190594,-8.243090902385566,-1.1340987508373537
-10.6538233366434,-0.8044696555832009,-6.671852151258348,-2.8257268537561715,-1.3969706554766754,-1.9260456597278872,1.4558982694647606,-4.812411009721751,-6.573204007663247,-10.45639169337372,0.7367781631392534,-4.571294835672398,-9.737494027120103,-2.037615172882554
