AF3,F7,F3,FC5,T7,P7,O1,O2,P8,T8,FC6,F4,F8,AF4
4.569812031422384,-0.8662542857871209,-2.002413837198148,11.052142370864592,-1.81824274743874,1.7278128618106448,1.4269741280459989,6.036198412008898,1.1582190497845817,5.210985775375273,14.632510954198777,3.476937844281175,5.037450423206618,13.291540973155104
3.0983411580727926,-1.320547914056265,-2.524042149243112,-0.673845985589788,-4.361652159883716,0.5604338772008601,-2.5180779712339936,6.449420267425862,3.3772657345230503,5.886253455806997,12.127216527088956,3.912893297347659,3.885653970466407,10.424276216910126
-0.0442723248305512,-3.5960590051259382,-2.0672250094712803,-13.15595482948608,-5.597218507098015,-0.681491570902236,-7.398113869826872,3.887970376378429,6.366647061754955,7.127598479328023,6.050372968170072,3.565812794726673,2.0940997801826,-0.0794322525872356
-2.333254978432492,-4.537040700217751,-0.2672978413356661,-18.372886760344304,-3.622899587381117,-0.045701761005152,-9.726554524046367,3.2401410382027427,9.744200567305942,9.639967601252875,2.9505476930459764,3.598471771657524,0.320170878475413,-5.291683597952963
-2.321956401611172,-3.619791000449531,1.857119286466084,-13.94871968332506,1.0079444694975548,2.8493222591813687,-7.426074936312246,3.9376063015623486,12.616626519249216,12.413837015084772,3.666014303170487,4.611807329751095,-1.665706629921258,-5.461241639261036
-0.5411907427550533,-2.6114894676459794,2.71882165696436,-4.104202850932766,5.676561266770588,6.537107404888959,-1.2058024513862566,5.749314931745003,13.774108749185974,13.559853114043374,1.481862437320892,5.955451235021464,-1.3821582146233773,-3.444955749045366
0.9434999339691847,-0.5967765931866167,1.4378988143962,4.213861211367947,7.637734809302233,8.89573324870814,5.947312822162208,9.678953694849056,12.175657498432852,11.685287173193338,-2.1043604318617803,6.03335875039804,-2.0829542757817334,3.800722629158441
-0.0512377846325868,-0.8430274994364473,-1.563757088444082,6.356769961211928,5.96622000927816,8.802783330439802,10.744263479753236,10.030314505958314,7.637648946559761,6.76815441507941,-4.4896150384048825,3.551778126921099,-2.823069525740366,3.983606909193348
-4.308305024825954,-3.636517840672982,-5.026824317949303,2.3014133959264687,2.0683528641885705,6.8961015044132985,11.558865635081576,6.698506544372895,1.2970976485661638,0.0830269242429673,-6.398418630810508,-1.2591190954257974,-0.9185965416168972,-3.2391818608879803
-10.508162015059726,-7.589043388587551,-7.77745872805482,-4.590409845415716,-1.4785369058972284,4.880825572408907,9.070380583113243,3.615952174015248,-4.676362943852169,-6.5427815906660935,-7.682020539628692,-6.523802106668157,-1.2833860923853653,-13.359380177456623
-15.859802653191837,-13.596148034880128,-9.285592106295944,-10.37705986205011,-2.739860427313044,4.083516027014113,5.416037052172135,-0.4253590223993332,-8.168903566225886,-11.560226509977516,-7.93867301043999,-9.894813937082269,0.2293848642504293,-29.41934984593348
-17.814861821548494,-14.94638943849964,-9.623970521760548,-12.56183688048476,-1.5380797510727025,4.546365086477886,2.7293972166094886,-2.062498054656047,-8.328836712774315,-14.208332581035387,-9.109813321701822,-10.142599025750435,2.771760840592807,-32.29523991973726
-15.811527726692526,-11.08315766176335,-9.197459022485408,-10.622638908563298,0.7716779445027182,5.3476593008238735,2.0788020471675512,-0.5391364827128006,-5.976074144750663,-14.62288878229058,-11.15771478374182,-7.958305958162649,2.693875851773756,-20.503906390912224
-11.760567326001317,-7.656563165721343,-8.582005698637348,-5.701506372361773,2.461279780620975,5.646281039656428,3.214235840670221,-1.804907869584095,-2.9162217659156062,-13.642829451009046,-13.609534250703812,-5.406863141314392,3.13654872586134,-9.14285234259193
-8.736580409003537,-3.0877825934351626,-8.366439465949558,-0.0384669305385236,2.571655953122744,5.355357540361664,4.946472176483741,-5.152333031291792,-0.7704064450646397,-12.40599568063984,-16.9216343146989,-4.474932204218146,1.0787355048979894,6.308593527602803
-8.709649571619444,-0.7508213809778896,-8.761610952984674,3.91455400825075,1.3181223774319983,4.8968891854058985,5.851905644761574,-6.552064369581284,-0.2255371164051478,-11.809692513845754,-17.310246067294898,-5.742861872145385,-2.039993140782554,9.447314477777637
-11.04551220048994,-1.6530980382432208,-9.175743753781674,4.700309694053424,-0.3017104886737685,4.518354924817882,5.0820138604991705,-6.82133826133021,-1.040033581445564,-12.016210488494714,-14.511699927538125,-8.042070530081453,-3.4162990998564498,-3.006978171073474
-13.010978960030648,0.3061728699861985,-8.344178299438902,2.6973064628438124,-1.2482390344977865,4.041665030263054,2.9692413893804366,-5.352000508381239,-2.418193517368828,-12.303278710126303,-9.11035141175214,-9.26407709834615,-5.322215789777195,-8.96783467988335
-11.908486797219531,4.305813380056402,-5.255623067293615,-0.1995321051012148,-1.0116393373186705,3.2898815872523697,0.974056682487805,-1.383824964232078,-3.2945901430828908,-11.464638122792426,0.02527566500482,-7.755316570212453,-6.241874488527424,-12.429705658647622
-7.1014696303974105,7.019856414368109,-0.225460236364993,-1.878850656880033,0.2284829748188865,2.567428703492122,0.7633818963199923,1.017221513947415,-2.571288356264951,-8.6052748055249,6.802397603352002,-3.397172649632388,-5.006709941425766,-9.104906440218556
-0.3219185145731361,9.303975708418175,4.960815330539809,-1.1285330497029469,1.7990403428705442,2.4722741702831925,2.921907686391693,1.999342441132364,0.3822981040920994,-3.817545478278533,11.087272826871304,2.3056802957115554,-3.608598696727457,5.219289435386323
5.834438189485246,9.210964066431073,8.212928371110042,2.2698602827230343,2.90074034678377,3.124405015046062,6.326550091360328,5.277117355722207,5.081123134582283,1.7717617598799429,14.68671223151234,7.1665603895991135,-0.0097322623168794,12.716105295551284
9.812828015919898,6.056920406155211,8.723319461287657,7.959863852437683,2.9864629073321582,3.686053075054557,8.859330557430852,10.210928278312126,9.801522714929076,6.650895853937939,16.052004011574216,9.671860938664496,5.2736736415101815,14.9732212789565
11.837035829667188,5.148765800554212,7.568372641346935,14.82476355745746,2.028700898760869,2.8818245499667947,9.016030178169844,12.24824519572648,12.46503294052017,9.797612377046804,15.859438839042369,9.875192768331894,7.07274909694614,16.744404873707406
13.127149221852784,6.135409185356231,6.756317150971368,20.22822775191151,0.5523679520309717,0.2007101574705365,7.092167621065063,11.605305704729991,12.046244539513854,11.141801467047223,13.796430632704148,9.251159068372992,6.445006191232549,14.613652584119771
14.57942410579868,9.247126315569195,7.572500113898798,20.27584696210512,-0.643186642428971,-3.368912892383185,4.895177201668097,9.49125881575153,9.302034492806474,11.32608376868267,13.138484215290466,9.58225948744819,6.073256671080803,18.109187912503128
16.12474346153475,15.76576231697719,9.659543535981484,12.32291044166229,-0.9765008242828536,-5.916835437371225,4.176330106047541,4.846412454911456,6.072370401472826,11.025538261820198,14.163091881684904,11.57387633549843,5.445011210087329,27.671090074332344
17.080486964805278,17.72054935390217,11.496506832496602,-1.6806110856736218,-0.4811165675108197,-6.123845140931559,5.086944195648297,1.903924296310718,3.7113651288584864,10.38902820112613,13.240909205966997,14.12824558064725,4.684540818488339,29.09366861487596
16.84209540162751,15.070619337793568,11.65637467048026,-14.556277142886588,0.2184467346467737,-4.365155726661271,5.953598920360185,0.8445401460893367,2.064456742593414,9.01343434701936,11.06179668105579,14.88058743627998,3.072442433179247,23.68347593161459
15.184624340261603,9.645180288682434,9.69838368257959,-18.06823089639216,0.3889659712654805,-2.3525698728791418,4.583271689664069,-3.069813871805127,-0.0873868026038495,6.42808846537873,4.119090918064454,11.811781669242013,-1.5478502307456503,14.7192292528802
12.151553022460307,-0.5695051360057903,6.151598826419527,-9.42229657661771,-0.2298364260226661,-1.6051487908574704,0.0879951796412281,-9.084097999621918,-3.565677205539856,2.6964875998405478,-8.56082490349704,4.917585605032576,-9.254176519274669,-0.6842153564560686
8.036284128158819,-4.477363507570284,1.9780945845135265,5.625728744609933,-1.227498041396693,-2.163572555204993,-6.176155110795129,-11.413146518263266,-7.677701581696695,-1.3261805809430878,-13.818560280827205,-3.3347038937981743,-12.64051986072718,-6.687114982264362
3.667779590919012,-1.573116728452454,-1.818634984910661,16.668240511294517,-1.879585726890478,-2.7577006167135214,-11.304705285589623,-10.352690587005986,-10.453471346716924,-4.301110825473069,-11.807596418936036,-9.323530235245428,-8.98486799877412,-2.324000413750191
0.5076992628489232,1.2103783564858088,-4.27038528056697,16.87444260719846,-1.7445619648778463,-2.2430810024652708,-12.74849691949382,-6.122968324375438,-10.043044125557824,-5.119203645537455,-8.261079258960786,-10.609818091474594,-3.766810860286404,-0.6864522112574155
-0.0447709791524348,6.470118206610202,-4.579629470466864,8.371327485395035,-0.9867566923818782,-0.87538731499322,-10.1132475452311,2.7435185524233137,-6.150142323083048,-3.5805456303553203,-0.2071445953672867,-7.614548893204332,4.780111779963557,1.7426930260753648
2.097333216166357,6.927333213241704,-2.5901673758418746,-0.2039202665700639,-0.1873539965617325,-0.1346627277187311,-5.539421917949389,6.350469899508984,-0.4239647680196028,-0.5938221936135712,2.097270230797471,-3.304256640838142,10.199672601172775,0.5706668309118911
5.07840839450959,1.3909057425873967,0.7362631179674421,-1.7135803966104235,0.1342691563531541,-1.2430487104802903,-2.2843935830710205,4.440775194411382,4.446859518909112,2.2703120381684747,-2.325201828945268,-1.0347802404616355,7.590771950170569,-6.279589677296688
6.088377776851997,-1.773011199771288,3.5100285902255326,3.440558676506761,-0.1396425464866517,-3.839583100147277,-2.4391638773542503,1.6059580296831155,6.305734826085523,3.63493677901473,-4.975398483881576,-2.1546288513713825,3.871949843705943,-9.927432858125345
3.532586545739103,-4.306557226058651,3.993208184921584,8.70306750899183,-0.7477044827518253,-6.153515820580241,-5.459178818381919,-4.538744980422652,4.757709684271761,3.0676586184165267,-8.278692774507594,-5.1652806899072345,-1.9667068036180504,-11.714795974268483
-1.416630393312578,-4.134268122611843,1.8813057877478223,8.258187469064264,-1.3154846391347457,-6.549758376967654,-8.675799029377188,-5.773055360893859,1.3110636782792136,1.256273222152123,-6.706752060544658,-7.000042930916093,-6.637898746747876,-9.56821888971146
-5.451899862748645,0.2577711830635343,-1.3269602207559692,2.315834195890864,-1.606000869527055,-4.967406749834996,-9.429788632548146,-1.333780541538186,-1.6368615213793425,-0.4981208221469042,1.2672500215659892,-5.355046404014157,-5.401661613714894,-1.6420595644076867
-5.63940060413394,2.401707831184938,-3.351905233303201,-4.173116954010082,-1.615842185531867,-2.8839805405768804,-7.106925048388124,3.6507173433687,-2.318241191865993,-1.109761593357734,8.988426391069764,-0.2975764718540925,-2.5679857539135944,5.847153833853465
-1.7009896444225627,2.9977495755240398,-2.80459254509811,-7.320304845770046,-1.5425870906429346,-1.89249035114078,-3.3967843386371843,11.285866405019746,-0.6182039981595688,-0.2671935561254634,18.08301056303173,5.937417245946012,0.3317429532477384,13.83254002677098
3.93125736307316,3.3823654774812937,-0.1128761940425522,-8.10209764847293,-1.682284759821596,-2.297680427491865,-0.619102056295026,13.57860713893888,2.087952765167831,1.6479962400332484,21.227917025682128,10.620024238250297,2.3856918255898303,16.56059408478751
8.263509525763459,2.346356570628497,3.055062601803197,-10.209406506480594,-2.2682541640734906,-3.034282718615418,0.325361887118325,9.502391061305577,4.126441075205756,4.10906644815151,16.798835808196596,12.296032597350935,0.5558286468114451,12.310987510545289
10.054552719403256,3.7162689530081057,5.244656307222195,-14.62108057962546,-3.2817142579516485,-2.8560251571084643,0.512909914070228,6.387262184869607,4.7819566270639,6.87673741680071,13.908453689749631,11.372248351909295,-1.061679099738873,12.740765742099605
10.226381819482883,7.603732511000139,6.1491684601806975,-17.15718399197247,-4.355391031412529,-1.546120154878512,1.6256409878166649,2.2551531916869902,4.587864510147853,9.87224194899914,10.58731277957234,9.272286108099545,0.2945978708189443,16.49635652310257
10.252133889756443,7.9929564912906335,6.263924835486239,-12.116077802767457,-4.902696988807629,-0.0100075266498478,4.054638523427617,-0.1848306102734093,4.454818118108528,12.650256571114989,6.675600498927618,7.052703946096056,1.2865900239543453,14.863551674048496
10.351802452217804,5.34701665506778,5.87253945771894,1.393038653813807,-4.454140742278414,0.7021080022702235,6.364132569901577,0.2285878020981911,4.516828934087611,14.118511314244111,3.517156047116729,4.711093310052149,2.283178435092954,9.366808420130278
9.338209461556666,1.7584350294789188,4.627165884547156,16.903694470691136,-2.986908418456048,0.388013739568962,6.652002140167859,-3.2750199316611632,3.866631428303856,12.983003531967576,-3.183655866688376,1.703026556464529,2.974058554632479,-4.380023442501986
6.118593021565337,-3.977005291726676,2.207555205105595,24.86016048991179,-0.9958326235760708,-0.233740503303375,4.470208118781423,-10.060678897119423,1.4862822519499188,8.685362762059183,-13.238015864726217,-1.970366749697793,0.7960719113702762,-28.467620177048936
1.1270257954135894,-6.193852679975124,-0.7841956575959088,20.1877044531059,0.7630957261426923,-0.3184419761545625,1.4068961575178092,-12.58406184342802,-2.5667793849993727,2.038754919573236,-16.989222484511327,-5.294069981693308,-0.9999643778736134,-36.716962069131206
-3.881364224066182,-4.387011769028385,-2.9064329872775865,6.425225618272284,1.6802617501767771,0.2957024857057724,-0.2693002314719583,-11.553753160291864,-6.9883749710018135,-5.039297170605733,-14.47972751282784,-6.968386424125577,-0.0445343065879174,-28.78700796855414
-7.43979034175505,-5.055182478184963,-3.1034040648211065,-7.215562549279705,1.5856661378831394,1.0068654867433977,0.3759861543007154,-8.345187427441951,-10.306147480503098,-10.526355984960835,-13.344338912133145,-6.666233392748001,-1.1833577100152446,-19.277249317853794
-9.638371242885174,-7.044114135767858,-1.887719784234978,-13.132354007368631,0.777922871463796,1.073388697261525,2.1757823117377857,-1.3569002678333502,-12.061313758545746,-13.250580498149349,-11.673466410276284,-5.50116523215187,-2.552367248633044,-2.2427191154104738
-11.682151224015488,-8.010028370720514,-1.1410876159240404,-10.571517719937836,-0.1651728342838199,0.3043766960468845,3.042483264578737,1.2151033729123173,-12.764993611839,-13.151946215353547,-10.435179338118948,-5.072794635872284,-1.7456185405979543,2.702966552359765
-14.208341329805188,-8.854550324239382,-2.487006190680802,-4.683963062301123,-0.6469001450205805,-0.7707963953663235,1.943545134911774,-0.97816371205027,-12.672813247111566,-10.870026392851337,-10.785334174172776,-5.897445313144596,-1.3886023512473042,-7.1513469812561645
-16.193020570020188,-6.718486020006683,-5.646595586058946,-1.010267292974654,-0.2690412619274642,-1.3244818628103925,-0.1967131566445723,-0.572285875847471,-10.910531974599891,-7.209835185050628,-6.457080364549095,-6.787371813125923,0.8183629737634988,-12.580261299662112
-15.72505907745706,-1.1106836261453057,-8.347630385503017,-0.827523420033867,1.0204367989948384,-0.8632358335136918,-1.4775116636794805,0.7644866678497421,-6.300412111371125,-2.9772295519039416,2.351485231910919,-5.941899120737953,4.170321706978787,-18.3839065904393
-12.00644886115766,0.8890938458721895,-8.029543856583835,-1.359534604200678,2.859156652318706,0.3830062041212677,-0.903051649814552,2.0936639658316345,0.6837813120255296,0.8411091229457597,5.713534034010974,-2.840441344683452,4.238680912561614,-19.28173703577638
-6.6090070165234405,-0.4065618062272501,-3.9907298677140495,0.0958423744224381,4.539180659428316,1.56083819557591,0.6446755403920594,4.418586772777896,7.052658591100762,3.0139848510330776,4.200459199095368,0.8907814506606346,1.5314505057026668,-12.19535341841837
-2.624554126689765,-2.0828080391381376,1.8176690972370104,2.6790956185133616,5.279215328853672,1.7501350392915835,1.2791506423082049,2.75450522036331,9.072708727104011,2.5231343802628765,2.6261659516770592,2.6361389975636587,-0.5978901568485404,-5.590337154592982
-2.312035842085529,-5.62628172806466,6.072106927229235,2.671430658011274,4.647413985513859,0.6865165745586559,0.0289521516698645,-3.1796371460163644,5.543931546733815,-0.5905374146067612,-0.9838840054131844,1.0856206914916953,-2.662084585473555,2.679279373330804
-5.276957089518664,-6.35618868017561,6.469143793075225,-2.409144243607055,2.897427999941682,-0.8338903878114494,-2.003339394982436,-5.799450864469647,-0.5336542412670764,-4.712972380214314,-2.049163457195135,-2.393001612297811,-3.3513816195482096,6.813497056235242
-8.776419819926257,-3.8059269676751946,3.359816861038978,-10.483990098046077,0.9380757560441868,-1.3032091497876102,-2.4227297162180146,-5.837801403294495,-3.968734568136637,-7.238254762413169,0.1533817121411316,-4.669903376101913,-1.460025970032503,5.204247396344227
-9.885096992900944,-1.75547403894191,-0.6580057747429617,-15.79284893668988,-0.1299355947666156,0.4187336624323272,0.287717002765234,-2.7782413688238683,-1.7030179918289423,-6.244054031793274,0.2681206363145175,-3.423171925431012,-1.010519682968774,0.4384862565954867
-7.697077355341451,0.9178892584065852,-2.838606077144035,-13.447471570686057,0.3529788554611195,3.992590243485009,5.076805465479351,5.1306888892601865,4.397387180190169,-2.1524245818122485,-0.6487407471915165,0.7945829242735436,-0.8556338951435241,-9.664192233296308
-3.813878553565892,2.0774815890875367,-2.3589135424817567,-3.726079177298765,2.2211334330445656,7.4493255833679,8.706323657160697,7.620172332323418,9.018085872248326,2.149633930215696,-1.3242499259509566,4.808647621734135,0.1904299410634133,-12.954735931786905
-0.8784124113463458,1.103985021887009,-0.6889286230102125,7.656170044746499,4.587939783850868,8.413024126492846,8.088009483228921,4.743412763735212,7.987122215990943,3.2672505222801886,-2.4952457645210173,5.2683583843609085,0.5949887915527035,-8.773903331432201
-0.4822364446111047,0.3507056570284696,-0.0556583162218977,13.650110814885451,6.33110433350496,5.933136310122345,2.7484050671454674,-0.117735014750643,1.8663712724954364,0.0342167110740261,-4.679119801230055,1.2968166066279627,1.1923317551826198,-3.4881650261394515
-2.1203606184843253,-0.841541637749381,-1.425709209884829,11.086315005028323,6.641894422080501,1.4214206887349503,-4.628746695017135,-9.387081346175808,-4.681051930593105,-5.2870958062681535,-7.943422957672325,-4.814838032919212,1.1937395693137065,5.93352650646281
-3.859924669931853,-1.4635311971542602,-3.783365230004424,2.903924299525352,5.37532175867224,-2.2582679136703723,-10.096935710693078,-11.996919474791676,-7.047392637838717,-8.6161066854394,-7.59545706249616,-9.370254919025603,-0.1667063483344555,8.873431163884955
-3.988642592880805,-1.15516920121872,-5.23167560504354,-4.256992275445141,3.105340432837659,-2.9528589023906004,-11.26999887101162,-7.238558986390256,-4.465445319425604,-7.301899995632528,-3.369867039540479,-9.9589571745046,-1.4089555913951688,4.210386778535183
-2.249889309916868,-1.0603100449013478,-4.774215767619285,-5.10453685778465,0.876308129938427,-0.8566644013637443,-8.805498642959307,-2.688934276331523,-0.0839581290146632,-2.222671401884835,3.0522547541252605,-6.8982112810113065,-1.0515110131010257,3.916915338444364
0.2316327485673459,-0.8383161485155609,-3.0992957943248776,0.5687380339753432,-0.3150036936470379,1.7856698723241,-5.4527298741725865,4.2718410791161645,2.372701046244674,3.137248862283186,12.963511076448448,-2.469341275450475,0.5995667969017883,5.744583095326888
2.0977602181238417,0.1731471538473267,-1.734782982128798,8.227194152243404,-0.1202332075707089,2.6299159454349974,-3.6343412154141808,6.703587398994739,1.9627556687464005,5.77211508538788,16.74721122085528,1.0976562707905877,2.442869886214553,9.32827967782861
2.925398195778018,1.9319756806854689,-1.4932660683518333,12.454143291836395,0.8735043245350622,1.0885919782405882,-3.662098782257351,3.2916351064821967,0.8300436874594344,5.568496749410509,13.690973056914968,3.0717703808722074,2.4992173641058995,16.657605493795202
3.460008683135088,4.022104227921872,-1.7089633658787586,11.032163753565868,1.5257213519556112,-1.4909835188630949,-3.954942476930009,1.9128221648030617,1.5697913524882678,4.929311192093175,11.62408868469175,4.103852672820231,0.2282994853967843,16.7123331346566
4.798781982725055,6.578303359046867,-0.9227174135576428,6.013715926682373,1.06323353529645,-3.2887876491373333,-2.7993786449975486,0.8002844232919536,4.547596244619461,6.181451480903811,8.30585769819199,5.095590012519631,-3.0314785890254976,9.286941348875034
7.270645209913715,6.462601264490797,1.6896689333397383,1.299978927756205,-0.1829020018897882,-3.582677685331467,0.0436247188621816,1.2391136809715957,7.777393749870196,9.357202573140174,7.731165168370232,6.3415507820661645,-5.015649925304538,6.540231532121859
9.966065463004826,3.310124894957029,5.448075123459001,-0.8034396440267564,-0.9893970240317014,-2.976945754105327,3.214488691596067,4.504718108153023,9.165080594741292,12.3639481064139,11.198455343819786,7.597522639468717,-3.225170211141112,6.604265041159193
11.310765354263465,-0.2674080996320251,8.562884437409297,-1.02172372401029,-0.3935547996606168,-2.3189515085473484,4.999805613174853,6.893819583691498,8.585524339001335,13.11043427112629,12.18489886074162,8.606020730087756,1.5771322774414092,10.555584254182852
10.23709302440357,-5.08400931395965,9.384816007998731,-1.642875106889755,1.1986314623803107,-1.644792100428883,4.706233771923403,9.032136416001086,7.666393948199998,11.346995969315806,11.778070159377863,9.2642271748741,7.032611195641131,20.84360474694541
7.047069591664204,-7.23401862164456,7.473065132521852,-3.913767338526184,2.1021800604136187,-0.3039060878101807,3.0317339746522305,8.228524251904927,7.691544198722667,8.51439374627962,9.611004610158847,9.302045776299048,9.142389116915655,21.32585445356021
3.308114159802276,-6.0632607674609424,3.741564949826197,-6.791086172148521,0.7855415333070446,1.9887344329850292,1.3314383454091523,3.5818748726493195,7.98331797066714,6.040258405757939,4.494748749014725,8.104172211281695,6.0208298664721385,11.954045454497164
0.8505074203503473,-5.430226001253348,-0.251823769088872,-7.951602386448197,-2.55466059814492,4.472332387622805,0.5722768631108774,-1.875623394843653,6.520801562122155,3.996203561956633,-0.8867078882358677,5.180368690854673,-0.1069463364795004,4.711355421593
0.584569785832814,-4.299964131668896,-3.228137100228412,-5.879959920775425,-5.813925848725579,5.892011236374437,0.8150517451200585,-9.07251112679581,2.141503635666121,1.4156188900498354,-6.988189085494904,0.9066653882554454,-6.400942950500683,-3.615400215598124
1.9633137828410767,-3.292061072169675,-4.715643283714046,-1.1908998949904688,-6.565679746761367,5.722254109505094,1.4262337820856796,-12.57635833954042,-3.9922005311602735,-2.299352041165834,-11.106270410527204,-3.3774924731814417,-8.103493141766588,-5.634298697618516
3.436563597823249,-2.933148335470237,-5.021871056183491,3.683228484554732,-4.116045847673471,4.690644888653695,1.6288371968294155,-11.547782591727218,-9.209543139400123,-6.5328221107019,-12.523286360695645,-6.271858808387005,-4.802012331555545,0.9448178693323768
3.5486795248813143,-1.873604298132152,-4.8600546270385285,5.979770661873444,-0.1735819682996593,3.95546335063474,0.9295971484243736,-11.93402063347796,-11.626534270621054,-10.032489546087351,-14.21766486832533,-7.452654385247896,-1.4184867743826337,-0.1238729551229681
1.9240670242544429,-0.4011976344229839,-4.888474925921617,4.249720696329068,2.539486889315745,3.781740346722497,-0.7144544826937063,-12.386140223633332,-11.62524883643043,-12.10891054128431,-15.348646531979313,-7.860969463345738,0.150246520268348,-7.279057352532416
-0.4963676017691263,0.7941875341720268,-5.310081731137713,-0.6697376356120337,2.537683333456572,3.1881043396665163,-2.876138721242892,-11.843352297115056,-11.088955690157576,-13.016024612280734,-14.886992115686464,-8.62368985613241,-0.2156111929842906,-9.812903093241278
-2.097507424075744,1.8320779665221465,-5.677924168102303,-5.836029652382349,0.6947902275098412,1.057007721891802,-4.732938084084333,-11.058116177859514,-11.259574800837042,-13.143336773519923,-13.050385280399238,-9.717430008562504,-1.1669147662757298,-10.188198981360216
-1.704082011602844,3.9272309404688266,-5.119708948925407,-7.667124279116106,-0.7225266546667422,-2.3896356535277423,-5.3483954640294975,-7.196740543952429,-11.449495507322784,-12.156879969076565,-9.878445228274137,-9.777757249024024,0.4087321589944041,-4.17173757931796
0.5149262083942361,7.065940969579247,-3.0341504435633078,-4.192282758672061,-0.1853123013569924,-5.355207666077921,-4.20482799885465,-0.0368496026915109,-9.923141270069642,-9.363767081405738,-5.171783247892442,-7.404959642637792,5.20521456541642,10.345490366991765
2.9475922324981134,7.585377745678885,0.1516534349054827,3.2235732104241324,1.7125165093146508,-5.907709786304791,-1.7070433641964762,3.7544915683333353,-6.024261233556412,-5.08571566226453,-3.398455738568103,-2.8083604090142416,7.571719070264827,13.065836661755254
3.4420617902995696,5.447227674589001,2.90134782146405,10.161470924058408,2.782370892039251,-3.8160887344058967,0.8327279562800864,4.378764683223544,-1.334986447036142,-1.385559841929374,-4.925784410820613,1.8405004899059023,4.428316272753134,4.17799457446846
0.8016293111193971,1.9884780358516612,3.5343445466516785,11.783297103240873,1.1510606723714236,-0.9927551783158596,1.94711813162468,4.279310350323345,1.4139172676293867,-0.8711008580606387,-6.008617578292663,3.879025427380997,-0.8209623516866685,-5.514330010014627
-4.0714070851677775,-3.704021325183023,1.636500186739438,6.285674753473089,-3.090323867629344,0.0079298868102934,1.0853789314036693,1.9610847676057024,0.7482323383317535,-4.318033970661126,-7.716126781274115,2.2983266520387087,-8.7319125941057,-20.39273218610233
-8.362803953534325,-6.041104064473894,-1.3382298784302495,-3.41309032023864,-7.806588230468175,-1.8357130569662763,-0.8319947324598926,2.422810689972954,-2.0775905382244746,-9.39815957030947,-7.863328788898798,-1.2973169138485643,-12.067461289458072,-24.393289704615864
-9.082910799650636,-4.594691346422096,-3.028551960382961,-11.361137091359105,-10.29461578061546,-5.089500379976802,-1.932369586511808,6.021541778615148,-3.961698845726069,-12.067409982405874,-5.800603841131947,-3.827847798902252,-6.608894173012222,-15.319824305101038
-5.339367828562503,-3.04952729046468,-2.04438104112082,-12.71994755958272,-9.14788406961263,-7.008591950070781,-0.7033996867330323,10.558670949028524,-2.464058194974066,-9.693672710654551,-2.89556157316611,-3.1002498203164386,-0.688122519588988,-7.621323274418566
0.6122399560732195,-0.0136685246638494,0.8548991343253025,-7.347518861912384,-5.173879291853243,-5.752004737000371,2.8642733078940203,17.346078261522848,2.21789987083848,-3.227246734953137,1.6457477305093624,0.5244064673742415,7.206412441563872,2.775669037815899
4.666810398363332,2.1281729603231403,3.38087642979726,0.043187659520262,-0.7868194477557129,-1.7991591572997103,7.174533261938271,18.489468025822884,7.436093825394051,3.5261980259739847,4.025769926296239,4.496466328801263,11.619298143548226,7.850243263349606
3.8410003994839848,2.909659824369984,3.6135138811222216,3.482615491296269,1.6494834428328886,2.5207697685456605,10.03313413989792,13.323674689510682,10.162650967821888,6.875539925201039,3.952378905697556,6.117934872220882,7.3514128474953875,5.144702961894385
-1.322864629077312,2.716029362572293,1.4921297856504214,0.4234805281594838,1.3882422264893286,4.854628729581084,10.012206252377007,6.432702655662172,9.143873904895328,5.8722968327722285,1.861348664842416,4.560171731095032,3.870741561318293,4.09149562522709
-6.982159749130393,0.7155234169504958,-1.3451173456575596,-6.208949044348726,-0.2922159388699015,4.457121018796638,7.227375797259537,-4.246837512554284,5.462003829286137,2.515576175983568,-3.3986613575059708,1.2789767430142138,-1.094159419386041,2.1954375903003744
-8.879196758383438,-0.4583522599523972,-3.055170565979699,-10.34851534101366,-1.138173412044294,2.430316590733521,3.0995972848687727,-9.497854235764745,1.314430485785115,-0.2740626192072195,-5.755359501857789,-1.3505448810420368,-5.713069750289571,-0.6591778233081441
-5.657187948916684,-0.9222079146561868,-2.976267007337558,-7.73059864529549,0.2912985505404784,0.6120358579339182,-0.5989842197321451,-8.292142803126058,-1.7371749142597084,-0.9249462941716348,-5.131463878388659,-1.920727299927464,-4.010633724159828,-3.3723779687816164
0.1004031515525785,1.6160371911047615,-1.7963483027827305,0.5462478081883386,3.415390653286904,0.1583136165520091,-2.7255392309298845,-9.02866936213226,-3.5754376947614084,0.0657786188459175,-4.247891341898313,-0.8626602094469131,-2.665052133176196,-7.96116237507958
3.98035085341596,8.026861107274968,-0.6623995906914022,8.793798070601555,5.981071064616564,0.9009026157592076,-3.2060764456509947,-9.492884770038014,-4.940681257528746,1.1164564790960796,-1.6888877974122989,0.2353149865717476,-0.8177541518723759,-14.15305478420242
3.258074945872578,10.167934256594693,-0.2415864014902666,11.243467814643031,5.792810630585168,1.7901041555649255,-2.788731419212473,-8.537838814019919,-6.237798741772022,1.040661437108675,-0.7771606462807801,0.0930213650070737,2.149794333422856,-15.832714723498086
-1.0562529927727802,8.33572110861108,-0.4743505775947803,6.5864828879399,2.503045184436101,1.890226955446721,-2.3742127851007258,-7.09303375038965,-6.929899880774071,-0.1856804527522815,-1.807572670784919,-1.2801492382018704,1.3720411427768535,-12.730923320373504
-5.225135483429822,4.207205120499081,-0.9073034004128592,-1.1547664287809596,-2.004418409516642,1.0946338217986824,-2.3894066646447474,-3.2982765818969715,-6.042233133711719,-1.6399831903557036,-1.7910095544439886,-2.759013497501048,-0.8468273276048337,-7.901575210981113
-5.863733902413577,-4.121714255603493,-1.0527123084906478,-6.018030707220738,-5.017164737791031,0.0665674202482726,-2.596674788609338,2.9316383819908007,-3.2371590836750688,-2.1565793015666204,-1.4556441893479464,-3.089624069319102,-2.60581089484063,0.223858831968805
-2.499517832689561,-6.499615912323051,-0.512569986504877,-4.834760215702215,-5.066794083222865,-0.4568712233350354,-2.429833577520638,6.170422872798758,0.585811907992869,-0.9804139563254032,0.9568908331983952,-1.807120682309668,-3.708472779438521,4.269177203044379
2.3632674511760694,-2.48314423907411,0.9448762639422288,0.5638730937614849,-2.9569563784765567,-0.3880288931301692,-1.574392269542141,6.387601498985655,3.763052522094132,1.8433338362357192,6.037872479895312,0.5503206148975099,-2.4074113689133907,3.5247680901571514
5.482078475182462,0.7676069947384454,3.1718472071571764,5.256035753172622,-0.9160518117871206,-0.425150491184004,-0.3169767700822525,8.954645974288907,5.048956073204877,5.4056549554473,10.531518247593436,2.923598292138516,0.8050994977071466,1.0450108565141043
5.421869297420139,5.5307738950822,5.485463499041407,5.414889346849403,-0.673425490425573,-1.4582147730651265,0.6411757332428856,12.88763678239531,4.517382400563651,8.295084316761873,14.900070383994438,4.450329532951994,3.019618447566427,-5.25902642237743
3.39810187765082,6.383091529672607,6.918449001903079,1.2373910277965958,-2.16687007758164,-3.714549723690414,0.7677425791472174,13.969504076931647,3.426532503297558,9.357390759612194,16.713435306896265,4.926920918250644,3.2936141656999656,-6.110607382213442
1.9818846541111377,2.0759336450884867,6.8512506362320345,-3.633275921245556,-3.933151775478617,-6.382064501839698,0.1808531415717613,12.711577456397832,3.162193579498119,8.455812593289833,15.0982971309341,4.783878655775581,2.6633076936687976,-0.9214202012534244
2.9390882855661715,0.3310718497319471,5.499165741301215,-5.433428377559948,-4.639593416729854,-8.092631139329292,-0.4162194734043973,8.596915277682518,4.129013506654138,6.625945817848065,14.631094384934766,4.653331904753735,1.927203767310288,7.295623704781751
5.947653964871722,-0.1865213490212194,3.736567094610651,-3.39611313382445,-4.213749902756687,-7.910096383291593,-0.3272717968754408,0.634794744551341,5.481967317394829,5.370318142579476,14.623855633316232,4.843358912562019,2.686194173202185,21.074152122455757
9.007687520631965,-1.0089679851558464,2.3532496528751574,-0.0543853469935688,-3.564220659237563,-6.002670901987504,0.5174791140787907,-2.2489900624519445,5.880888842785026,5.553306503615847,12.788329264787524,5.099308329901989,3.40075439492482,25.62205236860404
9.986911865956335,-0.9450438299744396,1.440694482350887,1.3524895185660455,-3.372851159618552,-3.4461850824295324,1.4707805622172805,0.1776615938265667,4.616596025312573,6.761673571959407,9.741205217951451,4.854438476930363,2.1466583758207136,20.04299316770521
8.048135286539178,-3.447125228790486,0.5262492409271644,-0.0839456638106006,-3.3374106138832627,-1.378939481283224,1.7124080425136832,1.9476714368194832,2.1823081425837003,7.649040844608288,4.671337944118672,3.789166858440325,0.2231681798334058,12.606284121436309
4.040855260215091,-8.682708298229802,-0.6713001413580231,-2.264531998066343,-2.658484446981072,-0.2790441697415198,0.9609345895486658,5.039427330490746,-0.1420385478016079,6.973682482331471,-2.827086443416241,2.2188153974953764,-3.033668696008583,-0.3842328835831491
-0.1948440000327105,-10.515691903417736,-1.664084362915006,-2.359253807126073,-1.1603006490077656,0.0707438938526165,-0.2884038248569487,4.851910086729991,-1.2954991319626652,4.501193944218624,-5.760263940256124,0.9266670387372624,-4.984180534823926,-6.320272879347535
-2.988052079614961,-9.324414561693136,-1.481459974857691,0.1973889395103252,0.2725630170985975,0.07851641686366,-1.2258804190408403,0.3753761072002412,-1.1664318154557067,1.1279965909285243,-3.839110456624393,0.5454212577066837,-4.164072263169262,-3.731830264710867
-3.713728521150405,-7.614785363293351,0.3389306994025201,2.9984238321184056,0.5202418704191913,-0.0803035799336431,-1.4649718727358243,-2.7622188354756783,-0.4761095047695494,-1.756858125793198,-2.554538207821589,1.027712559144276,-4.748571024379803,-3.3819670228106204
-2.9540320096416988,-4.145603966118575,2.984054715909817,3.058357609404562,-0.502831170564904,-0.4023235915166145,-1.3522455089710634,-5.758134079976528,-0.0100388419812313,-3.122283250950929,-0.3621195840558209,1.6909530988231365,-5.436300350342531,-2.170579637451328
-1.965760176053668,-2.6719394076835257,4.663344166082483,-0.0295676209215061,-1.4997669958827338,-0.7151696315135929,-1.532211269408657,-6.113711174949471,0.0615713371707435,-2.7811950632853244,0.9664404818551784,1.7982271431166712,-4.384565443402338,-1.5724417423869554
-1.8413224379939563,-3.593310140617733,3.8887894404620806,-3.454108043865611,-0.841254895025322,-0.5613274993906763,-2.17554170287206,-2.7210776327976003,0.1931488185929302,-1.2971773569810134,0.6014199974787073,1.1576154485555747,-2.1451183019346187,-2.925215266839305
-2.88129720403145,-2.485320124189024,0.730411013884642,-3.920145577081048,1.926239079216299,0.4910770370888624,-2.641995883519224,-0.2320676852349096,0.898341416055092,0.5148652166903274,2.055823493116426,0.2372569407059765,1.925712632222952,-1.7596350752313088
-4.529573378758761,-0.1175038741487217,-3.028295847057315,-1.0992351633675437,5.547169251821151,2.4321622303132218,-1.9659913875649453,2.152742607810264,2.2170721936629416,2.1309691056442235,4.791695385931577,-0.2430056896989612,6.674081088489676,1.349998060718884
-5.82800513573916,1.3862797074913196,-5.037576049153184,1.826782741797761,8.021065797140283,4.747708490950661,0.243760343313129,3.279451112021937,3.694955536870345,3.566311630302476,5.501505331384171,0.1429863356580387,7.516249144260716,2.919833952396433
-6.005527718492071,2.592234643880624,-3.9891259787946174,1.3528825383865737,8.188686639846006,6.785507822525654,3.325760675463255,2.2302503084568106,4.7870534872684845,5.169043923404569,4.48604809206562,1.2603235203466756,4.354924896576734,3.4568805954601003
-4.8028762959226645,2.568593113846562,-0.5057937449115908,-2.48544283401681,6.536850499799286,8.16898438532193,5.966172631059532,2.458697357071616,5.222361465233372,7.086905662602337,4.079366713576762,2.5434616206173963,2.581572151907669,3.5195176968665454
-2.438079216076828,0.9107305686771638,3.284643463905976,-5.588488433996966,4.600433808304599,8.854264317314371,7.116677063451781,3.509648488339231,5.0307368590810695,8.81802381420155,3.7399738876781448,3.3604271055833514,1.523433957477006,2.449925378100777
0.5830089025542815,1.1165724475497305,5.135002225213691,-3.482930410655776,3.6169393348446697,8.851977441886358,6.625851715734181,2.965335912045768,4.367908775225785,9.302895278375429,3.927329397040964,3.372414282593425,1.259537680440554,1.6403052469444408
3.6102678502123258,3.079859880040691,4.073444771281304,4.133278162435243,3.662315310756577,8.022390884298323,5.126121905911399,1.2446283539653706,3.4433285488780605,7.6616038504599295,5.048983243857827,2.712697168610596,1.474959373304752,1.038861704788132
5.9637444893354505,4.58494090695275,0.9384480786727494,12.44251921258112,3.9236239200341863,6.263304399161994,3.445776642128374,-0.5327462084972596,2.605319420362017,4.08762877425875,4.869033606055282,1.8854951547947876,-1.5340957129785149,0.5723698245337644
7.1287883958020615,6.306531114556084,-2.240629576576288,15.346352699341958,3.682625234067221,3.923585068675008,2.158912799113814,-2.712327628451217,2.335404606342383,0.0836438570633024,3.4938531685051437,1.3928011214216056,-5.954029167120991,0.5643322717991254
6.9675908686218175,5.801279653453378,-3.6200459393653865,10.757185848831668,3.015654869312693,1.9210521190568648,1.550006221242736,-3.995937886700629,2.955488285957827,-2.400040329115937,1.1363827622971827,1.281365175119234,-7.288483601839141,-0.2948207903563694
5.720890726291785,2.5756013903158617,-2.8028623451454475,2.54840444824902,2.609581290656614,1.2431638579593152,1.732761714210875,-4.113411033987286,4.210107724422494,-2.445198008233252,-2.729740990932569,0.9578276781918192,-4.399402185547686,-1.97832052778164
3.7312799174083686,0.3740416857998976,-1.103319080867866,-2.645810243559474,2.981030383736851,2.125639431663888,2.572166575490449,-6.311903190084108,5.140612720681293,-1.0822358820700693,-6.865325877515907,-0.4726032555019444,0.2868701651005796,-3.55941960022978
1.1768302425524482,-1.3543739161746204,-0.5248627559125403,-0.9815336725210352,3.907911751412996,3.641794237849972,3.4808533817564644,-10.423014697309512,4.506569142168338,-0.7235009019465721,-11.378349201762596,-3.480229701316184,5.33892559918453,-5.280220889827754
-1.8307045074000785,-1.88696237041286,-2.1216977940947928,5.504366440125878,4.598582894993605,4.20620546476167,3.5159076655103405,-12.478211542867566,1.5680842761200111,-3.36449860091442,-13.852915783361516,-7.536090759005273,6.533818595175302,-5.440647288270506
-4.85942557185637,-0.4350541093384821,-5.040988391043896,10.799111617080838,4.385448650311865,2.7287438214682567,1.971225469961162,-12.87212689179022,-3.28920714592422,-8.932932379332048,-13.778264553004089,-11.224857365611353,3.244241496411232,-3.742384397787416
-7.023623891768693,-0.6933801816018241,-7.156223148249811,10.005749589971469,3.2678533870009865,-0.4775997326773122,-0.9532693064890764,-11.998989219590014,-8.558905953796724,-15.170684367702224,-14.485637494666287,-13.081679017896096,-0.1338929492654116,-3.5756521112017503
-7.489079155287801,-2.414902617276051,-6.885150555416949,3.2628965838465653,1.840167701358304,-3.820981955747644,-4.0998813903068445,-9.002594809540573,-12.336128659508663,-19.192926469567,-15.35335998228549,-12.569009057386335,-3.059655854369514,-4.653137120410089
-6.255906088360877,-2.1065887264114185,-4.620098322807504,-4.606163484810352,0.753779692230296,-5.554643697811802,-6.124301787547736,-6.945063968825098,-13.358948147776829,-19.439178097184847,-13.439451136063768,-10.421359382871586,-3.157243996613639,-5.3576618886731255
-4.344544314650729,-0.2689646373165157,-2.374656731234218,-8.12771127740902,0.2473643726836627,-5.035642406938578,-6.47827472004613,-5.782091145459726,-11.694184529096646,-16.428092955031754,-8.998229581903907,-8.048918690059097,-0.9020239724588796,-6.296936060741623
-2.965788407935392,2.500344101694512,-1.829343465502177,-5.438978570561087,0.1175172830348678,-3.126395532161016,-5.710721998723461,-3.794826263190428,-8.557670652008028,-11.8522757458775,-2.2531973242640677,-6.458745305476853,-0.6673595478734939,-5.584379604703594
-2.345223006106796,6.846338291966973,-2.553204648277969,0.542028032896738,0.0314299598027574,-1.4487418634260578,-4.811446267647906,-1.6013368532272392,-5.362175306554551,-7.028809494466106,7.482109337634996,-5.56997927585553,-1.3739435842493637,-2.905185395918538
-1.4154197175929717,7.877863803578349,-2.1909682593956,4.683587317208435,-0.1896418170582698,-1.1261298467923169,-4.252462074320611,0.0016677299506043,-2.732176742545505,-2.167733177867394,10.737846952488834,-4.475048653208766,-2.110830885966668,-0.4467574791178647
1.144146029312349,5.268533178697814,1.353136409468469,3.7291488889632873,-0.5465513337742856,-2.0275408891279554,-3.6751977722115576,1.0642569081600184,-0.3299410470262423,3.0210245323384584,6.8563397333940514,-2.385649099033145,-3.0811600638970837,2.246971456150181
5.410598623840816,3.804319106002917,7.654325138113741,-1.2414040558123958,-1.0038725355372158,-3.0637794614582674,-2.498443121791436,3.01089281375804,2.338530971204236,8.200701718538959,4.111450116174547,0.5893078612650484,-0.3442099040386005,6.515259210193246
9.723766420445235,2.4482491230252887,13.586497434032404,-5.728536983895715,-1.5647636736357526,-3.205067097748074,-0.7711482904256286,5.764657974431564,4.916576511636716,12.01141830235712,0.3527815852415957,3.5036062215760038,3.491159457070854,12.156467123850147
11.768566759416764,1.9513942998600564,15.562434178687983,-5.353172723769628,-2.1938719212450266,-2.3284825606210013,0.6529989305564214,6.518995187639087,6.070795868054379,12.861978625784872,-0.1793622230219429,5.345886530264913,4.079676170335356,15.203573178573532
10.318882413506875,3.128222205878398,12.321670141850404,0.6019721249183796,-2.7206596351850223,-1.2100457066646726,0.8305221265643823,5.343352982781672,4.556783876632952,10.208928954104977,4.01755067052073,5.753799632596355,3.2327893082326526,15.530200996900136
6.119684392991296,3.0141989239373235,5.861111768443035,8.302046657458192,-2.8872470357075315,-0.7426316968318964,-0.3794311419503273,1.800599821499983,0.5788068783471765,5.194832100056608,5.355322510749502,5.049652370208662,1.1842827570264645,13.08472967645812
1.217727203493606,1.931849719997314,-0.2359140805625088,11.923969531389131,-2.540619710265325,-1.1175588533308023,-2.1355932720204933,-4.906088393717395,-3.915091899428909,0.0894481239326872,5.00131742609312,3.738091124208303,-0.1889122685598232,6.666810111764337
-2.5687241390039226,1.008408409966058,-3.529339614821652,7.924156601812324,-1.7997936646301156,-1.697391747447185,-3.312824460797632,-7.705539177565271,-6.499146537821538,-3.0640443051355284,3.857579431140521,2.136664314965788,0.6436232697142561,1.0898378834643478
-4.730828122325519,-0.2509345092084284,-4.169193462018725,-2.1735519021795184,-1.030555641137017,-1.6574805123678722,-3.391473135128237,-6.443884974585174,-6.125674116879626,-3.6522313768613657,0.6215840876475895,0.5194388841525495,1.5301371594787962,-3.855640869470558
-5.969019327027279,-2.123611678759949,-4.053168565709484,-12.690893956197849,-0.6221969112413461,-0.772842774512295,-2.7331639501410017,-4.788615886230424,-3.924020921724296,-2.7525831216364303,-3.4063644759710425,-0.5998577331831498,0.3230495563412165,-9.13475946628726
-7.236962170923727,-4.589095153106443,-4.782623918583493,-17.792813343783823,-0.7239319853124879,0.3793023983862049,-2.0961416505779216,-1.0810016367211863,-2.153391595394502,-2.2930863118217357,-8.52836207542439,-0.679489012658987,-3.2338738020867965,-13.67024440171452
-8.833404764257104,-6.3493552091366725,-6.383020230695509,-15.470393085566824,-1.1413483322503453,0.9663929456791064,-1.9471198614540093,0.2755017742741593,-2.198205025036083,-3.651683407734764,-13.395323461231,0.1462176565327624,-5.371627448086946,-16.480079282531623
-10.222334127201798,-7.359722414588543,-7.745149030917974,-8.457654738660597,-1.4788320282165366,0.6586198651289266,-2.1904696416635403,-1.248847876063491,-3.434040643555212,-6.6373075077127535,-17.735555287461874,0.7024636751374578,-4.261673623270492,-17.129361123992844
-10.6137668814477,-7.773502435307473,-8.008767354393358,-1.635590039360058,-1.4373965692751938,-0.1108118092121843,-2.4237489064422464,-1.6307958286516682,-4.035779267615046,-9.621426661263769,-19.992494715116568,-0.4989695932575344,-1.6007732675167956,-16.524835343331123
-9.78282661993538,-7.215651566751561,-7.3787359450976755,1.666513147108912,-1.0508509032427549,-0.5933472444962524,-2.358015662569877,-1.9182563600708449,-2.968846493110445,-10.811706042102102,-19.486127138201724,-3.8169145538878553,2.767683274980855,-14.186553588931112
-8.439481746301478,-5.537984592524866,-6.688649168185554,1.4819797571296212,-0.6688393432873712,-0.427244837539962,-2.0310071437843837,-1.6352971344395284,-1.205900942947689,-9.723854516267572,-17.25774876150357,-7.711679217439614,5.0576847928792,-11.03516230179102
-7.752759501858213,-2.552332331464319,-6.386103727029086,0.1378711388119449,-0.6742846557149313,0.0649512228073807,-1.7414939033417318,-0.2254877917963674,-0.8700733242572929,-7.601336482124517,-12.577226721200065,-9.673962903614957,3.472462982684179,-7.126244611362868
-8.280104873424575,0.8318858079908816,-6.086484321318478,-0.1919868051798356,-1.137094720269708,0.2258872604783102,-1.8399045206007771,-0.0976531977654723,-3.011621918838747,-6.301220753593897,-9.81937737446184,-8.266648354418278,0.8405451788598088,-5.118027080111816
-9.159763531829611,4.687233912886243,-5.086220412224852,0.9229603948756592,-1.6840763225347075,-0.2963202617824692,-2.4942303951081186,-1.096979775997889,-6.18500423104364,-6.518963475635744,-9.279136231422944,-4.432667876790248,-3.2143618283275157,-5.55220622328301
-8.43345957897736,6.49331794150939,-3.177074425988623,2.3818587363882795,-1.7183235864077613,-1.2031164857868235,-3.499245622553273,-0.6809445676160472,-7.388532022310093,-6.950933982124665,-5.10966419524423,-0.7275449327810612,-5.336577279751673,-4.638112883734644
-4.526610062201801,5.785445223887157,-0.876206494072445,2.825585751998396,-0.8555744053958811,-1.7799904770885888,-4.254510753325466,0.849806720611488,-4.698179903113106,-5.291017073678887,1.928071305691082,0.9340104253374673,-3.0281751353417388,-3.0433304741910403
2.198981012799493,6.343369550250955,1.103285040515523,1.7075807874764628,0.7339046189410254,-1.4906564091466985,-4.051266816874307,3.766912388020889,0.821471006345643,-0.3150203474859232,12.818510013199855,0.9497215880360949,0.966617542097247,3.634589676816149
9.241994747843613,7.586891063086773,2.523419679477424,-0.4425051593958748,2.337700748557353,-0.4367161685075515,-2.5979504129443143,8.64776215142777,5.819987445753956,6.779735726898558,28.856824844882983,1.535011260829151,6.901646555142426,16.50731040311617
13.54543129202852,7.36557787574319,3.755750187107463,-2.39677822434744,3.09205324114507,0.6737309194187588,-0.4072128012573799,10.31973958226713,7.45803756543512,13.052533601531527,33.2568906564362,4.503627062101792,9.905768034938127,22.61519659482096
13.722956341907176,6.166910666849709,5.306657380621164,-2.888646032436096,2.520725892461787,1.0162772434916931,1.3686884272228497,8.642152747492139,5.76844553627037,16.002624500384144,25.27092901946728,9.378897927100102,5.097748189318621,22.46352619417572
11.063885603343486,3.02006121480388,7.226962421944094,-1.3257043098179864,0.8799707926191118,0.2379272201064211,1.6705285576156328,7.389102673476656,3.414248099760428,15.369148133144344,17.919655997927823,13.564399520213286,-0.0894561147575869,20.87654700094114
8.396571524668502,-2.527264659418968,8.918569337011839,1.7152120029806888,-0.9434958802185208,-1.2793941491079153,0.3293466643689342,5.4432451663709145,3.092007101328079,12.99345684914482,7.463948380849279,14.3990759277945,-6.293597962189901,15.051910401874215
7.747015745270538,-4.96044168113931,9.45562533934168,4.622248295340064,-1.975576740005124,-2.6616516592089425,-1.7072339465120834,4.212334118473715,4.991843684537258,10.95425856234423,3.2152214945545707,11.264203527997822,-10.914380060647428,11.481148892489976
8.80739988324482,-4.219921292595538,8.180057662514535,5.692008032720182,-1.8223306795898324,-3.114256225484752,-2.933143397956975,4.257065563811736,6.620727121957735,9.73492891880906,7.62034647148894,5.972538279202304,-7.206868071819603,10.611753901507818
9.500409789407556,-3.5131474215710297,5.215558222228239,4.388675552018967,-0.9758733659873684,-2.410934063283186,-2.22361944974724,0.9648944116211444,5.109244735763909,8.088389349611866,5.412037327423672,1.2687864031141771,-2.927074815880273,5.4365449989393095
8.037128380347582,-1.6089593486773033,1.5887231468528,1.9219619097103973,-0.4428414266809994,-0.962315763725904,0.5143515320776686,-5.475363551630405,-0.0712103362402061,4.642710392401938,-1.1436148162723148,-1.1445009880200985,1.7345065635243255,-2.81702326035324
4.561456294980189,-1.0272499386815075,-1.212556589181709,0.4707899360570664,-0.8824881845954948,0.5428570833230353,4.379824359148714,-7.566610039198232,-6.336176685384359,-0.3334330017852167,-3.954259463888789,-1.4365957453952092,6.174175652837826,-7.174622388301745
0.9510923073721712,-2.2229278974239493,-2.1085697244432997,1.4501955405973348,-1.9362663203297568,1.6077377328916924,8.073803230679033,-5.6985825238900025,-9.807925754346536,-4.716981494946367,-5.068024416188668,-0.9014612991589672,5.635425621821613,-8.164895820935037
-0.8911480111526231,-3.543253842299593,-1.1897303652155389,4.15654460815545,-2.421439044779341,2.140649459438705,10.58609658028778,-0.9480184849686868,-8.245316591906636,-6.140873670164773,-4.145410366654185,-0.575775581016785,1.8237095178954803,-8.09597411542642
-0.5722772805320631,-5.728348011066472,0.2805613188019435,6.0199645790779925,-1.3940707723378765,2.3023456306295103,11.568114635545731,8.465358494705194,-2.768947881729048,-4.030196450336398,0.0564630258854415,-0.5129825088602473,-2.5899360231083426,-5.492535150953744
0.7924034151752579,-5.714381402567893,0.7826388401994535,4.473530058022334,0.7702793019859371,2.200665892900872,11.2823215384822,12.251103991725996,2.9513657776983635,-0.2647937889810023,0.4390816052837028,-0.1707847722989726,-4.387826635465414,-2.7124971365535724
1.891056033865752,-3.165047848372927,-0.280555841470715,-0.9423712918874828,2.34863914822283,1.7487622211502298,10.27113420366382,10.045151286170393,5.432101714487914,2.1594543141692317,-3.018264184104256,0.7272170592065805,-2.566091217586884,0.1705690595097847
2.3800078781764142,0.7566359012215604,-2.154817877478081,-7.963798424893483,1.5657139087710874,0.8084533134084495,8.971840022889019,7.956935835674768,3.954395134104658,1.4111460202176571,-3.322734402430231,1.81609196015836,2.103264720162599,4.440190376557161
2.7749172138213822,6.9488450850181405,-3.462309160508738,-13.074098821879971,-1.7598611328837137,-0.5477408584366827,7.479537932977735,3.6006720881410588,0.988043870227699,-1.7821356458613735,-1.7019888728821846,2.5072209800694054,6.042243307251297,9.592436009822505
3.3826711963774443,7.404763727210345,-3.4199150958797877,-13.953889239760365,-5.721534198779551,-1.9386998524155672,5.601009949923778,3.0028585933854948,0.0883438680056372,-4.719262023808973,-0.687855179047592,2.636425570618101,5.43360281177586,8.85354231070443
3.578313050018181,1.5014674156717134,-2.415585093115766,-10.994710398914036,-7.648451843389225,-2.865014248037454,3.214142247465759,7.121507580552692,2.91295969718513,-4.811423165993766,0.7210723864918509,2.5904163608407487,1.1127909936456528,1.5958146008893312
2.261820363948289,-4.20587074869602,-1.4789508800757147,-6.774982285534975,-6.300029930079404,-3.044193041244654,0.7040148536780748,9.79022977155385,7.811146619784736,-1.543555360217198,0.261416283715774,2.786739102913032,-2.8165407270955365,-2.8027825022727773
-0.998559133751172,-11.6042722585306,-1.2926874132981965,-4.074825788753287,-3.047415595327891,-2.604459869678976,-0.9459769735465358,12.502800882648932,11.227482486715282,3.1722160604609044,-2.495907807612733,3.1086403758007464,-4.532453190816509,-5.6597725318341245
-5.34147953593353,-13.819733060017455,-1.7656438892411046,-4.042370195502002,-0.876578454111268,-1.9666165833884008,-0.6920643490708756,11.888623821173448,10.778366596209196,6.473070397443209,-2.718282164062582,2.9423881946662505,-3.2332045184830944,-6.612374630251914
-9.106524951684593,-9.409317457983333,-2.448727906023308,-5.745087217662416,-1.920140323435476,-1.51159818026548,1.6477554815913038,6.76565221206728,7.331138539130251,6.677609533687331,-0.7423447323556561,1.8053942264035212,0.209537936740821,-3.770821325795896
-10.901413058826137,-8.040003332623666,-3.107131155308608,-7.139533444118143,-5.5972509609580925,-1.3194306930366082,4.837214126687414,3.218813990340492,4.205139315969561,4.4332187955739215,1.4494286384243849,-0.0862402851929431,1.268030357951233,-7.011290731987677
-10.27769825854564,-8.040899883637875,-3.685835948606538,-6.6003496086666615,-9.003777443031638,-1.2030270390758773,6.691826851672175,0.3227475693027531,4.161445517271829,2.0402968935432426,4.797932189011528,-1.9021320813180156,0.6594343161360046,-16.231316596654022
-7.6629982102725265,-7.617163044543288,-3.792769158456572,-4.046548080884946,-9.261933976843522,-0.9864268667656616,5.447888837144873,-1.0687454211905705,6.882176379243454,1.5553656420287894,5.251736817136747,-2.8535697820151853,-0.1363285502927871,-17.3921104779722
-3.969810931926169,-8.27857084247555,-2.579041395867577,-1.054663576831878,-5.826252532360272,-0.7390827022172033,1.052593610818661,0.2583345409922735,9.24449661680714,3.212478246204185,2.358409307954477,-2.7741013160687658,-0.9938588137440136,-11.675862870961224
-0.3501845525858442,-6.3084606817344815,0.4750972592224656,0.1927980893622134,-0.8103673244683733,-0.7136291179798846,-4.677112139137861,-1.2031589619419427,8.154285258102213,5.382821464660744,-0.1763849384768186,-2.100463119649796,0.5830461441654152,-2.0975129947381888
1.9638437499276549,-1.6046096747151648,4.535141001267355,-1.3606018339717778,2.8279466506550364,-1.03652435179157,-9.21606982362878,-5.130575078852842,3.356828413546367,5.99389922188891,-3.323352367783586,-1.3654372331427425,2.301782953501693,14.304263676177404
2.06677985313717,-0.5779204999135434,7.426330526873464,-4.427569507152711,3.570267116961112,-1.487457197350949,-10.94109523939423,-8.24149331035847,-2.3272258412800118,4.150666783119078,-4.745893267038397,-0.7835105751417331,1.806625265845269,17.555338662718146
-0.0200115174990429,-2.856026834751141,7.125581647395848,-5.927857903866283,2.1701391247276547,-1.6537048929983982,-10.018407635666918,-11.504237899673257,-5.518263727204889,0.6356097609978875,-3.7376242134203097,-0.3348264043864759,0.0772148139835643,6.3879051030465845
-3.1083106207000384,-3.966633278599895,3.590156787844513,-3.342460283187421,0.569569254772631,-1.361100557132808,-8.057637007886129,-13.446610160166276,-5.2240187844331984,-2.9761348432054504,-3.733270685683559,-0.1589197263344601,-2.5226298665909326,-3.854953981961475
-5.406467819053496,-5.032092355943071,-0.8638946774129543,2.8874450109209957,0.1330459496975535,-0.9360550386253196,-6.960946480225353,-13.533008003962523,-3.575636263696857,-5.6538589801147054,-4.072186560876312,-0.7040835384922346,-4.08478964560778,-17.78824887223293
-5.614325797719438,-3.5295543537946363,-3.2484217579992034,9.20180574158265,0.8123058470699753,-0.9475505252600877,-7.801511650183485,-13.734251973749044,-3.791757108050557,-7.498117765034017,-3.8064449238384217,-2.338053193394156,-2.46561540023684,-19.702515365328654
-3.7173347242409314,1.4332074505860342,-2.283132306368476,11.546447120254925,1.7282742887547613,-1.5904325605615135,-10.293485839006856,-13.578974685199343,-7.293352409385044,-9.194371621492628,-3.393441445363948,-4.749924083519133,0.9597060003801444,-6.363819576835965
-0.8467534489630708,4.119123334702806,0.7051996643905465,8.692270119326482,2.2831517099714613,-2.3039511656002567,-12.950531317982302,-13.3007886244606,-12.498879862930853,-11.013705039786668,-2.840981974706925,-6.801180712807517,2.412251731840694,3.954401863933711
1.659531448842219,5.103159511477879,3.215702164366993,3.30222041890234,2.6248824102933552,-2.0854020119528194,-13.783384240235808,-13.18354493491412,-16.15552771260971,-12.349209879244352,-2.1142313472735768,-7.135475267521675,2.1409456356352745,15.413568550187811
3.2335001575212265,6.810920913842464,3.942164523023786,-0.2204233892114531,3.1866437538365853,-0.3166227084101738,-11.304741658909856,-10.8480347374538,-15.812591021606597,-12.14836999967363,-0.1262861415995564,-5.1392359380378485,0.2328557215993771,20.009908283850027
4.34343789551513,8.250444570058956,3.756055329907799,0.8608464833265472,4.024568134323951,2.6179059607832977,-5.443241529470191,-6.255152553279066,-11.305799020050678,-9.744962440605306,3.2313662457248853,-1.4571144635998134,-2.3450899152281277,14.311735702959307
5.879149767896175,10.64606193703638,4.386778747714192,5.882672939472204,4.7475958974426185,5.514861189072368,2.1936936191071066,0.8055437545696983,-4.352005144152898,-5.340757434850332,9.71792354046137,2.3837320367643,-0.9670214925637496,12.912632059479057
8.163686428322155,14.26544784923664,6.241751889236888,11.835809270986744,5.039535888121293,7.222024388431372,9.066468952627211,11.032889525844064,2.8805434161996217,0.1432589502597636,19.883085626763965,4.929493277889659,1.783163782534671,13.302016217489856
10.41835189953903,15.052666557941496,7.707659772419213,15.77484719836863,5.083978885625751,7.457416664069605,13.139568236607204,15.293502019314108,8.794729255191445,5.548430948602643,24.06146352135235,5.586957837584777,3.375852027048402,12.48544305156758
11.215765413827938,13.040981193535062,6.740502359136421,16.403164375639044,5.3652904736382965,6.899407214264997,14.041936724922564,13.106714839795227,12.463185266042656,9.87819193276768,22.07055708559196,4.75108465084422,2.9059244820644894,12.661900273921953
9.669244196701754,12.265550062127598,3.139793462836828,14.033960028957203,6.071536866503649,6.533489773996635,13.05444110151626,9.485121054379077,13.4223932151164,12.509785522834804,16.695204449475522,3.392991459330645,-0.5580373165496876,8.94390182075941
6.382669726596788,12.034357221058496,-0.8815067158790271,9.777204161517028,6.7952720173902605,6.869427877624517,11.91107314855462,2.138616681249631,11.844599813399968,13.33303454986855,5.4298363014635,2.5345001906957947,-3.277038493793348,1.1263928467331892
3.2097463804432635,11.236613453091705,-2.534938523861385,5.017831771229055,6.9029400539017445,7.673008778972502,11.388985355055098,-0.8246030126461917,8.876685090489048,12.802395812123372,-0.2547037475739959,2.841369154004724,-3.6631238292901616,-1.297678250628737
1.8284170549841576,10.497646115523018,-0.974988116669806,1.2687595515984214,6.212702831410226,8.32899614419459,10.849371681137155,1.509030564076626,6.34021958792718,11.690460368213024,0.1666942133716429,4.294694539905862,-1.5308485439079038,1.2609253646276206
2.2886382456452736,6.562315214825555,1.9211456791139767,-0.2002892572643446,5.274809482816067,8.403487594307421,9.067770459910676,2.155985083425879,5.555618895846862,10.498336880944407,0.6899589545897667,5.988538188167539,2.2472233406439366,2.831519928929222
2.900813176917069,-0.8914615337966725,3.2245788360116308,0.8759255801293193,4.930274472675791,7.889459685374902,5.573383565307225,3.089386248703028,6.189886633103185,8.936298860520992,4.101585910055406,6.373310518793616,3.620489351640371,5.22083682550134
1.7115734205497404,-3.944376519839016,1.4606630276203276,3.29310456018311,5.524242231712563,6.993813655251586,1.2933083610818414,1.6155173218199228,6.352246584242039,6.067024781294705,3.346376372138596,4.148561773801092,2.387745823602395,1.9110230142704407
-1.6881449595255449,-2.8500458347423803,-2.319484405840086,4.9694221446149385,6.477851241799527,5.757535923816249,-2.0687898297856577,-3.336052093138582,4.118206940117574,1.2178636923556212,-2.3740419891432083,-0.6395164659948165,1.188210135625901,-8.43345300095803
-5.694188318101112,-1.0236435471551115,-5.66457272841177,4.417826131026274,6.613195495543977,3.915892073597661,-3.3697505816610374,-7.573839630223117,-0.7653634104329541,-5.03044214393401,-8.262303348151748,-6.253571127581239,-1.0000481806759125,-15.86722315820149
-8.043238329404176,3.2470702797509765,-6.787077815020609,1.92089229841946,5.006457330334683,1.1570112195154252,-2.9065195319104475,-11.942369317508296,-6.550660837961686,-10.747073168030596,-16.132411039469737,-10.242255809348135,-0.9350605098858192,-21.87497612718255
-7.767839847767817,4.262949827023693,-5.708381847538703,-0.7269371182341047,1.7388742152199654,-2.419404974716713,-2.0748951814689747,-13.315907582739865,-10.878098156493875,-13.763960369534344,-19.76388427488195,-11.144768644609428,1.3424521555551414,-23.02816942989009
-5.950065499510146,1.4434936832198553,-3.7614804407288887,-1.841070880068827,-2.000575023583906,-6.0277759699607145,-2.123761280877176,-10.72692017887998,-12.644817056375814,-13.241588608710911,-18.2409602385015,-9.513427191650578,0.6960313801591945,-17.090082291777087
-4.603188323328368,-0.036283321928053,-2.252928258572183,-1.4280947895628913,-4.561809506014413,-8.396055450445886,-3.1197043931687745,-8.592249312452912,-12.688490565016991,-10.407741629735568,-17.759582625826045,-7.316490140316574,-1.507863854846585,-14.023676788872956
-4.7701987168976245,-1.495977331963234,-1.5696643325923958,-1.1693981061038698,-4.830147322413978,-8.432429618016045,-4.045663173681106,-5.97605442229814,-12.731757047903244,-7.750105579937383,-16.772354307509143,-6.22080163312495,-6.213593930124471,-12.684562233388318
-5.629188073706018,-2.0841346921981225,-1.290077679574324,-2.642320122015377,-2.9308781216033424,-6.010458291686319,-3.923767786867927,-4.4699712561002265,-13.605008538105238,-7.16281449924827,-15.074628605439992,-6.281777306883384,-9.50167781874251,-9.91222285287252
-5.402168043879271,-1.039616259298642,-0.8761871277308728,-5.416521986850171,-0.1685768917329539,-2.330339308241747,-2.901693636891963,-4.899545989404001,-14.367980059284974,-8.444822770499513,-13.46010513056113,-6.171578442921657,-6.086008889453004,-7.42272549567339
-3.1590773481797783,-0.0788708523508795,-0.2060258708864921,-7.064845607669838,1.779201947150284,0.5495911098191186,-2.2482953837999844,-4.279156972195336,-13.114357300191244,-9.381558828709643,-7.857105905579314,-4.631791644987231,0.1241099629675464,-0.8459068678940757
0.185555766151225,1.2338593206435378,0.3948578720660975,-5.419549785483781,1.8781151118841135,0.9092038013188528,-3.204253564168482,-3.1761057459429587,-8.766116053684584,-7.482380846131178,1.8294318660066191,-1.752294539802563,8.901665804239919,10.229241790970423
2.5641171209489078,1.5430863191129272,0.443589861946009,-1.02378175865681,0.2769687706506545,-1.4392740000541266,-5.727963451591165,-1.7457988007188678,-2.309704802606632,-2.1208349818275565,6.048340745016066,1.0604491624753791,13.032229201364672,12.272782547073056
2.434012467042919,0.5109592519315843,-0.4067319779982483,2.836236922408716,-1.960947444795039,-4.903688957176172,-8.337607318530218,0.472411472503758,3.620519057286373,4.632603724389099,4.977276376650607,2.2950266376048205,7.776115468396929,5.274391113237744
-0.0883211900912215,-1.4038814012584089,-2.1935437854331497,2.939587542221318,-3.6671526944062407,-7.188175523729711,-9.275923890688006,3.6915377660909785,6.545792022618713,9.306972044638483,2.1804258277657205,1.568548227336635,1.9818001723041447,-3.412954070088404
-3.524699163377278,-4.7074032026683845,-4.541648325353293,-0.7781877417596945,-4.286049059672081,-6.998756849220143,-7.986023615991513,8.12650427919648,5.907660000189566,9.588384085842534,-4.550999263723198,-0.1707467676449425,-5.189299097037274,-16.817714938209992
-6.271344524929219,-5.94126838749642,-6.644522587790164,-5.015051477010246,-4.026792311323561,-5.008221803385538,-5.550675277759609,10.058096254000365,3.3677941444006194,6.11651052132413,-6.943433167326724,-1.5166035936569813,-9.186918454850288,-20.27624488688398
-7.551733986255755,-4.924859633115075,-7.4844139277633985,-6.215144397805545,-3.474257086807995,-3.199455266194633,-3.665817576078808,9.30705779436829,1.412557811969748,1.976554457536821,-4.39624450420835,-1.6835236502288635,-5.506277311345516,-11.94265796466986
-7.415014153969992,-3.2627241834862364,-6.367347141792607,-4.007471546337712,-3.076542400205597,-3.0935214479706303,-3.0755990640860205,7.990258898285902,1.4374984840463867,0.2228022697923961,-1.1254692866084175,-0.8895597648609623,-2.083770295616522,-4.395432089156488
-6.194900502606515,-0.0694050347557639,-3.517418940758916,-1.4654270687705662,-2.9086225603436446,-4.419900778023418,-2.9287753347635146,5.189127729965202,2.888617989008168,1.485608395415312,4.9985681612617725,0.1122855960238382,2.491582283963435,6.1007766995856905
-4.255711320663323,0.8838422863246171,-0.2116234250756576,-1.840604539206652,-2.7840363520836604,-5.424630525427716,-1.685457150685039,4.686628596960179,4.066536275444406,3.676567681743649,7.707103103237543,0.7577679533950743,6.2087045894080095,10.193467408878217
-2.2166124973551007,-0.7283026907065425,1.8663709239033324,-5.075021243317167,-2.501228849960796,-4.492641848729107,1.2550881768188162,6.934290471339871,3.7369861494246095,3.964359760872469,6.413544909328146,0.972600172912621,4.553488076686507,5.604049439859006
-1.0438992028904153,-2.1830603152594965,1.747604228289049,-7.712809882204851,-1.9971601893502111,-1.5535618475432074,4.763549602087508,7.809035570046626,2.0790446593798464,1.2078203203691231,2.290699634442378,0.9315072507497746,1.9805265343411271,2.006206394088629
-1.4757997914040857,-4.403705799752408,-0.0645858120996649,-6.4040463056360295,-1.364279452338053,1.9622996717854448,6.850420341501248,8.163748992697816,0.2529460292786609,-3.2725194058566416,-6.537165176304646,0.712865947383051,-1.8499274620203137,-3.3576427652467147
-3.160277964429696,-5.366396657682937,-1.8891723172001773,-1.5154441283603717,-0.8172902093791379,4.391877851999652,6.454196950535078,7.339838530446134,-0.816569940735917,-7.088518064356293,-11.342202018500592,0.2826675452883478,-5.253276445859073,-4.953261121167792
-4.519635538512503,-4.639974101627956,-2.0877376040014752,2.817737658076368,-0.6510147023515884,5.013962670217353,4.470473857398588,4.619219122504034,-1.2345558424311207,-8.892840190970546,-11.993567654526156,-0.2447045490791026,-3.424030800470357,-1.1728104008310842
-3.821473211912711,-4.663344902052485,-0.2816504773491246,2.389473707677368,-1.1245087383751198,4.153402730740325,2.9840296943826274,1.9936449354231045,-1.856948467316116,-9.259180418327858,-11.534590496529676,-0.4932987081690285,-0.7339747724823998,0.9752482803773388
-0.6807062653025042,-4.915951718686768,2.3969282179497853,-3.0785158410480804,-2.237406102956278,2.4797307341981565,3.34573473839496,-0.8870747815840125,-3.3291398911541314,-9.69606258097604,-7.839968403455758,-0.1042283381965063,1.5197810520839563,3.1133342397339687
3.395217265738836,-5.522612204953688,4.19127250808949,-9.383794248925952,-3.551386511372316,0.4729582855320942,4.869760381656537,-2.9250139815779423,-5.350373655661784,-10.905710665272904,-5.507995981346991,0.8559016587761832,3.4046834109475275,4.141010212363562
6.028344981644857,-6.864137232045279,3.9996559661643247,-11.278121603826229,-4.314420832197254,-1.4816497658368064,5.39187910924197,-3.680762836457871,-6.750829645334671,-11.974254795811657,-4.648203973557122,1.835152093852105,1.3552579812111247,2.9767630876647067
5.735632320223431,-7.792934036101139,2.059112630705066,-6.845737829247128,-3.9470099912428616,-2.8389130955833224,3.199717352355499,-4.108128910527981,-6.272814870073411,-11.184985043375484,-1.3833130264594449,2.2105383940417305,-1.7138760203736372,3.881840457991685
2.95763824418043,-8.419163237056052,-0.386392834655453,0.9456845542354984,-2.556844439290657,-3.103045434497816,-1.4159571834286382,-3.762561174163279,-3.486921194772286,-7.628574061172941,3.43016183065603,1.7806107352194118,-2.947438234910634,6.443735983809543
-0.411000773351887,-7.91090495858231,-2.0413625528851327,6.699047861793375,-0.9789639484229866,-2.361169258012552,-6.335932712217897,-3.393234227558943,0.7588322459554888,-2.124987782443256,7.071904364042745,0.8565116436901548,-2.8908691382899128,6.811575013906236
-2.44165449332904,-5.940704062301477,-2.3660926372084106,6.799375995836371,-0.1872970581992774,-1.3903307407453127,-9.241933875085522,-3.0712743061910066,4.681955956724792,3.32638154569581,9.85686092065808,-0.0762167394504018,-1.733568657989403,5.50024884447541
-2.3456568046151745,-3.717271050933279,-1.7204756929745884,1.8610438515224812,-0.5337033416405745,-0.9935914954482428,-9.200682059471973,-2.761797740472731,6.587957911602899,7.033668974978326,10.235832490793465,-0.6978751900660427,0.3937838446515327,3.843688926929223
-0.6411617191847654,-0.9497798347092096,-0.887284897381619,-4.332639383754838,-1.5116557151956729,-1.203310517513586,-6.964155004320077,-2.6916500112723067,5.994813555693696,8.75231426170427,7.425893053742069,-0.8348831143568134,0.4948480144572822,1.172805967620779
1.5473101484807614,0.979542840065598,-0.4220662372881349,-8.082564955654874,-2.278466483851872,-1.291457889381661,-4.039798792243289,-1.5371824574725617,4.070908485499842,9.594973525467395,7.648447399515893,-0.2113682950363511,-0.9066752649736668,2.879509557062638
3.384007777724605,1.7700251220349894,-0.3062723550595478,-8.285909260569042,-2.414193268372486,-0.6657656678563342,-1.5478602155052954,0.7149938547571716,2.937677453354297,10.923352585824489,10.676917935019192,1.5734723501485064,0.0417900381993689,9.53536015673411
4.808431090725662,2.789691579437323,-0.1023143973220044,-6.34657207001294,-2.1598374405918435,0.3431337415901225,0.264881689995093,4.071439177764216,4.192769507133221,13.21024459579172,16.33449970077666,4.635619657386883,2.813212279728804,14.45675351247066
6.379417245963225,3.633209935091051,0.5617120982100801,-4.177467173777643,-1.95503097073572,0.7760694048114374,1.7831634856379424,8.901625095041275,7.681654688602464,15.727396397786094,26.184323371181204,8.314410008895209,8.609394510682169,18.764638031049543
8.61498984614883,3.4930167414188107,1.5858139308692216,-2.5472482800794864,-1.8697368631899849,0.1887383202127921,3.4990593881642558,10.330413177089389,11.468543691115087,17.13733922080405,28.264821775342096,11.18672756682497,11.989161298083348,19.286217258998427
11.273574064125455,2.4250359750719586,2.421103915166896,-1.2330744964009457,-1.6091661308499852,-0.6408393486556747,5.574591882544951,8.069177597095678,13.101056640351883,16.419553652219463,22.17621999138873,11.794671620749284,7.258491570747401,14.48419163272853
13.161575318773032,1.535532555358991,2.535288964543099,-0.3003390933760101,-1.0519779933188147,-0.3688607651631628,7.616638878653475,5.303202506232375,11.289542423079864,13.497413249207852,13.170699473106575,9.634637459621558,-0.3805204830535525,12.02989154509252
12.80009912667134,0.7249142574546826,1.9474028946223143,-0.6406046033726511,-0.5905287108539596,1.4440114347231088,8.753543515147555,0.8441126998551477,6.798363718586529,9.282350694939566,-1.725261431817603,5.6362734343471175,-11.08557000913763,10.997013120489498
9.61430700674464,1.4038270192956113,1.351052366102067,-2.8787592912912032,-0.7331646857304577,3.59627677013259,8.106111569976974,-1.4419799647176132,1.9157404840908607,5.2001353918363975,-7.691337868700883,1.69046390978815,-16.162307432667912,9.898668342102642
4.719958547919646,3.973810271651826,1.6523290319230457,-5.809055338008534,-1.3391914067158268,4.155962311326675,5.473317660921339,-0.9539550818172424,-1.0993979442836237,2.4552126142375528,-3.44186544146082,-0.4957269763334579,-9.54002440250362,10.136406362901775
0.5145908687026122,5.823080454438071,3.2455627142013554,-6.3692693972013785,-1.4282615570003827,2.2434459378794145,1.6859887631773065,-1.5395478554326083,-1.4535020699540837,1.419478547131348,0.1430739962864859,-0.4128549970971562,-3.1129303458252227,8.736177761280715
-0.8032349066849065,7.303251041197346,5.609490274935752,-1.791535936085097,0.0060438874402279,-1.0606019658359855,-1.8313141131387736,-2.2212833547727198,-0.0924142764415592,1.5595087844006912,6.7006424040503685,1.0870403870027303,4.047073112500643,5.731176679411639
1.2771673428562735,7.710775277326448,7.576405091433003,7.708291350684931,2.868840222568224,-3.626348553795879,-4.068325772464164,-2.3266115853252693,1.3282221556966078,2.019233595267224,9.262362914314256,2.558019276362529,7.801251624424539,3.750470240368171
5.215982522100603,6.459023452003642,8.086715540906198,18.19996460817083,5.70846286178778,-4.146087274741603,-5.141325255942434,-2.281363832997011,1.865534456419141,2.3905218599538784,6.190069363288249,3.0313425493183104,3.40010406224517,2.313154264503578
8.435769411620413,4.634118662359611,6.855328799599874,24.25018540587405,6.758649190210917,-3.148425800868722,-6.00288489235993,-1.4987561433342722,1.871282473423662,2.9067724582621395,5.204975939250633,2.5543325552876013,1.6626148402265393,-0.6553822625935246
8.919488422358313,1.8319466492695728,4.47737804853557,22.53996204312466,5.4138038390291285,-2.209636700168744,-7.360359741081993,0.0725169644435559,2.2666445227210943,3.800460919273291,4.378549884258594,1.840766890674672,1.01065398829459,-4.903358395070154
6.296203201279354,-0.0228632828794496,1.9711296497636115,14.117834024600144,2.774840226909191,-2.231419682391106,-8.79702391863077,0.4936583959739362,3.281880256366094,4.533221174712253,3.019148443398765,1.454130443446843,0.2075392127362656,-7.211655090178558
1.8525127847019576,-0.6847576451618068,0.1684059229683043,3.627935523386896,0.7422095868873839,-2.5552232810184705,-8.935432064097995,-0.2604911351139031,3.9743584815096256,3.94292683812364,2.0479366408240898,1.3303621039365223,1.866443494363316,-7.709863142684571
-2.3219704867988185,0.1356397297701362,-0.6175358103903363,-3.774655494036324,0.4825455778199057,-1.7706634485634822,-6.53573360775124,-1.265208465770707,3.084956765005927,1.447447358611953,0.524034511720561,1.0591047686205002,0.933952552717868,-5.971965618796592
-4.456909412315213,3.1298843743142557,-0.5326230596724599,-5.493479807324263,1.6335062445296558,0.6827785683909724,-1.59754862627085,-2.9815886377619205,0.4276248501309396,-1.887936656825275,-1.40691465502532,0.541734529080486,-1.10323604421101,-1.1127191140307222
-3.950324717958495,4.14006253897797,0.0699259609122577,-2.51603684270475,2.8562150428169844,3.8009837822673376,4.434526566649879,-3.2921094525844103,-2.6000744428889107,-3.8118886473734506,-3.074539538439687,0.2382804140576695,-1.513656471117249,1.0433539326485446
-1.6180012284461327,3.225144538753676,0.8292363715189595,1.94426020294668,3.0909384109692155,5.900106580220836,9.490273982111376,-1.9833436760797605,-3.996537425891006,-2.8326794480454964,-4.5485373233139885,0.6557912534101433,-1.4694921653691742,0.5152471403844762
0.771911873904628,0.7414676744387498,1.4519537059811682,4.90689905544923,2.3303901202557427,6.151424592373132,12.060962368134824,-0.1800794109430397,-2.8073104452578264,0.1087283729902992,-6.522377527270775,1.6015264958541593,0.2256162729859159,-0.0058331561047664
1.5021977020077202,-4.37611913945784,1.7370506483388226,5.422467604206986,1.3320331513275503,5.208398430854004,11.91341814122893,2.696884933375471,0.0159773127970765,2.0515629689556363,-8.912294007081774,2.0882377762551414,2.51305984322388,-1.8264729958774624
-0.0876367435929523,-6.655091403342835,1.6078370214365805,4.666074492113353,0.7446026616371455,4.385593892952556,9.942426330739067,3.268899916846985,2.2812183804445567,0.4221761069621834,-10.321858371808156,1.169788159015411,2.671001216923797,-4.592879084326581
-3.2572895717785286,-6.036895678228649,1.1210919399476325,4.50415458154896,0.5767333881503873,4.3485688894854775,7.424465575643353,1.212583688794545,2.149188663290488,-4.688003879940879,-10.75744712669454,-1.037128411945332,0.6426853436149135,-8.257433350458728
-6.453873689288798,-5.430541944143922,0.4127064335507384,5.672863543941048,0.4360358526819254,4.671025428998746,5.284672040020496,-0.5947244599758812,-0.6218415220990892,-10.517576010690163,-11.429317458222364,-3.23501305411196,-3.080477324102025,-13.521254929492857
-8.382323384993697,-3.61472943796318,-0.3758060369475515,6.927746762652873,0.1314353337542115,4.578236579830218,3.840321388280813,-2.9631543655221244,-4.614529863141001,-13.934527044175638,-12.06979947712975,-4.023001964465038,-7.858355086269788,-20.39013366770902
-8.69796213267557,-2.445704020001885,-1.10800233540499,5.884517904780864,-0.0695759330737928,3.921648730870857,3.0124062953103703,-4.086183801249706,-7.738598182455007,-13.910150786784584,-12.506710984434184,-3.2503409968074948,-9.237257536110768,-21.745145189818384
-7.815408337875624,-2.2319524716841976,-1.6029858608393397,1.0631457640799908,0.2282303328934176,3.2807491994304883,2.627106424883664,-3.447012992305925,-8.502347517736439,-11.97046530285536,-12.909723450888167,-2.319781068473503,-5.300765126371256,-17.051468726366448
-6.163124346565269,0.1820322826954512,-1.641458456177702,-6.39605719030078,1.0467860896400225,3.1356292401839028,2.477450297779342,-4.121558122281174,-6.829616368889447,-10.446804398712176,-12.096753910417092,-3.0163594064856625,0.2970124437445327,-10.086934596949048
-3.721444824458104,4.480177044331135,-1.1212885652456634,-12.880216423977233,1.929652184389852,3.105534347982257,2.2078858127425747,-5.661791097764599,-4.0688346243591695,-10.37779086249509,-9.982247555340845,-5.834357560815874,7.402615103461684,1.0628934721509709
-0.3332343929537273,6.551943967776287,-0.2766611808942798,-14.552601399749392,2.333974518560808,2.180107870268273,1.3702719007769133,-5.558374228233858,-2.2327672306021213,-10.986816936359103,-8.254809099254212,-9.327435173502296,10.927093205665296,6.559038386807444
3.588307831755344,6.665634565577292,0.2816049696165237,-10.17779186365476,2.0967483737129555,-0.1995907859264321,-0.1853319507131345,-4.137238307424361,-2.8211841199587298,-10.90271291505212,-6.7154067275505,-11.144190143903018,7.5153019699767825,5.444656699515072
6.817966268029238,5.218639712129736,-0.1213212215245675,-2.2679791533336697,1.5148620906812198,-3.2917720014295355,-1.9225509919469916,-1.9609180601851603,-5.826507677184054,-9.611992405183742,-5.7598485947895135,-9.901803655530273,4.019646110876937,3.4504541775162307
7.985919652011205,1.236371587974771,-1.6810808219725573,4.5657711561675,1.0109655349221498,-5.376051146492387,-2.7972042173043974,1.451864257894158,-9.56448512525418,-7.684558261050768,-5.785477074804115,-6.28866206879394,0.3122872247293392,-2.0535038099841416
6.650753777340071,-0.7433007411357888,-3.754121461811394,6.919397487645085,0.755463790140368,-5.1082569653609085,-2.120504758751508,2.4394897279815884,-11.59420731079723,-5.824534894832482,-4.178525639969285,-2.468953398720032,-2.5608787123745342,-4.580604654498241
3.7551724745767383,-0.6852236432177563,-5.087538660865562,4.952159715512892,0.5899305693737915,-2.7718343673540744,-0.4458054283015258,0.7266347602457609,-10.276643900400927,-4.037540963508093,-0.9985347705852792,-0.3569656180566198,-2.2492515742044383,-3.398312807517265
0.9178745487522804,-0.5981444767195843,-4.649087902272157,1.8646395863890175,0.2483416951197057,-0.2832907659258694,0.459581403753333,-0.1917745032702429,-5.95449777376038,-1.884184723470554,3.860597818478455,-0.2773385764967315,-1.940016779812636,-1.9186206081543653
-0.9116236420375684,0.5603322227989311,-2.531777471152168,0.925859809429994,-0.3933510527564579,0.1789732803403012,-1.1794686083196382,-1.118833623327451,-0.8526893771154107,0.5917141379146358,11.09133460484706,-1.0974140533039929,-2.465881735048235,1.6251044849070813
-2.246113825264615,-0.2380507819158905,-0.1757178613472092,2.540841863620983,-1.2575972353565703,-2.131090262763138,-5.61831340478642,-2.292476701127622,2.3395655889630973,2.4938563261960383,11.952415572902868,-1.5488477148708455,-2.295526102246748,0.3070667313029501
-4.527847400904278,-3.2727935054382566,0.4623438376604838,3.846241055119464,-2.177782999548242,-5.903793028053201,-11.068160033228423,-3.2267418084685984,2.2380228958942894,2.837051795227921,5.966071830795554,-1.4236329142049726,-1.3925179665229657,-6.502217987971779
-8.672927392708175,-6.5429829738302905,-1.664128182927314,1.2369149478385566,-3.0198256623172317,-8.76586601884489,-14.756758427916736,-5.035007340322457,-0.4048044929334793,1.6531919725869386,-0.6087851780860344,-1.5617853653841962,-1.5553703693558238,-14.738608383073744
-13.97112793610468,-10.804259155227829,-5.749944264642465,-6.233716710739117,-3.7035075474366153,-9.067553005152746,-14.795121506675514,-7.658453885049618,-3.3985590927317446,0.1566689232176372,-9.822531897533576,-2.7712111104850408,-0.8721404565029203,-26.205842956538703
-18.37390836122249,-11.84659521871404,-9.560244251835664,-15.450430710055857,-4.1552685197801935,-6.959741790033675,-11.357264167724452,-7.618887433315859,-4.752065427062973,-0.3427728024907139,-13.006936691905848,-4.832175570796608,0.2304046712941916,-29.69493078113421
-19.996477548983165,-9.118743080649228,-11.04818238064254,-21.18243560371625,-4.292651540650763,-3.915035301537678,-6.293531016482849,-4.814956136497036,-3.963306694506734,0.2879939921146182,-8.70404204960707,-6.583419718593003,1.0293268842676495,-23.96885314739674
-18.565093278496747,-7.134482086298471,-9.919855168473946,-20.04141022292676,-4.088500990061947,-1.2775850029831508,-1.6574917550679835,-3.0452320524587964,-2.053870051940616,0.8826636303814337,-9.39797444053808,-6.9665458778111855,2.2188753717078566,-18.63816543747924
-15.554386880236931,-4.896883063112304,-7.781914343668882,-13.353244288195874,-3.652196372755221,0.7232941406855371,1.5418622956055952,-1.6637455178637035,-0.5130152457909052,0.1710229757208026,-13.203059989406183,-5.962568258951482,2.0080858936222485,-10.922794969410557
-12.904571802542227,-3.757512737153028,-6.629669336011084,-6.468487481493959,-3.214210278994834,2.6309266312763957,3.457625980232109,-0.574125366411118,-0.1280272707944192,-1.8922159297525027,-14.379256564910389,-4.5172256780727125,0.6937677007095172,-5.527283867921859
-11.449652401251242,-4.528728667672853,-6.921681200431891,-4.718426324731844,-2.9705986264305864,4.633084269585638,4.623380376999208,-0.4597657773049488,-0.5866079758058262,-3.9765272903555697,-14.697941671873842,-3.5979413544490058,-1.125766226230612,-3.991431040733184
-10.4021804852606,-2.8407278677105645,-6.991922975772837,-8.997310428382477,-2.8981101452729376,5.97816781673798,5.227122175796254,2.556161847532137,-0.9743579201938104,-4.52852166499784,-9.000850453480641,-3.351895050885318,-2.4257320102827573,0.2697836850263134
-8.2559387760043,0.959391830434022,-4.473976012410532,-14.58772431550311,-2.736908389559588,5.627979657873027,5.103688180386271,8.539712469103263,-0.6091535056504398,-3.111854885440636,3.9308643929233793,-3.135016289565428,-2.1236514821895502,5.863120031584645
-4.223767734792133,3.1898892315568177,1.3967267352639254,-14.578245474970686,-2.221848410750724,3.4663100215625064,4.2518095895989205,11.270643990659858,0.4466814623865787,-0.7311688967518535,9.219816002074406,-2.24471928543602,-0.4645374398191364,8.172211080523685
1.0446759911710757,4.463225946452617,8.658064762144633,-5.547973866652427,-1.3803206481132833,0.7517633527909027,3.185011727880948,11.20329796110631,1.483374018450192,1.0437334577825652,7.39642587037078,-0.5402175107449381,0.981880886027352,7.705094094958871
5.969997576684335,5.284121079777579,13.808901647986673,9.005596335918767,-0.5699977596509598,-0.7413648136626136,2.707862910778772,9.91049391346509,1.7116955074321254,1.3007797011540276,5.4248109799532855,1.6115295214816854,1.1146351821319789,8.475400453217611
9.19430635846382,5.004271399912602,14.41777544805646,20.66777717988921,-0.1311392307445373,-0.1250973115558622,3.347694155956333,6.07004659322943,0.921202437520236,0.3636648831486013,0.2037724412213808,3.846745154421938,0.5246989019995009,9.825942609988036
10.369688003105496,6.028758355204989,10.94703517898938,22.442378488143163,0.0622986692735025,1.94648365606443,4.975506734804156,5.213515305836,-0.2108028543705131,-0.5839374524227026,0.532707550743315,6.1221057786091535,-0.5356746129909891,10.887182814659898
10.065192001886771,8.405257675232946,6.240313015023986,14.453120890916466,0.6652156593368943,3.905399716998147,6.898342571382472,7.618631759118762,-0.4553964270630786,-0.3864302601839142,7.528109247392569,8.499054630913065,-0.303943505169426,12.344940864605428
9.075945412401635,9.438746703541131,3.1827602474871526,4.0575003514109085,2.3539767518414294,4.5336648024866975,8.274145153417521,8.625732579861676,1.0906158168316438,1.3508860857473337,11.029191858033771,10.685239192294148,2.286304389677627,10.366733746182431
7.805425104847728,9.524383383982704,2.6065182974789423,-0.1352807046932866,5.128201817471421,3.75711830646398,8.52929304185929,9.405675336125672,4.182654593318148,4.081886901556572,12.954510587403131,11.888328811547495,4.633116619011531,4.674883179618695
6.1596390509359935,8.117200089337631,3.1411732474218184,4.536388170718709,8.063017000000542,2.4382994964555564,7.593154622406757,8.25400260064303,7.390161805460508,6.684926509826028,12.371158394791394,11.222507104396811,4.748645597484801,3.5215036933774653
3.907053500863526,4.632078812279003,2.832172843632776,12.696414292579249,9.80297569523546,1.5468807779988936,5.923676155437562,4.367693752603894,9.035900995348612,8.101140932753168,7.47619120843714,8.386518518369371,2.3790266736661194,6.553262585653013
1.1459532996082658,1.6598556659046706,0.8360876756935909,15.98296430081382,9.443400370359967,1.4729252881527657,4.311249009573913,1.8900327046024636,8.440801077509434,7.893427310539494,6.265714115286849,4.081993672244664,-1.1846380110772932,9.53707895545735
-1.487756466345047,-1.0013172569487232,-2.2502715006430094,10.767876641993809,7.115852464186759,1.9273792099641869,3.447455718006154,0.3648626397814101,6.425170390912939,6.442791916943378,8.360853290959255,-0.1910714813532195,-3.7000724470938025,14.139605988379536
-3.047416765176422,-2.7498180190989494,-5.303660396713866,1.4050502464050112,3.8607003926636025,2.3186556751367107,3.4142179769261247,-1.2125492014545802,4.590956316441947,4.688073409091743,8.627974696330442,-2.908458496100849,-4.038234878801054,13.01986861983914
-2.8500758063441936,-2.9384172645624598,-7.575987459239656,-4.101695547734693,0.9352301754345262,2.210094617149167,3.4724448363318743,-2.0795551198469098,3.984149374161774,3.563477550492479,8.484436001935247,-3.4192983748765755,-3.2646427619132297,5.168167478102636
-1.061551459081926,-4.352927186693886,-8.734861585383584,-1.933181176066114,-0.9234582994078266,1.5506809638276875,2.466502323196579,-4.957919973700714,4.304194019125362,3.471108301045348,5.391129742769108,-2.370378717956868,-3.6850342146674704,-1.5268182465126623
1.1547904557282038,-6.751347752493446,-8.457018460613625,3.7435732699276514,-1.808809947240718,0.5982385022947767,-0.3130759523255904,-9.995883284236047,4.330676959089203,4.113739001612004,-1.5635536156498595,-1.2810793805444405,-5.632116683485683,-8.81316559521457
2.1936340223762727,-6.946473318749544,-6.50624546887795,4.751295649918205,-2.379271254611325,-0.3624438455387064,-4.467514259211072,-11.309504000452256,3.1461767676968577,4.795860047508825,-2.254406547524708,-1.456427411254822,-5.854566623598633,-8.52665155345494
1.0739827513249338,-5.22452307542921,-3.3916984821905487,-3.0860019873965427,-3.2249990925649854,-1.3008480653507206,-8.650267343779802,-9.106699204372733,1.059909478677156,5.004392891152293,3.1932337598245466,-2.9823778967766827,-2.6304655033861803,1.3442790655220596
-1.651163771932204,-2.180129502383879,-0.6267667104297345,-15.53786541328094,-4.316816442931696,-2.483701316005863,-11.493887816193364,-5.724539637424479,-0.5402380014004962,4.879269832454327,7.2216269119825505,-4.604942325600149,0.9693728583126584,9.503966444589738
-3.8860931158421295,2.8681543602119244,0.2237099742913244,-23.35228875682276,-4.986061821165208,-4.170263854218064,-12.52370321959637,0.122846321886077,-0.2276515748394558,5.220088661187134,11.781930002708696,-4.661414997826881,5.341777035119484,18.14856282641974
-3.134817137839889,5.48055127416346,-0.8961356106682956,-20.250715061098678,-4.529278964673779,-6.152400468484586,-12.2653994444357,2.9340388382601708,2.413547533106069,6.961057935412811,13.948778786988976,-2.3598501797433187,7.113376885289124,21.76523738146598
1.792942292945611,5.408619522176496,-2.0169605545143128,-8.212084946377786,-2.9689797217848195,-7.598400332280008,-11.531749720221256,2.210480791281373,6.506596345282361,10.424770951397903,12.406379302891112,1.63090300679778,4.416599845616176,17.96052397917693
9.674938352322158,6.616728760401568,-0.5952667475536515,4.4681205113713816,-1.2194211261484895,-7.539095847823404,-10.66711072927879,3.1777074584616423,10.453400424338554,14.873831425152815,17.387431019637987,5.742414913150171,4.692247299598872,19.20712073400849
17.307126400197475,8.156186749236674,4.121222622146334,10.166305966692905,-0.343935248364815,-5.75788454869226,-9.4961593127166,4.603954079694203,12.832817081475396,18.73143135897122,28.463260205810872,8.693323822044448,5.965274705000512,23.97716455613281
21.377259830710585,6.536365358618334,10.029824553763405,7.623325380897995,-0.5184563958022892,-3.28474033066172,-7.889606904632203,5.847211957891139,13.033392601638994,20.40721168813731,31.93431857781812,10.278896006173383,5.213339771990043,24.457489127322983
20.54180252969529,1.958409300980728,13.605622951761902,1.812278727708048,-0.8029239989827204,-1.8163771875933463,-6.1620953582368685,7.582941397324055,11.39087635234371,19.238996602721087,28.958159258997547,11.173104592415484,2.6565206304175013,22.363911657931745
16.17412785770324,-5.755494913246303,12.702325826014588,-1.0768459542294977,-0.1743783186700511,-2.3120764696722915,-4.760852995329543,9.074646802018613,8.945244807511045,15.94255777923361,21.39474420871546,12.059871510988389,-3.048432127074216,15.595779632356283
11.20699616765352,-17.532513390996968,8.26215395302475,1.2922346274227436,1.0670564032266867,-3.961619412176802,-3.625846629506938,10.394860978192003,6.977550095693914,12.229222603765956,6.230045030243011,12.925421779264497,-10.285347491911434,2.651742359181799
8.002635141641086,-20.376709980773963,3.463671810376603,6.357234095465252,1.0662965049351951,-4.649317483762111,-2.1043012031245567,8.899571051844775,6.397160230634086,9.750216265259809,-1.1732845822154403,13.071333516003662,-12.413713062826808,-2.068577658016982
6.955552181666945,-13.519852941897724,1.158497686163372,9.73641705512943,-2.022167696608648,-2.7611535894846924,0.2812109932883899,4.182303524173989,7.126966460789163,8.980077101411851,-0.3775388459169712,11.719093273840883,-6.9291840023987685,1.5499244604445688
6.831115210967219,-4.74594138673899,1.8612108258905595,9.182005397638491,-7.864945601536313,1.1949169091513738,2.974805573936237,-3.076147271957374,7.874069913648938,8.788752595547386,-2.094373575665601,8.64520980270386,-0.3067457202674205,3.539056556606683
6.291460174722111,9.187724121394476,3.840906756303984,6.051570047741141,-13.283054115967396,4.738960597209349,4.49876101587045,-13.776463008705228,6.680397224560604,7.107979955256734,-3.0025216172520848,4.394364779234632,7.632896347071468,6.911848005749765
5.1099392538898805,16.77130121351896,4.901522423932562,3.5590082434536896,-14.110067561646344,5.400184526826408,3.666915235431258,-17.641994518461395,2.1546080471856044,2.3775425133094146,-6.771111729858768,0.0093190933051907,11.410093255491894,5.545468635011869
4.076713501607115,16.519577443930807,4.137497950961967,3.798751581628254,-8.338850287944966,2.8486780498172752,0.8178243443232223,-13.956214214716598,-5.387833610464035,-5.193656018157901,-14.870591518907862,-3.489290136829764,7.396126018536799,-2.2650135383823
3.950233995722514,17.809478992775144,2.324128654481025,6.182590255462668,2.033565216236015,-0.7492313795612597,-2.173336322036847,-10.71664199215663,-13.796199339353652,-13.52725248073932,-21.756638860932764,-5.572414146774994,1.9862727506520248,-6.00280671031806
4.625049048894424,17.677064985493733,0.9825091728910624,8.331673691941518,12.141546023236463,-2.510061577321854,-3.21627873499997,-5.49422695371868,-20.19727143450097,-19.911660501321045,-28.57448906949744,-6.373042537422034,-5.387595557342075,-7.138076590934716
5.251872491444031,15.942470539383162,1.1456601440133731,8.29341272239962,17.578558380397826,-1.1769912821593849,-1.5016892457630666,-2.443302661937511,-22.58777150304033,-22.69766361412005,-30.851791807154356,-6.4411499880138905,-9.274640008919528,-9.174460035302218
4.984511739603423,13.460864264980408,2.7459017851003797,6.05908204067522,17.2732399419759,2.002059141472808,2.0953135899068034,-2.818339952184066,-20.78099599225444,-22.18425156002065,-27.29251988927808,-6.2191106707837935,-6.169583543354822,-10.437066426905831
3.5244557833391355,9.238586792796076,4.794595848162043,3.2846171732117924,13.667316991244718,4.502655774191531,5.877556180068218,0.8868007079213688,-16.178582635936714,-20.09293340470881,-21.11928837087543,-5.657823556027559,-2.372362110689649,-15.25714605905418
1.0850280513836523,3.474254130933337,5.986229735541325,1.7950945083852154,10.244553471525148,4.634824264884106,8.506811589277767,7.67473924072577,-10.789143063163507,-18.190553927775884,-10.72177245782739,-4.401342650466997,2.241586733867681,-24.17649841324673
-1.8917231369361005,0.521056105961081,5.346310043204774,2.320506125943062,8.643824729093108,2.696809757232387,9.49949100151851,7.383415409239636,-6.3230705397265865,-17.22841012832144,-6.883575517845458,-2.503104782645508,4.769110770781958,-26.965046603606424
-4.820678414898438,0.7007327116271891,2.727183315826004,4.351528855729882,7.787877216988676,0.3777090572661521,8.912644304308543,0.4475281180313165,-3.813366659305615,-16.92294299977806,-10.641333418342434,-1.0083657664474188,1.9985236388204333,-24.017690057081406
-6.914556682904603,-0.3568022135361264,-1.014542431837988,6.797524861148183,5.567000147430662,-0.805045434415824,6.869628255973005,-8.880958265036398,-3.6142708912934793,-16.710297183988708,-15.11660754942962,-1.6133503206942237,0.0552608591362072,-19.00086907492742
-7.386265775146931,-1.6866381816966665,-4.363485525467674,8.55583312313967,1.3471188216965757,-0.5866945686832707,3.500413960115601,-22.81518965276764,-5.452083332479866,-16.422433434341812,-23.145882174498173,-5.332263392747606,-0.6984103868789029,-9.670177652933454
-6.017318262945857,-1.7868997965633853,-5.993316026021837,8.611542027432968,-3.073989380215977,0.2136487324500393,-0.7735191460650128,-26.00118136368926,-8.46295107646256,-16.2879843668972,-24.71815432771349,-11.159596896598714,-1.364769454433972,-4.845948485706519
-3.5966669328890437,-1.1647145168446784,-5.625097187586107,6.109294467376486,-4.949531933535496,0.6806310051507438,-5.081314754162854,-16.907081752088974,-11.385629851505804,-16.382074751511055,-18.53738096439849,-16.070284525977463,0.2058994569160792,-5.203477914183103
-1.6334809123316134,-0.0685798086265975,-4.188232835683195,0.9064592540894908,-3.1578950168789177,0.5815094656334807,-8.332007492184374,-9.75660349717358,-12.977366169027109,-16.142862545342823,-12.285597639214789,-16.79417349216437,1.4602774599615638,-3.3564111132907803
-1.3842005242919058,1.6527102298220242,-3.0438668304281293,-5.696913509651424,0.4652310742797994,0.319768271911343,-9.648920195195934,-0.9315462369454056,-12.4768315773385,-14.494952415732236,-3.3343868181150125,-12.2475872969936,1.7091788333782771,-1.3025404727109169
-2.9716196202327154,1.1298197079225407,-2.893777237615112,-11.049592934247292,2.2881152245053755,0.316413652849846,-8.689799594518846,2.639840490188316,-9.881437645621707,-10.618758839569622,0.1297488338684525,-4.683103245252937,1.7719963828240437,-1.5546898413466337
-5.392169993118557,-1.9394486270465017,-3.392010353911104,-12.597236027385996,-0.3323910513201582,0.5448576645339216,-5.748171025446126,-1.614634282207474,-5.951359480858557,-4.852871600136751,-3.333767905393827,1.5783350239319418,0.1258673175152251,-3.46836690855598
-7.419884186127632,-3.877479687478521,-3.852037933950285,-9.821932116606192,-6.843542646952358,0.6579629409881704,-1.7109814341786915,-1.4324336537613993,-1.972600031296892,1.0354095482315984,-5.063705841039099,3.068102981799754,-1.290340576962804,-7.750128398041653
-8.577987620191607,-5.276652937118731,-4.294584411251989,-4.914854390883917,-13.587833904041815,0.483515539900381,2.135889582686829,1.203070568248866,0.7006162013146593,4.674470200540327,-7.167494245671045,-0.4313855352027218,-2.2653232139797352,-14.902463381024877
-9.294240965041013,-5.630266684865309,-5.601865960271425,-1.2400779221990064,-16.139915896479195,0.3051748899414264,4.576069417921914,2.247856061253441,1.271149434686663,4.659485632411517,-6.367812616205518,-5.850470099478329,-2.576939023095206,-16.533480634417007
-10.147363165079128,-4.205483124702844,-8.389301225697182,-0.6679204330144586,-12.208889809893094,0.6150512883779697,5.128669910303458,3.478690924026114,0.0257650472697008,1.7327848849622,-1.1640100253243748,-9.13933704325214,-0.5099347832857202,-12.234685217671297
-10.993365873801451,-3.5771306537871395,-11.658181983932051,-2.1264997532831984,-3.0923211511891964,1.593881734519485,4.446893433182666,3.2148560830152504,-1.678059840141941,-1.540756284014364,1.1540144247671935,-8.093695046988671,1.2897583862083115,-8.284925687961785
-10.8912251795049,-3.477279008084177,-12.834846083869849,-2.779344536714248,7.237741954255028,2.8525849318499468,3.929665985291493,1.0701663782069004,-2.187430229586056,-2.6067035792201523,1.5148893629037696,-3.610524662198955,2.802922507442452,-2.764728383958196
-8.992342002070686,-3.877735204666248,-9.65629955847298,-0.8069694566450352,14.641159684904244,3.687234091523933,4.603945939756926,1.6486894390311364,-0.6945874718092142,-0.8698670057133597,1.8840170525461637,1.319260899249059,2.9287648209663506,-0.0248977812729725
-5.608312065856069,-5.311922808454701,-2.4715225129287006,2.7836479990995,17.054016807669328,3.594986428379528,6.118800825465655,4.813968750575896,2.1251608269215154,1.946515427418106,1.0158238473267411,3.829514705409792,0.8796620717903563,-1.1624340353663185
-2.403059531893433,-5.607507885732375,5.243936604522133,4.969266139009264,14.968325927347706,2.5876808948883223,6.846021532717316,5.353181547958566,4.597405219715753,3.4392853435841886,0.7861134794629605,2.907025547848363,-0.6304599579116945,-0.134964548410077
-1.348183969149943,-4.824878338586341,9.039664095592755,3.287628801154064,10.186525178749818,1.1020141921583075,5.246194891007647,3.9266989899726057,5.364353127447068,2.7249838447562382,1.2720485679789482,-0.3381312207757645,-1.7886024310481945,1.920676667208332
-3.1669049514733345,-4.888460621297449,6.808151081068999,-2.214732820379119,4.313868810670471,-0.3076264122754466,1.4586507589993047,2.588671781139869,4.457549007950661,1.1756822379127456,1.966430570061275,-3.631339140447288,-0.995634954998628,2.4141039259093198
-6.533837730240919,-5.445466430938789,0.5207195745592372,-9.193020495480011,-1.5997099572113245,-1.2036562303862368,-2.3467974170012127,0.4574670430422814,3.1865993407529416,1.0128669513999426,3.33036925158215,-4.872095990186779,0.989404318943208,2.076157077082016
-8.795456364592226,-7.027869670243009,-5.200780828390293,-14.744895096977707,-6.377360079226918,-1.3527990508555805,-3.4054394927370524,1.4879627496773624,2.931913434026057,3.127585523339853,6.688402716570102,-3.153500423944621,0.0415941825087186,-1.2360557083593464
-7.799542490429921,-10.03225295945175,-6.598526530581587,-16.95028428894883,-8.466173464809252,-0.7883787454828735,-0.5523437375322118,6.191466105278491,3.946284458715773,6.229823712159501,12.301014626521312,0.8667003761271346,-1.956438259859138,-8.105790946896656
-3.5096265376203704,-13.475339685577447,-3.489105810659197,-15.324951146063713,-7.124791146602533,0.1064053415109214,4.682834808123637,10.18679460304327,5.283843358555693,8.125004097471269,16.906812211650863,5.372626881994215,-3.712659629552499,-7.830246722910804
1.823321752091175,-17.615219503910087,1.0305546733632482,-10.704839953594645,-4.049674776492893,0.6524183151909924,9.155806764196932,14.38432119152011,5.907452720951568,7.857135571513474,20.7117137729582,8.48915632415057,-4.455292285077435,-0.2083851361777323
5.111511975405527,-23.63299742475891,3.476355743126362,-5.232604851334699,-3.205716730707529,0.2194444601643468,10.583302638129538,17.81826864365098,5.867542006734887,6.651967866447912,22.507715754338783,9.51997091152625,0.0890719471684375,10.26997644755718
4.480193068439121,-31.539645628386715,2.8536237727715204,-2.078186609966636,-7.994458663557957,-1.2868970604679788,9.323795843293972,19.70201076529868,6.330175286988208,6.764747971559473,21.384312288440047,9.394640900508923,5.899777378482888,26.235178959265127
0.4479464613428661,-34.394575365271,1.0422984496468288,-4.041477768686484,-17.83848866905559,-3.2310686429772204,7.855656979566746,19.94788031682587,8.332278307202806,9.300950924214275,19.377504683826785,9.76966227573034,7.383406006312713,30.70193993958444
-4.583034769080623,-31.833089504284644,0.5566958612468724,-11.338074887835733,-27.59371786966382,-4.653096074099359,8.334248885158779,17.868964068944514,11.426118438716408,12.98851035183231,15.847912910081392,11.36497110239911,4.881477985914914,22.170906103487823
-8.08132971957031,-26.874181810508944,1.9305189964551417,-20.46317076843234,-31.007342238413703,-5.050296117529328,10.385969266083322,14.873216914373993,13.585972001021949,14.986988855004494,12.883103672545449,13.010025143223787,-1.321709309372118,13.282245006433028
-9.01424456264294,-17.672638475525144,3.2433734132384906,-25.874282851927155,-25.549240436794,-4.862407253178539,11.207840873208866,10.652996293364705,12.641692583773173,13.047346013886411,10.862988165378573,12.458807965333456,-7.1480559218795685,-0.1654775690496442
-8.129463152171226,-9.173083963328606,2.2175660640714696,-23.856302270744926,-14.341282275167885,-5.119382564331428,8.04196196997978,7.767029145961162,8.09819538318176,7.267634036658883,8.842846919301177,8.45424560110871,-7.166678764678784,-5.552269835522717
-6.805463952426461,-1.6628519767548102,-1.175672870344009,-15.520324633890938,-3.4604550926209114,-6.424205404178956,0.9170836559269944,6.66689510377868,1.7983586475258946,0.1273582830181894,7.498756853844635,2.2413240923906166,-2.031707202208669,-0.4957811513615994
-5.600898628068071,8.255789377109606,-4.211386321947572,-6.113149627789056,2.8195453036020552,-8.134018256478848,-6.820506539486738,5.758237839580761,-3.1618920809013247,-5.108216917504887,5.130162932863399,-2.931933495624463,2.5471234282828066,1.8801313242279123
-3.864678690909713,19.46544648937439,-3.673377021018196,-0.8736706304263233,4.564336494941507,-8.58155820776059,-10.80803848863296,5.838672391231265,-4.434475207366427,-6.359125200125403,1.6998731762626116,-4.051544115623857,4.89760448944495,4.932955183587799
-0.751401844310033,23.879349690755944,1.0978645964622569,-0.8398506336134925,4.674584224739119,-6.336806065592094,-8.957459777328335,6.364459475369639,-1.833440929861112,-3.737885967120135,0.1337920832549375,-0.5194699993143246,4.131280463681444,5.146936074305539
3.397956904049769,20.968475724486947,7.219498095651351,-2.237408712672929,5.477109604747166,-1.529354628830692,-3.0156724937416426,7.30771773815371,2.781539397800321,0.8828348071780825,0.2655690745420059,5.425774095365987,0.1913789010576795,0.5003346009033727
6.780064731175132,17.403947217937198,10.394988850054483,-0.02762469956994,6.94956676831915,3.9443969171741857,2.8453034678632854,7.3251216987374,6.895016305010879,5.199326454104882,-1.0575542126853,10.248485886770151,-1.8221982578716749,-3.530452301894729
7.397939533868522,11.249070262764748,8.38750669376612,7.432507637648622,7.844587985257718,7.63283208313598,5.152870108226449,6.146542695594221,8.892591134407725,7.713612342674471,-3.435276846837368,11.32063282173721,-2.633246798769112,-8.367347700139659
4.763848656036164,8.40566941404605,2.81337400665352,16.64085371633855,7.776138524328701,8.235368098758446,3.4034181368494254,2.62414570321507,8.737147410673938,8.180045769716454,-6.499403554321658,8.236846722749142,-2.8552133639605413,-10.7977960115922
0.4027081951108897,10.225153273695826,-2.2848807466954764,21.64446372975975,7.624726681345575,6.415357683810637,-0.1764425798137701,-3.892682542795354,7.48510358937244,7.226184830089453,-10.876473779168125,2.608239547865044,-1.1314822365839028,-9.857675230627487
-3.361773763627948,8.752052431873597,-3.7784567701674794,18.942346103651065,7.91823069646262,4.088407156297972,-2.843793228792763,-9.763258601843974,6.193076779226404,5.631936272529311,-12.056470514027149,-3.1732483241492364,-0.2486886954632593,-8.784447669187891
-5.178538545839102,5.506014702977502,-1.7823224820728267,10.512603804608249,7.406722609789264,2.8624973722111715,-3.4993657502558597,-15.31857163405506,5.100927161761581,3.8396010915392793,-9.810727768681446,-7.246500704095228,1.307843503718501,-6.525009951561495
-5.3167287136889865,5.375964048536404,0.9135769792975008,2.4353265002887454,3.996032850585994,2.965728499597498,-3.1197568223211096,-18.483446422249788,3.6628794974626473,1.9611848541584287,-7.993120367641761,-8.978766171044713,2.874042947995564,-5.175060708084312
-4.71655537990029,7.56061265010424,1.5602960223141211,0.2027240016858407,-2.462162852324054,3.456602246373345,-3.443488064560139,-18.240915532704022,1.3080307725554494,0.118111046907174,-5.632616879755583,-8.890733439584908,2.0134270482377654,-5.214214434356407
-3.6421080711685487,10.394687348962512,-0.2401652845291,4.513015559693313,-8.469884612340456,3.341823966406789,-5.286766828091862,-18.742809551881248,-1.7602035187864509,-1.3016566595788088,-4.572271945839253,-8.053801166423515,1.2646004283015433,-1.5912832407897268
-1.4911281156158225,14.692176409948845,-2.596140579920327,10.948696022930283,-8.70887117374175,2.521411219735109,-7.912947587817829,-19.269122811667977,-4.446747707628113,-1.7759347996615382,-5.51938326335658,-7.378227123297394,-0.0748165295723932,5.40022516298364
2.0477647331574538,16.232527074399837,-3.439338846513664,13.764409344201235,-0.5364476536081746,1.7911241359361476,-9.78236391696662,-18.549215414441345,-5.501475190236752,-1.0949357303548943,-4.973372930119768,-7.18429897690068,-1.2898476680995432,8.106885055308211
5.897297582412261,14.541195413270756,-2.5619632857307195,10.635846834984328,12.721954648663791,2.0399391034922267,-9.865474443905702,-17.1604409221779,-4.545651478198302,0.293157541278731,-3.450059679417551,-7.241792137708906,-0.9254209452792802,6.969505975958645
8.011853158495349,13.57836535803022,-1.6978643434814806,4.419794308757513,23.172905903918583,3.421373978772383,-8.41465321299328,-14.753059363495916,-2.50671468046038,1.435795551024686,-1.2829963162805929,-7.149283358333989,-0.4109223685282961,1.4602282690254058
7.145506042979264,12.33360127274834,-2.6923015496886507,0.4565570012483704,24.042465026246884,5.182818885436092,-6.697636389134434,-11.230521276008556,-1.0046083741114558,1.515778781458959,2.1494961586664934,-6.704753175378105,-0.1754337238967238,-10.385962455985023
4.216341979674095,10.435346424141278,-5.556769322989684,1.718358605836947,15.162763261208346,6.228213909603596,-6.032591150396112,-10.123218630240313,-1.1156216232474172,0.494550754058384,3.1449561806611657,-5.993911854812236,-0.6824951562745052,-13.463510776836255
1.734880018831788,8.359006077984029,-8.236458850780863,6.026787014291898,3.3954040187444114,5.924563091379852,-6.880397012640174,-11.667848489872942,-2.5368538655118336,-0.8050711497288425,1.5594801078107785,-5.223508389064477,-1.2135039473650284,-7.466203566558844
1.658480417505935,6.329477093831841,-8.311189397180314,7.908440849663286,-2.773489444438468,4.528248445157473,-8.5747299413162,-11.323078414262111,-3.9016184720768905,-1.3092899644588378,1.0232484683378302,-4.550507765469838,-0.6782299048767668,-0.0164517710396815
3.67522810421481,4.490258458881639,-5.119716315666018,3.6789806999823504,-0.099669676302021,2.9206315024444507,-9.787760540040722,-9.74312331058682,-4.004165936343068,-0.5371967014964838,0.8170332595785437,-4.070975549071338,0.8148085053180822,12.426075880080935
5.580369884892637,4.309960519531456,-0.4492691883850916,-4.631885815032828,6.944876364588847,1.8690627399557729,-9.394255697149871,-7.209423184918356,-2.846649538277028,1.0081659105149647,1.4484329383818613,-3.8690592080918336,2.393713429140292,15.556423526770676
5.406969974277988,6.106596932713869,2.807365386535537,-10.19717447392586,10.243597604332326,1.4088167506442844,-7.201927947793951,-2.8600425325693672,-1.5497403091752382,2.2374292480688247,3.5719966710096447,-3.931209996958813,2.816642065213389,7.795533412167916
3.3053990847708867,7.327738567487382,2.906843341748868,-6.793870106235975,5.142904456609315,0.8809721060433908,-4.091099788568858,0.1067781746047079,-1.2171277455838236,2.3574673251659384,3.33261374207017,-3.954498225921945,0.8261114530405487,1.949969228170068
1.4649281689428442,8.31092571694334,0.5807273701608224,5.701203056771504,-5.47298386312486,-0.3658676528284168,-1.4284266346985746,1.744325400835913,-1.8463119013538571,1.5415393626626752,0.8161991702177568,-3.3337583128047505,-2.048299858222396,-5.415711615813098
2.246464870971394,8.857365204701232,-1.5941660310129535,20.52600194757089,-13.470813722691425,-2.2093225631167077,-0.0873619642544625,4.0604094826792645,-2.342946767414165,0.8477873392083488,-0.161131251980415,-1.5270706241038037,-3.286161446810717,-5.601563676921678
6.258542356848906,8.437176654969333,-1.2116039436984494,28.91346098076638,-12.020154281494356,-3.656079484709025,0.2321725815133675,6.433878016614305,-1.630094701094272,1.406360638007012,-0.2097357692994756,1.4213179670637714,-2.5824413124865337,3.851184655173026
11.943063144957042,8.810395215023473,2.177333033993591,26.68307110644836,-0.9767777233976708,-3.601046767759584,0.7825417666816072,8.749293549687204,0.221057520415389,3.442887983368241,0.8803523311456806,4.710214307276932,-0.0694237916134491,10.474236744198024
16.748089445308572,9.815694262239392,6.82558988456676,17.024222476325832,13.0043417298544,-1.8366554556864256,2.67898942661164,11.206624937338317,1.9257559383221936,5.862191742042427,3.857908850138615,7.227385260025603,2.5175979128158232,16.670883149518314
18.72230300293884,8.776927962091573,10.130123181762333,7.289432036480049,21.337795068380824,0.5929561926725455,5.754378921811075,11.978283515649894,2.050662245395685,6.786525526136188,5.094117020944323,8.28409204112251,3.23614340689606,19.00454610360724
17.39554232898513,5.796356449287941,10.413464937210753,2.881688895380293,19.444189205368616,2.0675981909722765,8.389168991092653,10.929221245244207,0.2422756983840734,4.805023851881078,4.67337743200506,7.996650231752413,2.0332495817194003,15.104980385483858
13.701965861415957,2.3519150047054618,7.84892863840288,3.65825276501649,9.533978207028834,1.5695434531574968,8.64252133644823,10.48872598462775,-2.4341945065900035,0.1232223559007934,3.564526409734832,7.019157088611653,0.0014947276023457,13.029366185068044
9.365837612477984,-2.104657991692697,4.060225217089366,5.5657407956877485,-1.3467453585056326,-0.60843461717403,5.865024272513232,10.325955269570208,-4.27174953284435,-5.284672498803506,0.9311304396599224,5.974415865549768,-1.7950557003796987,11.4009944440439
6.14673260345757,-4.397290116242564,0.9419380275592584,5.230654454873786,-6.3185712215031415,-3.1831293115984813,1.4253060917622309,9.399264995874786,-4.151183240770347,-8.82875240789236,-1.3211246316108556,5.162475119641353,-2.933724262169548,7.934018489103051
5.088239182336604,-4.092142407656064,-0.3571283724395098,2.831431993913828,-3.254906787632331,-4.9073020318375775,-2.1537668786424966,8.088521796381652,-2.3297218920084948,-9.090813579166507,-3.1972602152768497,4.703080677831631,-2.674121421205841,3.760874675128206
5.96630850818579,-5.228275049436968,0.2670873705596328,0.8822567256083893,4.003562923623028,-5.431931691621312,-2.993888231399937,5.0307749212118384,-0.3169958212143662,-6.931377000936269,-3.758252341998069,4.712989148901723,-0.9676658816810352,-1.4562606445298452
7.334280146479612,-7.107585836897364,2.175323476969595,0.8863154795937884,8.512362797973545,-5.360197503039461,-1.1306608367039832,-0.0052609107001582,0.0344997304189131,-4.945910319784697,-2.413792222061756,5.124379942236562,0.8444449286047584,-7.811341287656784
7.366938725924886,-8.516798856216829,4.417277912220914,1.6644741450724947,5.225865624080363,-5.568546684166653,1.7161680899094236,-3.31637704212675,-2.3059472592510257,-5.543688416535896,-2.654132692488947,5.325713077186778,2.274935488892085,-8.70887722038194
5.06826532460211,-10.046829814490891,5.999179589920445,0.928603111167698,-5.267887040160447,-6.422359096220868,3.537765202859866,-5.01846100416588,-6.793957573168378,-9.099871505214672,-4.238471772140092,4.237641463758521,2.644542379916369,-3.566316702378503
0.9693263234380892,-9.612062045910326,6.076702680263161,-1.936311991499588,-16.936529739977253,-7.480097918671665,3.391592569970172,-7.771807525432456,-11.475295662973624,-13.659519994388564,-8.17889658515357,1.1075950207485326,-0.0097235806571379,-0.7166715234728026
-3.2201463040677907,-6.962116324036244,4.295639082284231,-5.027901667044985,-22.391650853310637,-7.813963205638527,1.780733385305357,-10.887356405373607,-14.083362546893134,-16.412384312862685,-15.394928860312376,-3.5309965309464357,-2.9599171473051955,1.161843417823195
-5.706053193141582,-5.470902131998306,1.221360343062384,-5.877027413062409,-18.008895774083705,-6.635703987199907,0.064357642070699,-12.065072604268726,-13.43020380934802,-15.691581389021898,-16.999488575886662,-7.714118428231119,-3.5964708393669103,0.964851210442828
-5.628904954385874,-4.784577122024734,-1.5909844430564557,-4.057173124812467,-6.36771411453769,-3.815663616923195,-0.456889288209946,-11.427386194757222,-10.134508894655832,-11.910779928899636,-12.875300755281923,-9.139154744027923,-2.220172085765617,-2.980039974654924
-3.4188663740175174,-3.625877224849849,-2.3095649706661825,-1.7456430986961435,5.738800438233741,-0.0521404378170111,0.7795937271748055,-8.326961443585763,-6.143039806087092,-6.90657329459678,-6.81484900414863,-6.802377723408808,2.0070136810237624,-1.5029033052909233
-0.4853059918887245,-2.597182290776564,-0.1227674271931844,-1.7175004422844158,12.116616102383748,3.357141540183969,3.328091099029707,-2.0895948421873736,-3.4126088915456925,-2.538202203898294,3.3110067319310263,-1.881623496176143,6.071570305532257,5.137079707226645
1.4504979828407727,-2.118595532062828,3.829867568557369,-4.763292502403285,11.096631858805228,5.076297634912413,5.89062950861209,1.563479522471085,-2.7503955363687025,0.2060341072532278,7.102325636233004,2.914534663365665,6.026907517073553,7.127702886867315
1.138253637521191,-2.202065815117973,6.89597307020221,-8.926457922718791,5.732506445408757,4.435737388981225,6.935695822705123,2.603985305861483,-3.601038947820578,1.1512002302284068,3.643655234255721,5.087598796200413,2.119990616004266,5.808554776850985
-1.5059536898559551,-4.163689617858237,6.738425190597945,-11.140948104077411,0.5359435532356049,1.9104472143495967,5.623502076335915,3.495493522094568,-4.738573998832599,0.4857609113976666,0.4922415470157892,3.883969986275884,-2.664192879996124,-0.4050356089009711
-5.167571609294585,-8.291396930974388,3.2375945443853986,-9.716519017087151,-2.257458785636928,-1.0342137816353407,2.480187093499768,2.900316516620928,-5.163820440228205,-1.3748722587961453,-4.917840920518719,0.5544053719656685,-6.9151367118202565,-13.678725691994243
-7.745954998581965,-10.485730281485116,-1.2249426680273303,-5.559139512111637,-3.8113701292737954,-2.801319830200556,-0.8051988426411443,2.9740664714531886,-4.54500641548776,-3.600716391723675,-6.413377633020879,-2.6914909154125306,-7.252586921094321,-17.62724268823967
-7.669704888003341,-10.858966963253907,-3.5892243310535576,-1.2775862134707134,-6.614444513421371,-2.7136852634722217,-2.4800478145413978,3.866007350896701,-3.0847067349385475,-5.005220480128001,-2.7429064779413146,-4.134679076071569,-2.471629431172721,-12.18242407162779
-5.053656070038926,-9.252727813467306,-2.63612124266451,0.8590271473529336,-11.411337115152024,-1.44115532867965,-1.921534576696733,5.443714876754672,-1.1586644841042366,-4.667023628859456,0.5362326721373522,-3.388040976460325,2.1663796686664423,-3.479179519667628
-1.7285451827884897,-4.577127878607203,0.0044921394976791,0.3393684021971843,-16.004432010462086,-0.3869607589899928,0.0432667991193866,8.322311556871611,0.9035554873121504,-2.672584275451704,5.180771961074522,-1.2619639420291442,7.066211353901548,12.390197265119422
-0.0001504816938302,-2.4242065990411894,1.32856017086051,-1.8082809779520552,-16.913171419569437,-0.4979349806031754,1.911928854437376,8.678337967633075,2.8153128099241744,-0.1975285583445023,6.81367865782624,0.9749640584298502,8.553332995429516,16.09475479753224
-1.070413597054821,-2.708665696418397,-0.3672683203623217,-4.335055307936398,-12.317934663962385,-1.5163374901186764,2.6451432302412243,6.438754368787216,4.274173415561084,1.328380454246313,4.483765670196735,2.317668343753791,3.6783454497147625,6.154272189613333
-4.3428109329399245,-4.943333795645075,-4.035497881979045,-6.767762332592973,-3.7573957879627073,-2.3284860063543293,2.219597122350565,3.0526888172984497,5.024357182520596,1.3455126748619666,2.2303549821877646,2.367264721168034,-0.7092846011383721,-5.676565089906289
-8.054089411667302,-10.54916604711372,-6.951523716990264,-9.222529983765131,4.6912794234627375,-2.0555391203876443,1.3053973915201356,-2.417439627636929,5.034846679328668,0.6100140683303614,-1.2212517226111228,1.3159397793197094,-6.377671110019661,-24.279176905962984
-10.592954116161511,-13.14911922664339,-7.256642502107806,-11.553113673149188,8.922174796252452,-0.8471716537116496,0.5705305471427913,-3.658488998498394,4.614192574604773,0.5449160953655721,-1.3860156427141404,-0.2512034928100046,-9.13221966383293,-29.80861418391556
-11.46118747832708,-12.75652237976156,-5.587247006178178,-13.052423983971842,7.100923374957114,0.3550693669584657,0.2820823762562305,-0.1519097715162392,4.284936831497906,2.020629505426001,2.560938585398942,-1.628121857841757,-4.378820035987207,-19.77437504349901
-11.317847257092748,-10.898256415681583,-4.333676725583078,-13.180675988679724,0.4116593981497782,0.808555807862632,0.394570062087979,1.659628764065362,4.441177865847391,4.587536174932414,4.551222863059661,-2.284828040566337,-0.4321994072895305,-10.282362469611948
-11.3120369789543,-6.014189482202225,-5.3108192939657926,-12.454948788231272,-7.806727365184134,0.7208237851222083,0.7977994883948067,3.137912858889566,5.04904686488889,6.812497200114704,5.631135707218823,-2.09490268365977,5.251939955298005,3.776669104834325
-12.281141898855424,-4.377403644299736,-8.029253344793084,-12.2842231036629,-13.754111512244917,1.020591248332572,1.3516674934368211,2.714128405796923,5.674253979094628,7.443440959733925,3.799905456255537,-1.3637340750453522,8.998353027853934,6.60006777186848
-14.262446237611456,-6.173064640226482,-10.108524654436312,-13.658369878863418,-14.84828907017464,2.3682535128836104,1.7109589100008744,-0.7813656330643205,5.849549837408018,6.409537556548857,-2.2173390051543502,-0.6193331026144389,5.244630729941572,-4.931720129164081
-16.476660294608113,-8.720829217651698,-9.3984952931354,-15.963602769339875,-10.796674449828656,4.364395489233443,1.282430735234632,-1.5383960495066973,5.4602477545449535,4.788268512683574,-4.456264930561632,-0.2967841578860408,1.5923796561489163,-13.902963688677186
