AF3,F7,F3,FC5,T7,P7,O1,O2,P8,T8,FC6,F4,F8,AF4
8.893910296734369,5.7351627597916,0.441127688401227,9.97353417178464,4.215988359966565,4.79499641841718,6.589915100894814,11.28939748469864,6.809775608737647,10.023820128808904,11.50051100934894,6.712953793350455,1.460228085757532,13.30449606041511
8.283634371926533,6.13461438754192,1.695870786072104,13.372007595693267,6.577138925925929,5.770677580212025,6.318342711761932,10.238261411106969,7.0112437061362165,11.097032721653216,11.36686123256134,4.596774028828815,2.213423286544073,12.074205719107406
6.134338120674428,6.92713516993868,3.511524063696684,14.995799621282558,7.136482266074671,5.875857839518679,4.4825126996920215,8.902087989499014,7.081162528748764,11.626145653458993,10.41337634401905,1.0667035351405407,3.728665913500836,10.198099336000762
5.3096015704637605,7.428535057658067,4.100727839287247,13.734464783606771,5.888122794377832,5.023770819182311,3.3355095209573027,7.920111533352429,7.4635222905049,11.04214851738411,8.851207838529763,-0.5202452259951219,3.7140490076297774,9.739809508060336
5.673733728961361,6.936031734297953,3.160112760884904,10.134176130562889,4.230647931020738,3.577170727220629,3.1651857735767885,6.903164619175511,7.488597636245894,8.956618302035462,6.02715237900884,-0.0830342703093887,3.000164424518501,11.089741227791858
5.25170589785868,5.332051271559925,-1.1614706258448817,5.974875285698063,3.617696526455564,2.1442656903106707,1.473788317809909,4.796496819398705,5.903642319585611,5.442109149026153,4.028368659092764,0.0897577011661522,-1.43531756099995,9.697839605539915
6.177517321031054,3.325517558331025,-6.3233225713768535,3.0906167392894783,4.2720444722537625,1.2681045686249992,0.6166145530040223,1.19866637972564,2.336852259155786,1.2225096562329738,2.8078558054995617,1.7917784151385068,-7.382748680070664,5.869899237839614
6.86402219092022,2.1012934282480344,-7.858294606401249,2.4203317946259224,5.208933884468226,1.164927884347691,-0.1511129884760689,-2.60176148622715,-1.7722430760096213,-2.3792824971576514,2.237817490669644,2.718960558207592,-8.339684234524755,3.756974893447709
6.94655889933947,2.5730859413516374,-5.299248105224569,3.8233351665681328,5.444295662748813,1.6319205463356896,-0.8695580802251515,-4.163206067201848,-3.912525090416393,-3.896667363028308,2.8341853001990582,1.8937650932324503,-4.618711713473699,2.701342551195669
8.551689373112698,4.740994213373863,-0.7488704401845506,6.447772793794717,5.052124284151139,2.183346275303069,-0.2458841914215763,-1.9008628682162056,-2.4950814118340774,-2.5150750505748665,4.357337461567624,2.521174574741697,0.69058924775439,3.78161645389429
9.707237626625345,7.613316199790441,3.8913781592795607,9.158057669139597,4.960718320887451,2.3584386870828,-0.1253737613371394,3.1364369998845403,1.605204617329827,1.2182718784485205,7.038823143218414,2.606989837310038,6.969821162677007,7.913113042166398
9.65569799606727,9.772147987156105,5.102190036913213,10.820147659599872,5.765722531731847,2.0047229821942087,-0.2759371724942471,7.547129472367793,5.4172682680090345,5.355490096755451,6.725524908860429,1.7407002085471532,8.417691917669252,7.850916747699999
8.80669589323773,10.206523153348254,2.0774627958075227,10.594403037257948,6.882434027951579,1.3192993876676224,-0.9438693993913404,8.005663880183096,5.9920373030437775,7.447360701968313,3.0784789153369445,1.2487325485718777,3.661557175191643,3.6438826722277335
6.640611736097653,8.847136872333467,-0.7617066270583098,8.334135439465417,6.962339726980161,0.6166637501610955,-2.479291046151198,3.883684395213652,2.583364763155217,5.976915670946466,-1.915636832157368,-0.3505182124067153,-0.1189474351085713,-0.9755215062550592
3.770484485075849,6.48257205582983,-2.645486609822679,4.855446199366966,5.143610369166308,0.043547718950436,-3.503698390845031,-2.2334120229113346,-2.8658516957674847,1.398570115767532,-9.400928842993968,-2.620895898908528,-4.154046180634082,-7.587043590387713
2.099317397425157,4.212117475192613,-2.64876143111056,1.7154649984568355,1.8674451650578645,-0.4873820275419849,-4.206052839736505,-6.628734258846661,-7.267806590163303,-4.030144985243274,-12.89691459833985,-3.1766599445343977,-6.036855113529497,-10.004307202209072
1.1824930545964063,2.8751808701991663,0.4083714724139439,0.4481081384750141,-1.495077276833276,-1.1044825030512118,-4.258122162550724,-7.33036308703093,-8.647477803575166,-7.64833692530463,-11.846931517754465,-2.733103131238461,-2.697890021513352,-7.441438395759498
-0.1180738846379611,2.759539206182385,3.331450566060377,1.6571923248626843,-3.7546438595618223,-1.763935073737082,-3.5024730942666,-5.334423109342962,-7.3264378579733425,-8.112665311798699,-10.686918643871063,-2.3710517719705138,-0.614257748046658,-5.950251453806534
-0.7507918989741601,3.553422019174713,6.12570099362105,4.536703873641455,-4.687852533193469,-2.271426113700921,-2.990202266204746,-3.295550064392094,-5.25788779090475,-6.201476807033133,-7.789318639801739,-0.678398782507084,2.153837016579462,-4.041392237573039
-2.285465745766219,4.396261251148301,6.996767286003206,7.154840804589145,-4.914197372639235,-2.516598275443397,-2.891535502599375,-3.0599279325144915,-4.272730588009605,-4.097162277552092,-7.367973630097314,-0.1354339779912692,4.966713251610581,-3.832661109584445
-4.836646341421578,4.081938000481309,4.108963118852445,7.416450207370801,-5.186880773498036,-2.641536175912359,-3.2460919670294577,-4.283128586243693,-4.751111483176527,-3.710746895637432,-10.148089796829492,-1.3816294228421693,3.793864901593292,-6.3554271033701495
-6.571247756388664,1.5949007680963634,0.1093064364001124,4.246340239024027,-5.79704962139356,-2.9267507265264183,-4.12436382794473,-5.189952663143891,-5.685584984689151,-5.367715489746475,-11.933611390201628,-1.810807047932916,2.2755157808030164,-7.485262251225639
-9.131041750496662,-3.140629275531059,-5.300335948181829,-1.6585309646193105,-6.470295364343147,-3.488091808099867,-4.9921568475132485,-4.532118593391977,-5.85449401068053,-7.837596060720076,-13.814348189014366,-3.189963374298656,-0.6280569331811132,-7.911888008271888
-11.065740448258769,-8.885495596840174,-8.216637665369499,-8.048787023980282,-6.657240180418077,-4.097152941953544,-4.67600035354327,-2.832273223905952,-4.963338115700793,-9.525816076780762,-13.599280825485817,-4.43021521840206,-4.305954849969299,-8.278783707988545
-10.99387003523762,-13.635953940009747,-6.232503824647728,-12.343402217552274,-5.944062388950287,-4.323635290764731,-3.543575291697338,-1.8178849519768592,-3.777729866734539,-9.690017177031796,-10.539816868366078,-4.302694548566167,-4.924958968097614,-7.935124495607132
-11.216268537016298,-15.881071815608856,-4.384544792552346,-13.149830912073522,-4.367170970864947,-3.8819712260736834,-2.042578744272129,-2.6738969376576027,-3.218270109209697,-8.663895686988957,-7.15053048268094,-4.855919414883061,-4.03074026510693,-7.295746214569552
-10.603817322797068,-15.555020302533816,-2.290909512432555,-11.0194014052432,-2.459488286280307,-2.875701117221286,0.4649772324109551,-4.780616698060612,-3.2925594072338784,-7.106982550341565,-2.698338141467129,-5.169154722660803,-2.803686732538667,-6.244536366716374
-8.933529416992595,-13.812311163420173,-0.4398078826390066,-7.858626040935527,-0.9170271990086004,-1.742484315035772,1.8823375889475589,-6.097986699103178,-2.881280493603284,-5.209215937036106,1.0480152284404731,-4.449266607419497,-0.873766594485897,-5.200386680085516
-7.583125458046315,-11.862960417496506,-0.4593220225716657,-5.488965772812265,-0.0484347947041714,-0.964838025663796,2.687407793089572,-4.840280525454601,-0.6585787081003751,-2.6783310376279976,3.6530770306013776,-2.7136916753698657,-0.0791297629016016,-4.226712632955558
-5.350010112819728,-10.062752092297426,1.3147522252629131,-4.551771771516215,0.5016704029293821,-0.7734485409101269,4.378947776343795,-0.9539896172033652,3.594677208351815,0.5931276624104402,6.051034899990991,-0.0652622317917734,-0.218722341025435,-3.250927629993034
-1.995417282438616,-8.148635697323868,4.878474822499958,-4.573280015042082,1.3532451472589868,-1.0330232027389514,4.9727404420748185,3.852308928719864,8.464869458563214,4.020480543077044,7.626865709007894,3.2903725798225274,1.8566104512915689,-2.413984731363624
-0.6486051459720866,-6.199447015530245,5.88147529457996,-4.877598866087794,2.562983568801965,-1.3544204711928691,4.863909538026901,7.441716920291927,11.746615645635051,6.59520062991842,6.843504093808511,5.268205711853935,3.77385114385638,-1.7635043370545824
-1.822404323004783,-5.044780994965336,4.136581326377931,-5.302290946166246,3.22520821125891,-1.3608369525867268,3.809821538014951,8.68067750232386,12.028631569520108,7.655747618626319,3.434198377964546,4.231095839119367,4.079143506525383,-1.3673177521828643
-3.23968608149102,-5.489016922690762,2.18367746430816,-6.055094068717406,2.126667879373388,-0.9673977039120274,0.7803159493543452,7.768045417941471,9.670096948899618,7.330216621142776,1.2485388315259434,2.454984263753712,5.174168039644586,-1.919922759789385
-6.413078506659981,-7.203299616358647,-0.7271100274283034,-7.082211135845942,-0.9797338836607734,-0.4998403591789184,-2.729868217291556,5.455184108128147,6.319315984850518,6.199108797551128,0.0708323769461142,-0.0918648716876087,3.928818463333329,-3.551344067152102
-9.095556926613424,-8.74074784068838,-1.817356306400853,-7.849717277922026,-4.75305950645957,-0.5165620411582434,-3.695733445802,2.2493687635818587,3.482522227802294,4.601464128566363,0.4263195060191195,-1.3182999017125867,1.1510959095167776,-4.199216445636055
-9.36641593709855,-8.997686148392223,-0.2469442510177388,-7.906480091639102,-7.1405909151613285,-1.374129554067184,-2.030902709865153,-1.4370647522278197,1.553134782331055,2.408441129557873,3.314492947372055,0.4679740154511729,0.0456476756637485,-3.923505344229135
-10.696640433543504,-8.704051584645557,-0.9961721414060094,-7.613064216012475,-7.146594569863544,-2.8261621149327585,0.4363592908194794,-4.467021990857177,0.192895103738,-0.4386546123364734,3.226954870803964,2.368759292389475,-2.372263864535783,-3.3919550140446857
-12.08923705929516,-10.143968438886816,-2.777263810304929,-8.102404596157594,-5.836111984590959,-4.030482371207319,4.830938126980545,-4.775733917686811,-0.5111338999373305,-3.2306052865437804,0.3042930841400185,4.990733767781384,-5.233819728341104,-2.13449977312718
-11.36875749676974,-14.945005453725951,-3.47877590829908,-10.270680998693887,-5.460019751998098,-4.079173944936996,6.95035677163325,-0.6361877072510027,0.4284742503828989,-4.530969387847975,1.2994487004886597,5.77990450664682,-5.4081840368766425,-0.9667508947650544
-9.361283174373815,-21.890511160813386,-3.1000540183448795,-13.660637851724502,-7.348036810164789,-2.6976101488329443,6.136943189778009,7.383316635800941,3.9491960642268777,-3.171944620233649,5.4872681135452765,3.901762374015103,-4.086626302694152,0.1052156068345164
-6.295416605729235,-27.065686250206102,-0.052497553812587,-16.385081681447513,-10.49779891380053,-0.5156350357291967,6.747684420163491,15.733906992029034,9.456977592949066,0.6002633818292278,10.768155986017447,2.616927162567221,-1.8381342198082624,2.6070039080959813
-1.13268516614466,-26.646485069906586,4.1537634383050746,-16.388975564881626,-12.262524780195722,1.3800803063201927,5.577016065640415,19.732920521304543,14.512972616856915,4.959605988698923,18.414675790263733,-0.416017403085543,2.540273506189693,6.484833438929132
2.231119004858979,-20.078144949385766,5.291337833831593,-13.104665915447816,-10.6193780544111,2.2599524285548656,4.2485879536051305,16.94707470761579,16.3851064561696,7.670702763163258,20.163723011662118,-1.42323391217605,5.0043058524134905,8.53141948942924
2.125325132546084,-10.783690871007034,2.754055136212924,-8.079085089371173,-6.001390678227909,2.211216579090356,4.415115781441916,9.361766569006257,14.263629983123948,7.739734121784641,15.267760978022004,1.1497422656785652,2.974035658226541,8.813970310390287
2.779403929665473,-3.6159954682265,-1.046718675096219,-3.9412440508495177,-1.0380325337837255,1.8448021534572037,2.218062170315,2.2089333060384058,10.084912238943858,6.163637352300484,13.24413575458882,2.216892918926176,1.049963927314726,7.749469730264808
2.309885001597022,-1.172799387836573,-4.880207870499985,-2.4791454461524065,1.5553015936854226,1.591958341993556,-0.0312651785837436,0.0726240659731298,7.064558306024834,5.0947370744724045,12.384928851226356,5.4756677200465536,-1.7251227231699446,4.516297196790665
1.830438266409708,-2.111835432790877,-5.220867548817398,-3.384181127311974,1.0590799608668462,1.3404059640338213,-0.7091658700731744,3.370658572463154,7.14561863205723,6.080506240379503,11.888691010782235,7.41571314906864,-3.800359201462836,3.324803004309161
4.448147842690845,-2.775404467707574,-1.500682092114405,-4.676797434858715,-0.9510327310128436,0.778819185228997,-1.894165570114892,8.170397737371328,9.580798394275009,8.837454662925845,13.336315220621572,4.077278761032564,-1.3462232825578109,4.259921194789851
6.170674522598252,-0.4865399996368533,1.7136920598502472,-4.407247011095928,-2.155125521371032,0.0267948182530206,-2.4600286611854902,9.503181736311763,11.808767433450152,11.548908530591874,10.76613780616985,1.9956587419304503,1.1492780322580225,4.850892417173985
7.415110417300363,4.439242254000981,4.474045779930584,-2.1798812391145974,-1.363757842333042,-0.2215745360970167,-2.048217563633271,5.357839422753242,11.697618768915724,12.35849496299674,4.162591642573656,-1.4995239770273374,3.0274624832829184,6.036038346815608
8.808790561378334,9.490027170677658,4.536149433145733,0.7257111677861534,0.8689893128149009,0.6877956868851973,-2.8027315658161087,-1.9535911088814155,9.109971883995517,10.748023112980524,0.0301657357477444,-5.28002985732063,3.69049734312458,5.657093977857579
7.472782845194996,12.431005919382123,0.7119314838555778,2.605499175066485,3.120127027659348,2.570031905584127,-3.196144930966204,-7.9788481478684545,5.573807013853551,7.6883069280678304,-2.57143069099853,-4.491830923124046,1.558177146664585,3.337338938096568
5.499882294086181,13.024400573532096,-1.392747214682208,2.7803981432442564,4.35689635955757,4.271701125321703,-2.583565447423673,-9.746492340470931,2.678496240803072,4.597777584751148,-5.323886788055575,-4.273491559281301,-1.0418392472724751,1.6615997855304954
3.648518782473452,12.672021705126925,-3.768830232326873,2.0276976871014405,4.42565244638901,4.460317973372426,-2.813990425614887,-7.737247208794791,0.8481783226483439,2.1559712818248324,-7.111255654905136,-4.413813679217429,-3.235355375681239,0.1183419172962682
2.2569829504241734,12.80025284813468,-4.797241746481466,1.779451405934596,3.674069602575164,2.692768793894756,-2.521831242922416,-4.845726901842196,-0.4995581704642662,0.0126112656323436,-9.263745721765028,-3.24908276926862,-3.202297384476528,-0.5387291932848766
3.3857125354526647,13.778799989332295,-1.41148603844089,2.9376024880070286,2.5043539496579106,-0.1583271583765286,-2.191300095288652,-3.6230853162653074,-1.8943868337708176,-2.4942772709793912,-11.797179214306723,-3.1095482522669693,-1.2870645788046455,0.184544675673331
5.0582699228385,15.207117792834552,0.8193538716050651,5.349430180004027,1.4534026961502249,-2.471538493616056,-2.8279049793099174,-4.286968599143709,-3.124578248444613,-5.424669751607038,-13.312083236064783,-2.8407961369872528,-0.3168432479937382,0.3546945262858131
6.895298047238173,16.821040256913065,4.952061389035763,8.23989985437501,1.4803265118831923,-2.955058350193897,-2.5865220739593124,-4.965101572504494,-3.5970087631392818,-8.031622454472163,-13.995534883998651,-1.251964594785046,0.7501967640397207,0.2426014481594535
7.826683699676021,18.795196693467457,7.995445283965901,10.996329861443574,3.6903890333470906,-1.4305701473442665,-2.7279923406570776,-3.6317138337737287,-3.2319856674409886,-9.42024672786876,-14.922107711759304,-0.3339832077962727,1.1125749981589612,-0.5964216356383056
6.097244005628443,21.16380931075641,4.777070061788086,13.479584563940476,8.343116933900337,1.13050519076477,-3.766502952813742,0.0011355809389863,-2.861180377593176,-9.401733206077552,-15.916951592436725,-1.3302445223005992,0.4450256940820521,-2.573716554317037
4.14631480464154,23.1987879420287,1.2772404866666385,15.63978463710319,14.00278130794483,3.2043939852642147,-4.033842756692947,4.046518259027236,-3.6820941214388494,-8.721256391085904,-16.317592408619053,-2.241160531122204,0.5604945151260372,-4.859387868262112
1.7889866234352751,23.624864061323763,-5.157502919204049,16.998267960859337,17.90109373148629,3.539586694493579,-5.135913424936288,5.653774899606546,-6.268551423759141,-8.429698461139695,-16.266394366965297,-3.421785014932062,-0.4600956138538352,-7.714993882641915
0.411707617255889,21.60191850034641,-9.765005224157347,16.734499153135584,17.608017005469165,1.8345324543377544,-5.505704829311036,2.991558099552197,-9.979651795247406,-8.923397534108982,-13.574229907091713,-4.449202851216853,-1.5553564279124106,-7.918562989532785
1.7918458023606447,17.585916216929462,-6.30365158197679,14.488767053504032,12.83206119910591,-1.006591308381875,-3.2616981300539893,-3.263900179947304,-13.166829638674695,-9.448651751450557,-7.902940791860947,-2.5816296099225893,-0.7188296140013446,-5.073568892463944
3.329820371202725,13.29740576125306,-2.628290372956534,11.153739659141143,5.854683877501141,-3.24591092649278,-1.4219592374297378,-9.936113201236878,-13.967922715557163,-8.501976401687896,-0.7028958017530043,0.0085235736735774,0.7394275053432043,-1.1765464117687647
5.537131247898034,10.793216950271972,3.00583463402552,8.726816845767233,0.1167886074014619,-3.2987468242245384,1.326018234209979,-13.07418453309167,-11.250650189998357,-4.898171167607533,8.677496167207336,2.247793958824203,3.8788734002673833,4.685640092611807
7.027686752655585,11.261757688945115,7.141381539426533,9.03141892801,-2.047891657495913,-0.8654185634897504,3.1200301793173844,-10.539757618028132,-5.35709760614089,1.1934042546386467,12.630087894125724,4.106880651875605,5.466023583080394,6.872877384976276
6.5047813827583845,14.24051226636742,3.942144512465749,12.199476529354762,-0.8542492859858135,2.620732234177451,0.2005256416516776,-3.758469441476464,1.6672253445188217,7.957500467930782,10.351770767132235,3.7379413205676912,1.838259832369823,4.78315376166951
6.419870095779355,17.685460382064914,1.5680178145410362,16.22605648400489,1.359035894860008,4.799045185727051,-2.8938304051258577,2.854722903996965,6.700222589936556,12.682336305935063,7.247436820671416,2.529893160101692,-0.8062412521392589,3.070194706263425
5.80400798607666,18.958883447866505,-0.942788351689296,18.16266434897736,2.0456645675088145,4.080294640867852,-6.711026509818857,4.761431593933593,7.058640494272146,13.215605739008067,1.3094769865246243,1.390533742969128,-3.570574416006172,0.3282926223329231
4.633065147598537,16.34363109406099,-3.410866943658185,16.154797039490596,0.3923662821094607,0.976880755935046,-9.65920433377302,0.5212721080399483,2.2004533096663312,9.279802254703004,-2.7853511598094887,0.5626679547397575,-5.463855632144482,-1.274600014264615
3.3386197080061444,10.215886745747216,-1.611376759961631,10.744485267632706,-2.163821674507398,-2.13290896817994,-6.86207424402185,-7.1617321676187,-5.625337493004777,2.760584216323432,-4.220265991942705,0.4494665250772615,-2.271266258263455,-1.0382809516582625
0.7166239185737884,2.949982990002666,-0.5923484242291994,4.4023110994331605,-3.196879398548422,-2.797896978297081,-3.4700403595438525,-13.535015416230848,-12.573240097361708,-3.34382011333302,-6.700575227043952,0.1055741802624867,-1.0542234896534417,-1.7571558294146832
-2.399298601669614,-2.614937878321661,-0.1259506845402738,-0.2969687773123971,-1.3225104367986755,-0.4344612976654365,0.1387047824232127,-15.392429076909352,-15.644518634397675,-6.707890746403503,-8.921252809727147,-0.3295696604647533,-0.2735338756465735,-2.7755501294092726
-3.9536330986891657,-5.115379671358234,1.2003757042165637,-2.354840733919472,2.613001361477902,3.253707051982752,4.135900176677374,-13.18567474520879,-14.600574940650905,-6.995470850436243,-8.836679052061317,-0.7738559746193453,1.4940209498313777,-2.9403264730559626
-3.9108957824347295,-5.4431267879628855,1.2616213262675997,-2.620442991848974,6.125202709947609,5.768929050110223,4.562426359849242,-9.95706846261614,-11.808344678863762,-5.765000612039559,-6.49463504814556,-1.2302822144450127,1.6339856931203185,-2.511117245428569
-3.312874518699688,-5.666655480090899,0.9608427473871932,-2.685555463595371,6.953217052198413,5.89037390008319,5.016672601460865,-8.236385741600357,-10.13215237164381,-5.055980183907492,-5.219375576803777,-1.2726224808815023,1.7080095171280352,-2.637233800055496
-1.560786910784036,-7.068253572014252,0.8501531462989653,-3.559829583126001,4.64974764437234,4.444920273625631,6.652260194767313,-7.815156651885841,-10.64436395804557,-5.772545042459104,-4.746012984745887,-1.2786348256005626,0.7787750713146477,-3.231165751038976
-1.6077253683204942,-9.1393928494225,0.0953739915363132,-5.237863634392342,0.6615587650358288,3.134486882639282,6.517169443887498,-6.34932942989162,-12.053372643445526,-7.133365061923149,-3.859873831204497,-1.1385588185514897,-0.3956277754136565,-3.2489001694576416
-3.968732262561073,-10.465760992140554,-0.9083191687479496,-7.230723413904815,-2.983070639196714,2.646618668864467,6.297091627025724,-2.005842592924141,-12.19703712073624,-7.563445166024421,-3.220289876896284,-0.3978292076432002,-0.8242992277565901,-2.8676607391263573
-5.524951037825236,-10.52840618615144,-1.176378759220806,-9.225578349033611,-5.121895070065236,1.9609905150135392,5.983914751756799,4.496548944513836,-10.143477277339064,-6.1971672806677365,-0.4212325442484738,0.5726668253388744,-0.468728334665562,-1.7341770576491935
-8.518600375334426,-10.46841023486501,-1.925537842698694,-11.14104431027932,-5.882625426420981,-0.4459171892432375,3.460276390353527,10.362531637639638,-7.0138105224026575,-3.672092792747325,4.762102359771876,1.8156438453458836,1.0530975744851714,0.3839539276677075
-9.661020832999425,-11.89733364477284,-2.1708118251074286,-12.713177616179264,-6.03525001560784,-4.714178026464663,2.231220122585291,13.115404474967477,-4.914802591922855,-1.552300870463048,6.543015204263039,2.4948182835305603,1.8858872987466424,1.1816934469151208
-6.653543236121571,-14.91623128178978,-1.0477384399215963,-13.334776855033072,-6.148967984418262,-8.967716448759584,2.2901924761070283,12.546528272663348,-5.08269177824701,-0.9426897661624504,5.099213811423889,1.95900981877478,0.7442899712027529,0.6453507748429248
-4.491473108291921,-17.487083349858107,-0.0602527690267974,-12.522885716472777,-6.317212809984647,-10.663148044912704,0.9719377227340432,10.463131530477472,-6.921393131800466,-1.5570593473072645,4.088816744164672,1.1019055405309806,0.0402295477759293,1.1394439175763085
-0.4853258509123074,-17.064462386464434,2.4490013906429207,-10.55063250585967,-6.413092292739557,-8.714519504004361,0.966509824664137,8.712339935432748,-8.660097365775433,-2.061481612746217,2.3755215543470904,-0.2462582469782915,-0.5777221535516571,2.263132442021223
2.390807158302008,-13.087037720923467,4.116702903513467,-8.463744570705348,-6.349422013626268,-4.436172610744545,1.005207402190757,7.539303600876192,-8.882838907802483,-1.3398093032515137,2.127823120282581,-1.3739490702657493,-1.397248762861726,2.5255391262345057
-0.4082654230373506,-7.890240834701119,2.7166927879973604,-7.316388510381793,-6.083045724641439,-0.4771361396836635,0.4655228713891497,5.7935035769425465,-7.557537864791831,0.4938230209104222,3.9559951900618966,-2.1042284510833245,-0.6620924230446534,2.207767476026291
-2.5774095204097858,-4.985596175824978,1.219581553671082,-7.322546753821551,-5.582466604509516,1.231438462248811,1.691081523411564,2.5464560827503915,-5.82541181255213,2.2421340590482384,4.148124925556053,-3.3239524147558344,-0.4422691145565245,0.6925042798426461
-5.704880999094859,-6.167978756104125,-2.070735887935793,-7.754806685413657,-4.9719443896454685,0.7068082399792628,2.622156660515365,-1.6457880813140573,-4.939243816229409,2.753708437495649,3.2267022090671347,-4.46863158863192,-0.8867641282859804,-2.360449602632165
-8.8643071898045,-10.074194217825577,-4.541555501468382,-7.669767207302929,-4.646206366085333,-0.5709496189688197,2.754185929485854,-5.07655634042891,-5.319692975866279,1.974256416581192,2.7436071243454143,-5.092302864854181,-0.6863249445878021,-3.3055600647368704
-7.1150640264147365,-13.459880470585569,-2.8250225022767244,-6.720189456479342,-5.006755704879586,-1.1605066171817344,3.159238005718633,-6.375506665181938,-6.388224538979051,0.9780615504559678,2.14257736777268,-4.742553227813109,-0.3535993034826129,-2.1219845604975194
-5.666681863210666,-13.933534697379038,-1.042000388637313,-5.304999329076555,-5.926681623907122,-0.7408094174554405,2.765694510003041,-5.631094547661533,-7.1192790426237424,0.9941747439018322,1.816184304820556,-3.666689360646884,0.0576467780748863,-1.5381424589305348
-4.652084080053142,-11.657884762851202,1.93147785697928,-4.050829247586835,-6.556416015315655,0.0055147203605701,2.220612443619933,-4.151468998970294,-6.792521577257881,2.317902679329534,1.9472834794155724,-2.2111240782155317,1.4576986091512816,-0.8152053966639621
-2.6512783515732354,-8.699659203267517,4.249211291517977,-3.257544526992403,-5.890848232485817,0.2780823821373062,1.926138828653723,-3.270948466366065,-5.437982384309921,4.038645149237762,2.029153775033113,-1.306036775499561,2.682116774805728,-0.3331026742661512
-2.790370839709597,-6.97059821657848,2.3930090310783045,-2.824938514649186,-3.6954956166931385,-0.1674454448491182,0.2063506801808701,-3.406574835722867,-3.758287424800992,4.772328255429894,2.198546756231759,-1.7927870271801745,1.9805898266835145,-0.4745680556268773
-2.918427178800852,-6.797529403688531,0.2532423143087866,-2.5566416337688764,-0.8556969690390517,-1.0645665944138374,-1.9607842515356235,-4.074402432863348,-2.623068117379296,3.775229304218283,2.0207511954448547,-2.273422778012238,0.0782277103517279,0.2178829027559052
-1.782649755406154,-7.199646487347021,-2.656411129650677,-2.37256760379163,1.317980483695547,-2.087209488193952,-4.17688462745709,-4.524342320142232,-2.459902433809692,1.5713830139006395,1.3951723435563688,-2.871044186742135,-3.599512280956798,1.603312110351839
-1.1367432490899585,-7.166949625075316,-4.869435074152701,-2.2125576159481035,2.225582878983001,-3.0995605398419475,-6.221874970578898,-4.218388091656681,-2.943516593790087,-0.3638289665603809,1.1474966738042338,-2.952022684476091,-6.329282549592151,1.8323469057309911
0.075173308679298,-6.480040262861669,-3.2452094488214285,-1.8740976404255496,2.427667831709533,-4.003274272566795,-5.958115332927836,-2.870861271340763,-3.222671694582845,-0.6393461585359228,1.1895925561324716,-1.1318810604914706,-4.899132290902866,1.0258087201191577
2.032795869956935,-5.4358894340486295,-0.9384617804679988,-1.0995915339687805,2.9324437030006134,-4.520252570160489,-5.091607930991311,-0.4155703558788666,-2.547702520071784,1.0189660601831196,2.628915245729252,0.8481660755500645,-0.944529604792164,1.1628204036492502
3.414446893440131,-4.11836031075546,2.262205170762703,0.1422710187319573,4.037595456839814,-4.295934793255116,-4.349402382474439,2.7710580491793118,-0.8332560351482003,3.490756062368325,5.756364470635529,3.032872636615073,4.641911051791686,1.9903368427841843
4.427149734156365,-2.19561182741454,5.099879263525488,1.547203443370334,4.937438286344001,-3.271641137489379,-2.775077103481644,5.656377541604882,1.284106913982586,5.010372038898867,7.004612323638277,5.1867669144112485,7.849100653555325,2.8043988070169847
5.098325824125136,0.5517843811630225,4.588992302885811,2.74344582956846,4.545911127071998,-1.8883909052305652,-2.3590058912136174,6.906876672231293,2.940529643306921,4.468947732849784,6.479226026365156,5.665283848186074,5.974953734357094,3.949394477862747
5.0439412963376,3.654768338899624,2.8100898344375924,3.6877856932506514,2.7239944037938795,-0.8116965435439774,-2.0205443392536706,5.847319988120195,3.7056925816040778,2.2883061975290726,4.917524239330653,5.883859761623517,2.7502836596388938,3.623484485050159
4.752936815644997,6.055272569807109,0.2063465530336832,4.727295128995744,0.6407275680006652,-0.3782983296986408,-0.2083385606417943,3.2388634521135677,3.913136612315055,0.1153483575214737,1.4675147778951043,6.346064454786601,-0.1138707508665677,1.6283523566040972
4.332843070302844,6.854465193652496,-2.552723665073379,6.176896672428676,-0.1728521805766796,-0.3030021623820467,0.0147749385439276,0.9807963007885868,4.429623023742792,-0.4884340710791957,-0.2291921078777828,5.914393602401086,-1.3608126051928318,0.2223300278884929
3.0436790245736254,6.002963976968925,-3.049868056766857,7.787133687934801,0.789893417315426,0.0338153950252326,-0.4021377209010436,0.7375437369516256,6.03201826358229,0.7055674361581001,-0.0718317205691477,5.018948937013827,0.0187781016792602,-0.9652337436269768
1.1667921101880243,4.284717466188443,-1.066177949394526,8.671722500235216,2.519532933174567,0.9680633036248576,0.0180501600595066,2.577547542530361,8.819045058030277,2.4814424670701314,-0.132727462260725,3.955775020785253,0.7524471495232523,-2.0503462928682974
-1.0805311448550785,2.6243848731678003,1.243356597103369,7.888965631366872,3.371889989913809,2.200917836919155,-1.5411287121288373,4.856980218003908,12.069997213162614,3.27950957268461,0.4154201062740251,1.7439431490997672,-0.3823828472710136,-2.6314718185182984
-2.868658872288625,1.3616392879711086,2.398822843879267,5.254480440185065,2.4774061808010366,3.0674874098656364,-1.9829796845740115,5.540917659757529,14.68162551522783,2.4865758279644954,-0.3482364708088518,0.1610918608136423,-1.8491730195612257,-3.005027099692684
-3.2410581473246536,0.141332050356457,1.3671710386815032,1.6759560826059197,0.3704333828054,3.176228197991147,-0.681900326626605,3.869799103715742,15.908217477319988,0.7610742276298197,-2.7267161633185397,0.4909316133101192,-3.839770936534157,-3.022131010828021
-3.125596863619868,-1.5072263313294956,-2.781527531511464,-1.3532170521550766,-1.6467029959338555,2.8008061498105885,-0.8600038678312161,0.9605266709092176,15.87324857594536,-0.7880430423609859,-4.941311534743334,0.662931962252879,-6.337462259713479,-2.868039329366572
-2.724645779261784,-3.46122122257293,-6.642520664075469,-2.755206667899801,-2.6609884989393136,2.6394131597411565,0.3205551571279474,-1.1236779242075592,15.474585149272116,-1.6538050779297366,-7.482953399745352,1.2675661104105411,-8.491336794142475,-2.541652901679566
-2.1029347342495246,-4.8592086228198825,-6.73984195612201,-2.557575642976714,-2.699322209391079,3.1574740569647552,1.849063272549874,-0.9762731138225468,15.809465523082675,-2.178244105781816,-7.627621955871301,2.187858732880911,-7.923007111156648,-1.5603426105922489
-1.1292365696401114,-4.709060939476884,-2.834475421762475,-1.697182014892972,-2.310503448874752,4.124804717213555,2.3692212453666777,1.2197737875186547,17.627113317183827,-2.87590910872488,-4.889516515365553,2.131169698508629,-4.052023262118877,0.0810368434426513
0.403114256432626,-2.7280816780200894,2.250853258259052,-1.12750667350012,-1.8274215886831948,4.776703564295157,4.195469805663957,4.056796495031467,21.156455831267078,-3.668519957193132,-2.622630279258422,2.3115047671858377,1.6743396963075994,2.2199099681343517
2.428340993922475,0.3671520864493764,6.201122329198618,-1.032090457855217,-1.1458656787628403,4.458263206568716,5.954772548794412,6.0326150918408405,26.13960001740659,-3.8828254085670704,-0.1529805637349767,3.050461522903058,8.662231869642332,4.978018819741279
4.0165715808991855,3.411546559296613,6.653534088973295,-0.8252687787761639,-0.1305736681043381,3.187692185369519,6.224859646807883,6.417335919186963,31.713788889726867,-2.9976021628753777,-0.5622261291088063,3.0543715862859204,10.37594164653574,4.683230406283527
3.730644493046912,5.666829812098445,3.25554212111649,0.139223903461084,0.9704787988026348,1.660814191552312,5.139800352838453,5.335232307411987,36.263622418459136,-1.34210565114891,-4.702410022226731,1.917514538475183,6.2835872168337215,0.9815961137342304
2.874383379750121,7.187451712656536,0.8161665654476649,1.8934275113485208,1.6550216213366449,0.7040607233918053,3.2818181764414844,3.374797231697597,37.90172878453964,-0.0311226181074282,-6.460722786978126,0.6342522501345215,5.042857548537219,-2.371198928886132
1.9318909960678452,8.373979358704911,-0.27067613593958,3.8624928010577975,1.6895989504231554,0.6326759827545594,0.4954324134193283,1.295877399315617,35.881029884572435,-0.207915471747647,-6.528039672323438,-1.2197659481620395,5.517133035862617,-6.215742765938185
1.4629348308898755,9.275891412628525,-0.6821131987734201,5.464527987568022,1.4031551723126956,1.0250181297493943,-1.615719170151825,-0.0622246129059478,31.998352944038068,-2.297628982250628,-6.96370334072987,-2.763916211638536,7.024529352897685,-7.16931383501738
2.77739274888874,9.478635465497485,-0.468317059799998,6.621719330104519,1.403194147000776,1.0756078478677953,-1.1320495389332297,-0.0242612197994027,30.25243344220219,-5.847493305872361,-6.696825733408593,-2.29137767617854,8.829440356463342,-4.3250664100743865
4.608185451561142,8.75756545957103,-0.850659054316819,7.66653501625178,2.0149444645323564,0.2414951642457303,-0.7002969746574138,1.394350069780682,34.01760040320108,-9.892191383111363,-10.409933913201147,-1.5934732448088766,0.9964577226793464,-3.822835977481072
6.4011183843728645,7.764512333634182,-1.8252135865847847,8.826265285875591,3.027060464840986,-1.31373980092597,-0.3638097916671692,3.1747812206277013,42.39293853804367,-13.371082133442853,-18.58415537368259,-0.959338777107999,-12.660974329314485,-4.866418206846915
7.034198350443649,7.838013332593469,-2.3790027209970352,9.899301449911071,3.969775930524352,-2.807589003998994,0.70465490509386,3.815189112246323,48.96519403038696,-15.322166478967391,-20.96225514875456,-0.6851138004663497,-19.57724336510393,-5.292221119760003
6.313540226683012,9.865983426912017,-1.6686609905935113,10.445443357266337,4.591730505181338,-3.3859112478994677,0.0627576200765833,2.51931185108754,45.000572237141,-15.037030758286496,-18.02813402351086,-2.1569466873026526,-17.140258106747993,-6.105395825506956
5.259087920284061,13.18301094238484,-1.0050257909037703,10.190317710937975,5.026339708144805,-2.718477427889181,-0.9149482728760584,-0.0173558884588147,25.54425081384116,-12.437347929368304,-12.25511761165139,-4.069897320317821,-6.66190005971745,-4.224965343551598
3.1986533686871623,15.65144485849068,0.1825425749572859,9.141099046545346,5.488385927655449,-1.2023799995532092,-0.5422641411075655,-2.150764196986963,-6.001077304168191,-8.477857940736733,-1.3163360979058905,-6.041475362517315,6.657758894578713,0.7369514657855994
1.739464644433526,15.097941238977484,1.5976545638091029,7.343163100967883,5.832986626189205,0.3588291191847212,-0.7832282206306683,-2.7884980260753576,-38.713039376599625,-4.962654128386593,3.7850172403242257,-6.628983312815088,12.21555328162661,2.5954963684539947
0.1873169996795217,11.018080388011414,1.9748912462392936,4.701616716118446,5.468538180474002,1.3284827034029467,-0.8466028488479869,-2.3515134686089008,-60.36941082724329,-3.466432080960724,2.526848316619849,-5.158865227626623,6.94806829659496,1.7539765042951907
-2.6795319392027883,5.110053554957169,1.4014530257061608,1.214710346928812,3.80134242565656,1.6081614535880542,0.2361348213053001,-2.119063424637345,-64.79118750723913,-3.996857346601995,2.720630263335607,-3.436143233396108,0.4909540886658616,0.2007669576012153
-4.930173102474026,0.1222946834843687,-0.5376210864120492,-2.6122335623243083,0.878015911290078,1.5446059538902135,0.4577844512890363,-2.596465888266966,-55.06988963461632,-4.663782098436132,1.8906920624716332,-0.4596956868108801,-1.6269843941978617,-3.347912842425532
-6.7437405803845145,-2.0944109979354004,-2.366445930918425,-5.766345719947166,-2.363775811112827,1.5049141806397754,0.069243666686955,-2.740434963572927,-40.57442716608279,-3.0296495839887667,3.4536543908268054,0.9305330570885626,-0.9816624132657648,-3.1467195767547693
-7.239501198950196,-1.781858487435315,-2.3716628597085,-7.379656766683087,-4.561755648023718,1.5122943015274348,-0.0401326203889675,-1.0902624466937487,-30.30548102966957,1.7277140142356906,8.518179248021879,-0.4729899074103622,2.4048643314607894,1.2403006093505355
-6.166468206423818,-0.8165451177987846,-0.2950755963941184,-7.526302576291069,-4.829618217608115,1.2527532547068994,-0.8152576395068738,2.258978541828286,-27.59500013699033,7.757328197336426,10.951988926762471,-1.0419396993495147,5.2276351956886336,5.038035948672359
-5.116855037110545,-1.0664420158843786,3.1092443262377194,-7.339823069879473,-3.3804874319373663,0.4294968250044668,-1.9839810744227715,5.075408291838714,-29.570807661123123,11.793698472958642,11.601470874039611,-3.022542546098165,1.9286065807546056,9.557483410978156
-3.834408553889947,-2.9438171184381936,4.900324127201644,-8.155579693466255,-1.3433598566299665,-0.8525506385225103,-1.8553937123032849,4.801874589005596,-30.83953301437381,11.865387707168145,11.934832606087324,-4.185440777461381,-2.134481388819043,10.654459361396084
-2.598105950181026,-5.270759880490971,3.2355350867691546,-10.311821186563524,0.0793330300266603,-2.0143823618295773,-0.921922285862005,1.2048564736128051,-27.90142202746957,9.068391625125528,10.91537244856681,-1.858446842871204,-2.931164016401248,7.329612435899699
-1.3736872223962897,-6.4296105450602425,-0.3966568742125648,-12.67116218655286,0.4052502112610199,-2.341233794504633,-0.1381087910110349,-2.8896711152014767,-21.05037403430015,6.6840380006981714,12.17984400748148,-0.4838239601161505,-3.719359534825652,5.557136368710793
0.9292790145638958,-5.749014121466601,-4.259231326906744,-13.392150491664175,-0.0032847295238447,-1.5097538866120033,1.7004898855768145,-3.8863368207440754,-13.154675659850191,7.332345249582543,15.962430373262688,1.5936272847412631,-0.6861252369252145,4.278887527480077
2.585673065089376,-3.984595035325931,-5.487102965960901,-11.413813006427596,-0.4732500833807052,0.0865390850809006,2.6408010016510994,-0.8155935438678252,-7.131456713233437,10.730988201276864,18.00736157304148,3.9479424815132234,3.040068016049765,3.963170424602781
3.052929257970392,-2.579423965513204,-2.972436109067472,-7.43531852681869,-0.6622654173219473,1.4999450084518386,1.651204306618365,3.4569220244165315,-4.243238419398283,14.10098878247398,18.983424468849798,3.3381568938599173,2.0163941110094177,5.685891785417983
3.891470331795773,-2.3994743031402805,0.1885964235461386,-3.514925547186209,-0.7803979364446256,1.8323452774444853,1.0714274168660294,4.632207910145262,-3.95402200950964,14.782699001198392,17.644015765874457,3.0998317970813787,0.2598716674984463,5.256248598254524
3.822331238274001,-3.0237556685564613,2.619407209793758,-1.5426150959392189,-1.3265263959693954,0.879243807085949,-0.2470894746632842,0.956830166744968,-4.739531889050532,12.591967470634984,13.058278920750842,3.160696670817288,-3.710410039428522,2.939295330864889
3.6698448606843295,-3.1715075830876955,2.934616653528765,-1.8217196487456315,-2.652108083529185,-0.6940294886445599,-2.0338970847774207,-4.94549319348595,-5.042921238747166,9.800429397752854,11.027322095047069,2.110527360744814,-6.984832081396203,2.199420689962256
4.428502651920963,-1.8845871727198045,0.6070823654622974,-2.9455454093981466,-4.672736323633728,-1.8509395918888456,-2.938763299631941,-8.260117712524888,-4.048434932538775,8.935325280090957,11.298162323509477,1.980074142528349,-3.988082133096541,2.417373538137946
4.27851012502215,0.5702965013433641,-1.0020824946836813,-3.0511918250827854,-6.837007502534757,-2.013574528936497,-4.540029683329433,-6.303378442855255,-2.1375242237480965,10.56725434824554,11.204531564628695,1.83396505586686,-0.5380162218340234,2.734559836853095
3.95978710552533,2.91381592694443,-1.7114546022220172,-1.3268663579599504,-8.308669319007393,-1.5228647771229795,-6.690846489869654,-1.0183892956413274,-0.6911878965017664,13.063444465822558,11.913459526601482,0.4819426494057055,3.6769926511105737,3.694193104613109
4.224079226434148,4.051265088873095,-1.5040777210033522,1.5399519522858969,-8.284648921070193,-1.2554656671477602,-7.020527501598308,2.6962056040274227,-1.0488537875022494,14.295279444498837,10.387381720458896,-0.0313175389969246,6.914412136138899,2.89991548760175
4.172931973868356,4.173186628645418,0.4206135751164485,4.242779955685556,-6.352573195747098,-1.663810263988335,-5.53975571480338,1.3113565439036776,-3.2331249273646367,13.52417950527315,6.219079471137075,0.1974811201890752,4.426538932963384,0.1453555054419847
4.116174105549807,4.630919454705108,1.920369131305868,6.061595631211507,-2.745365657508444,-2.1295883829892333,-3.5323847628781677,-4.316419312086943,-5.653032663041564,11.738423100812051,4.057685217163546,-0.2198257078593946,2.579416477887017,-0.5089408509206962
4.424687951574991,6.52050122767821,3.6022322565706126,7.1650802001148985,1.6312326388671463,-1.3726380993129226,0.138912676744591,-9.95106878561047,-6.379921068430534,10.331553070352037,3.3504223028674542,0.1791043773495816,2.0786126785710506,0.5895292857284825
3.999844201739125,9.233223684528618,4.386499216453824,7.838000968583662,5.434945323382621,1.2853737395393878,2.509175352709155,-11.958441472053234,-5.017347019949671,9.542330886482771,2.0312958729766684,0.3573244601757272,1.661105619071812,2.265502830661781
2.728018938556694,10.51006506668804,2.6848794160475844,7.678064530307347,7.348156211506783,4.926925950239649,2.112191911178459,-10.501642188568468,-3.296580496042285,8.15899944453373,0.8588273991352532,-1.1027189425015844,2.6965399632550198,5.330265195863054
1.6416976871370046,8.279999727695879,0.2333479463925431,5.8457533426314825,6.681910287808481,7.388212626814223,2.467071485037861,-9.031226170433538,-3.538321354211593,4.717136072639203,-3.895949008623548,-2.06616219688166,1.0612559178440777,5.99960878619683
-0.0343793891815376,2.7828029150895777,-3.855073240018643,2.2267357200350557,3.914113284690736,6.870629738463496,1.956621864998888,-10.679141991005856,-6.263586639351537,-0.941651402752818,-12.789677298357256,-3.1966365851202467,-4.023902120092606,4.000799412362462
-1.6258484586401272,-3.0752160623656124,-6.391574099400886,-1.799324290945254,0.7539214700599715,3.4714803867701853,1.1800567724495383,-15.024024308666448,-9.320448155111189,-7.153007655239318,-15.779182080239137,-3.972878125549033,-7.937740501967163,3.387411565539349
-1.7163688870453668,-5.755971023933256,-4.694117935431964,-4.055704463782647,-0.6384965284595552,-0.8067935023133508,1.9645286947310396,-18.24483704888162,-9.605497118560834,-11.422316956169336,-13.1601376107596,-2.1403802519031867,-8.116834331514289,3.396094408760244
-1.947768836733049,-3.914672309727916,-2.2334974895404973,-3.311789580693773,0.912566329428774,-3.682837912581768,1.6973496028489856,-16.458811386743214,-5.919419004907619,-12.14205396344978,-7.282441989162331,0.1554220523358554,-4.71965362124128,5.228484606600207
-2.221641566150648,0.4650654625197958,1.7731166931813864,-0.4387951233149856,4.476539465008347,-4.40643729103962,1.0091370506858874,-9.124982635970746,-0.2406855576363789,-9.71010975490399,4.237263099713683,2.765987504153493,1.3080396739926845,9.698340475093094
-0.9932858145816968,3.676170395559186,4.624864487455974,2.2485981543827016,7.329351363194888,-4.062378250216511,1.8805332597509328,0.5428187557721245,3.9096631654037086,-6.233143576252022,8.397271715134831,5.44531419924475,5.690232609781198,10.34753467332285
0.3990798849069259,3.2245397893937597,2.962394635213503,2.9762333816684947,6.8414831454633465,-4.121196858498767,3.3422886580141795,8.369870890618476,4.575366251784207,-4.0632028466281405,4.545306063349479,6.15624945649942,4.778547334891372,7.277663546910676
2.084432994956076,-0.4554569126955936,1.206742827790742,2.00240524081266,2.6250296394686217,-4.742162197027145,5.155829932971693,12.552372158691664,3.062489580281309,-4.220649678826568,1.20925356226916,6.752961906417005,1.4550667884505883,3.610407840161078
5.535305585304854,-4.819154764301663,-0.7096868027186947,1.2171262582366251,-2.8980538939581013,-4.599917874080818,8.259472474076128,14.551294949659244,2.6427035684685998,-5.786084444784185,-4.64551813791467,7.771603528401835,-1.1397736034602317,-2.050561729170386
6.4427575749035055,-7.532350296741093,-2.513366332349714,2.230265977446292,-6.19058724551846,-2.435529582578262,8.993021828003856,16.96729539413953,5.487458879132953,-6.662821622078834,-6.492780983527,7.594807173849724,-2.725953547082771,-4.192776846007116
4.488356807349973,-8.098250881480142,-1.553284287631623,4.756939321165335,-5.293814601725622,1.301089188851293,6.613100731788484,20.590888025647075,10.685894414099238,-5.183931933974407,-3.0274561299179505,6.894739974016929,-1.8523938366851616,-2.1641637288819755
3.0031020957495373,-7.58866955683266,-0.284970140227742,6.8056611668028815,-1.3088705278550126,4.512912311112445,4.3384201975217245,23.44252921817588,15.128971023263787,-1.440973203433172,-1.4921379258030991,5.844884303022605,1.16147729613189,-1.125908027732784
-1.068147530986169,-7.207789255979084,0.3520634840413912,6.459510313635688,2.5480006812199525,5.267820013925418,-0.0598285784658607,22.640048855395754,16.336069148617092,2.65377495481056,-0.195437739245491,3.282399734708502,1.8212730493786,0.2459548712147563
-4.272948945530682,-7.300795023475966,0.9846334095689202,3.5711412587464637,3.475733282575401,3.5555131719657997,-3.316313227669453,17.275401813857396,14.54625831934007,4.699409273312322,-0.9938743635381798,1.3717644308062789,1.056109248521343,-0.6936217703674225
-4.887709259335933,-7.575353602547716,0.5747906238226295,-0.1595190257500172,1.1075915493205208,1.203564247375687,-3.315645727131264,9.578889078815717,12.197346596226351,3.593574153506683,-5.087106489543348,0.714127460834855,0.2846689092796118,-4.880728137399453
-7.667369926034724,-7.885817760495983,-0.5113691234745158,-2.700552233640294,-2.49489396035266,0.068457762172537,-4.601066352452915,3.263414523938429,11.43119072336529,0.377902329027822,-7.708463889479821,-0.7671695370800673,-2.547038229399008,-8.519501597721687
-9.67708767386897,-8.497837159825586,-0.9165963087865666,-3.329327216539734,-4.627143749721048,0.3812856857214814,-5.0113422346635055,0.5319144640860589,12.06641104296592,-2.609138381278366,-9.494897606601022,-1.7821715206619857,-3.231083312502402,-12.43476733340767
-10.95720250463259,-9.589569727054124,-0.6422553870476714,-2.9447842448917267,-3.930357884840806,0.8762714509647829,-5.077149492337662,0.4296948998464582,11.91234261254063,-3.6526669208256894,-11.208061787845963,-2.8770939362601795,-0.8518292416157206,-14.64692440561638
-13.413192966468731,-10.735374720564682,0.1713299557617405,-2.947155246354052,-1.1183457804691272,0.3737008290650827,-6.54790885914014,-0.0380455234425465,9.004943203075975,-3.068950922492915,-12.006639957988376,-4.981369146945313,1.947544808980216,-14.400061618454048
-14.454585244845475,-11.122813290347674,1.6994158928594478,-3.900292018762404,1.8226315870832048,-1.0122037340208043,-6.960882660036555,-3.12755935132688,3.5590388882953228,-2.882469162247812,-15.52342943300211,-6.575653747330751,6.035094895606919,-14.99399908169526
-15.209194232463432,-10.353922413048334,3.0425333419423173,-5.237765371741357,3.0907612292748823,-2.2913476414512424,-7.121712627867204,-8.468286005665938,-2.193625549033033,-5.045880841955707,-21.895652031940067,-8.276921439725845,8.83741909198244,-15.819468996098603
-16.883350610546685,-8.963335466975192,3.1937752376370723,-6.120326577853241,2.089871258791213,-2.964093430391042,-6.847073057823862,-13.680400091247655,-6.0362528846120895,-9.777014901313908,-27.20410584022645,-9.881828007438884,7.009530398938035,-18.195369156409505
-18.15530119347821,-8.051552364096587,2.5536742765765235,-6.428626126719784,-0.48262841205349,-3.597988979317357,-6.183905604396806,-16.721691952496265,-7.685177886189628,-15.466310922304231,-32.10479802705896,-10.785017762088602,2.9142412166652765,-22.80157462056605
-19.384241473265085,-8.362462290779611,0.274573621894044,-6.869975016555031,-3.258219944045578,-4.890899274152019,-5.39774579346432,-17.630745200954976,-8.807346382036329,-20.147509476102822,-36.02145704897928,-11.734267300100033,-1.3013311550021818,-25.86121762902421
-20.86057279515984,-9.698526286648883,-3.1043026962083515,-8.175205983145702,-5.012444228969862,-6.388221125318594,-3.485432339042189,-18.05999096191601,-11.19353294924398,-23.08991769969936,-38.1749622799229,-12.270933603516823,-5.457541591133716,-27.71552971277508
-20.84067394684736,-11.196876297941516,-4.548268241037389,-10.265464767493713,-5.275043466148048,-6.561268855439451,-3.0408648621748204,-19.216697627932056,-14.843064673317414,-25.03346182397557,-38.01583125409745,-12.267864475172672,-6.265575404229122,-27.68564898929097
-19.35847782971264,-12.113651927911654,-3.85774545316154,-12.204699434729209,-4.535448558657691,-4.436640336738861,-2.5836596934827067,-20.35671353287261,-17.74112094621327,-26.960535633068048,-34.91154328709867,-11.710150806479684,-5.143967468803972,-24.867288473429245
-17.497419962732934,-12.307553786320902,-2.061370539723225,-12.9048134078269,-3.936681510483581,-1.06644977579937,-0.9802914170765628,-19.349316085541037,-17.53796121943904,-28.7235395431662,-30.951635350483024,-10.264084287664437,-7.223966012043564,-23.83665374778693
-14.250196650537289,-11.99976593751257,0.2062733906383901,-11.869303905010334,-4.49865255839628,0.9578807172414728,-1.4210557749846158,-14.759027037711526,-13.646389301092556,-28.93849264639869,-25.80034035826096,-8.34326402839023,-10.315757409365766,-24.3741518586012
-10.533183922701191,-11.168420068022044,0.925550670030208,-9.370843862163705,-6.257058242766966,-0.2276926396564107,-0.359889141677957,-7.432516220160501,-7.928199843569516,-26.25699427531293,-19.704873127383408,-6.289664745029183,-10.162978881831046,-21.6099166770683
-6.963722995304427,-9.301847297629209,-0.5970997600866198,-6.101037367698311,-7.9916921525934015,-3.860187310685859,1.2754577300952663,-0.0975868486168707,-3.359542782744832,-20.749717812278703,-13.056691875216302,-4.016047246938198,-5.573471942753316,-16.160550347246108
-2.200757972637906,-5.839189196049794,-0.676669107674086,-2.7511341236112443,-7.9744070455187455,-6.986734650562759,0.5573061651441532,4.639730728744155,-1.7653105385429626,-14.033456496467856,-3.479305111132962,-1.5392652453960036,2.67599895843722,-6.902835934440083
3.2756069440462383,-0.8980909328585653,1.4002275526215429,0.1620698302786323,-5.339415800384771,-6.963909942612922,1.9858583448004508,6.118488715167999,-2.487023216196029,-8.016598923797787,8.994684792856651,1.3613183355826592,12.968788440998496,7.304417726111703
7.434809414263975,4.442939774346954,2.959799110823998,2.301291746944102,-0.9535889496094684,-3.7077892689415455,2.8113143516965304,5.784814374169599,-3.083936370785594,-3.471129550967732,15.928459139611132,3.612071244636159,16.167309784869378,14.936325499276244
9.878591177476803,8.661014842548397,3.5888908257859,3.551033679517616,3.1000756520715957,0.3818965046668978,1.7098550404288648,5.748656228202535,-1.4855758946555966,0.2503627382933757,17.084167707801598,4.12310347498074,10.084808206963508,15.744435830310264
12.04067560099336,10.743592836680564,2.235287213063917,4.10070949526343,5.119062820129685,2.6522990584819297,2.642424229076792,7.084731157655476,2.219549255340453,4.1999184218805965,18.35972194016414,4.236895312565236,5.318020966621276,16.52245580011151
13.06029371342633,10.844014510814011,-1.3729572962536576,4.400871001283264,5.074587832664619,2.4196461938736107,2.0899992238460765,9.233042754303128,5.908189408106836,8.611273130808655,17.856535070130814,3.6756081879879736,0.563239001357804,14.645022851405228
14.58176688140536,10.157445913706624,-3.610362738734556,4.936186600740911,4.416731647847897,1.1942274156376629,0.9294766233125434,10.787322046880355,7.389753712668863,12.662799084701431,21.37339000740721,3.780290629912147,-2.099033594863565,16.46044115181119
18.378821296389063,10.141597011560693,-2.9241893505632266,5.991766156171408,4.594939557426123,0.946333404331476,2.252460613829357,10.850557339120911,6.504948887346842,15.362589075526095,30.06914908880553,6.256128727868342,-1.2345797385313824,23.02062579927715
21.49731342168721,11.62186746558352,-1.353731189809241,7.602007573782231,5.721367453764486,2.2450422002545167,2.5317622447940007,9.83532744047973,5.449769701652187,16.597210525805423,35.97198983301355,8.76474272943655,-3.1573026337423067,27.353544549107383
24.44751957057379,14.302720313181196,0.0644822645344732,9.63573968830258,6.609878292175679,3.9851218946248537,2.7473592594223746,9.148237811562694,6.937190654067564,17.30766290378311,40.46288681455076,11.483002217157912,-6.2050042016148375,31.0029246691171
26.85824359538895,16.913460666007552,0.8334912207292361,11.8174855314695,6.029036498226134,4.707242058371747,4.019554453153454,10.067802729547353,11.74225510654584,18.66912650211944,41.49698350622255,13.258990611151956,-7.1100891796944765,31.817509644605657
26.40550146219908,17.9230743144348,0.7096106350316695,13.652490035485783,3.8749184485310906,4.027903165224814,3.689018823337154,12.669049042814478,17.76659342067547,21.074997324475653,37.466749806236265,12.550608409988342,-4.861996832724676,28.547397662535285
25.263671085951763,16.5258356977415,1.1443726964198555,14.49603443613382,1.2126770573342895,2.8222573171526903,3.1663711455185286,15.57796610600836,21.4412711794784,23.81216636863391,34.01863275755629,11.625440713408151,-1.1937452479573962,25.768144784629246
23.65250772373172,13.385125347075146,3.8787464290702176,13.962591845009982,-0.6464527429063907,2.2078467009043408,3.4828668676543004,16.766362341886634,20.272921293554475,25.62154268761513,30.30646338250646,9.939618220399485,3.209813483917792,22.704937231866985
20.86579266986251,10.541574401045736,5.53646602954055,12.429089248547086,-1.0333701134726,2.516398105390749,3.066686877634622,14.896638646214043,14.468540122830944,25.609355386989375,26.811448680955152,7.978732440326586,5.10820488611618,19.68223728649049
18.249292469289312,10.235884084231358,3.88528788132654,11.044676903997896,-0.0882685638218987,3.234702905230499,2.594491692096724,10.316255171209136,6.530795255708867,23.81302316312521,24.61173319317535,6.696424541212511,3.3613136828651,17.518565628998687
14.83416551196936,13.201000938684444,0.6556158511188809,10.943567610802036,1.5978038792535614,3.7486861003921206,2.551223247673751,4.962410341749859,-0.5491582479030157,21.095738829066505,20.04728057922844,4.325849219967326,0.960578870699312,12.380830918111808
9.908028652040992,17.68108187865608,-5.283930263514472,12.157320335547723,3.3030426961066865,3.943230320703293,1.8125187850997249,1.1301454546159988,-4.972040602657046,18.527038044303065,13.452427248880356,1.5022196916215445,-1.3284071002504296,4.396763255220541
6.593486876313907,20.23629697214794,-8.430740016423712,13.245615730012917,4.301824213774893,4.058002984597778,1.512485618882948,-0.1039747420199432,-6.664736448037537,16.68062122827847,10.28205522422142,-0.1545961853147126,-1.1336889861678738,0.3529036006840702
5.0329942767822695,18.109997816732857,-5.380038871519543,12.229916711527444,4.0967253421683125,4.147604591640899,2.324247878117706,0.3667784979734279,-6.754256583237535,15.284880025435683,10.31041953387917,-1.072036726772103,0.5789100033450895,-0.0177831693429167
3.39388248411764,11.490100175649252,-2.2706763947138224,8.253759075631322,2.862795665751733,3.917916497540823,3.074047106920451,0.4331848188680567,-6.663965185435778,13.459062178994555,9.007992301169589,-1.5084099328193574,0.4385563605521357,-0.1190522407754641
3.3892108572904536,3.744562492608253,1.6205091750561564,2.574287555372628,1.6452789617022674,3.172889147795317,4.320434834156159,-1.4390366129745118,-7.348954970790302,10.414376121582862,7.326550907828564,-0.9105652176349188,-1.7454147748795414,1.4575420374326171
2.4866748881302927,-0.8353916459192945,3.657932477659247,-2.113482372019469,1.7856315959755982,2.2924491440468917,5.10362533416034,-4.797942867797396,-8.844189952431464,6.15344427930372,3.757845403511781,-0.8995061978262021,-4.436587248241777,0.6663973617436426
0.159591637566082,-0.1717099445333261,1.251744706629011,-3.6303144962414073,3.7819526686232976,2.0521925012341136,4.734616618393546,-7.434783486260109,-10.242999238122511,1.6321190475834155,-2.5925238902414613,-1.341331359466114,-4.466538561767558,-3.0734614791831056
-0.8489908768782318,4.071825290875605,0.641762172213044,-1.9956667635264225,6.572558022694057,2.842409450478682,4.611781925697832,-7.1897859585846415,-10.255080140330726,-1.7978907805587454,-4.635733820443591,-0.8099125726850762,-1.3073870566060068,-3.0860650088056616
-2.4891413700302403,7.8227337036754685,1.0197823332487432,0.5629217824281891,8.083416661400236,4.098582253425294,4.005804231931776,-3.838943360770124,-8.191513666028024,-3.281893396460621,-2.5318642805432314,-0.5056312091394362,3.975882767095957,-0.0865504010042746
-3.2322662402277467,7.691346694366724,1.2407404354735143,1.3072822613970807,6.774081500545149,4.637958267198677,3.735917410763159,0.6265155126436168,-4.698703719078828,-3.0067946902956004,-1.9184347709151477,0.2164618794070192,8.015008459053389,1.7553412444506538
-2.928012114840829,3.3085992829154645,2.3485003868283454,-0.9769406213100296,2.910222424432523,3.6868249707693552,4.459164048475083,3.637525240509593,-1.4745880743355604,-1.9776956076721768,-1.5180809700151685,1.6096630423336349,6.88374027195353,3.4500022871208578
-3.3109280897091438,-2.8364331504635096,1.445480834936902,-5.205520913949886,-1.5613782907291718,1.6337829887887398,4.56538291321025,4.151742549548117,0.0596757464969712,-1.2359243771643411,-3.12114063809756,2.754457682367291,2.3717891257753125,2.803682320696545
-2.2526289415171914,-7.61410737838095,-0.3811391227254698,-8.978978573084252,-4.448586634375591,-0.2445322115457244,5.043742061699781,3.3108409795840466,0.1093956840311207,-1.1832176732903648,-7.773388119864134,4.533395864572274,-2.7477544704434878,-1.036655048359169
-3.2982202985932902,-9.485422963521705,-1.2465820521697322,-10.402773739049636,-4.846008182293037,-0.8592701262879849,4.988441968879246,3.082223344029813,0.5545121935618766,-1.5566317006002386,-10.423171532096022,4.795480242163481,-5.718913265188154,-2.9416058013547124
-6.524071327053427,-9.046072972560616,-1.7132944999149011,-9.282766038571545,-3.548483982919578,-0.1979697612064797,2.961797101464228,4.2199146174723765,3.354474030676549,-2.000309919853948,-11.590808812695911,2.996232952936639,-4.346394938466944,-3.439092887364547
-9.151429779029998,-7.910555136493485,-0.085773456883374,-6.931141090329071,-2.17693882859804,0.7652052773098745,1.0657485089849166,5.5046517668707295,8.526344418535622,-2.634225478633944,-12.455848956570597,0.8536350831415912,0.3210689004695821,-2.972244952160902
-14.50647018802709,-7.316290036558939,2.094627403312204,-5.018423765458195,-1.9029188455351616,0.9926391627151574,-1.4567295091434858,4.968662595590715,13.60738156179859,-4.023089995411084,-12.066387174446213,-3.112614425139821,4.252940538995802,-0.4870000098783274
-17.02988525730143,-7.643086863976393,2.269868929350454,-4.535607277502535,-2.80389289887097,0.2439448783368192,-3.8451520969649695,1.902116497970056,15.462336599520498,-6.527428137105844,-12.679437146552544,-5.2821217501343085,4.536029556636648,-1.110382610876927
-16.387033302749884,-8.806168178965862,0.9302204934966374,-5.552608852916634,-4.150150482814908,-0.8883409485381151,-3.792219636008671,-2.2818943339947424,13.18448238154403,-9.657552949188512,-14.33948983614382,-5.2947006153642135,1.3129385928733943,-4.917645123424725
-17.41709035015588,-10.646672591312123,-2.447726967228509,-7.599256489561128,-5.132608760463995,-1.6926784560222643,-3.835071886868241,-5.143242773518807,9.519931992190209,-12.130463442183498,-15.783360051817354,-6.448667806377443,-4.372570461281942,-9.252476351960247
-15.087233707823998,-12.79093599547558,-6.4220137851645,-10.03933477210728,-5.369547084665001,-2.0277918528902745,-3.907604888153261,-5.270709969689364,9.163471782842066,-12.714419734892717,-17.496236946595847,-5.774812418170606,-8.98398814589053,-15.275227690031626
-13.838503949430145,-14.374345964989132,-6.874052827523662,-12.113722519804496,-4.946530459013872,-2.3116451925643418,-3.2374942250490624,-3.4649120575180348,14.954227902741708,-11.18019342982197,-16.3888634329672,-5.779863699977765,-8.512514002976502,-16.072925631772677
-13.809751168673833,-14.3265443454859,-2.961747400604222,-12.927261682999728,-4.189915677844908,-2.901257583817511,-4.001982197245463,-2.063220589909889,25.150040225173257,-8.507498373850808,-12.067402799205606,-6.619553974974207,-3.683346046444794,-10.853535127498215
-9.921766713439794,-12.22589001883894,1.7261356538438104,-11.792077717501328,-3.43903650935016,-3.5877098149298376,-4.776778659875377,-3.062106054677031,34.40902092223729,-6.142249700805792,-6.902958359362671,-5.085633404734388,2.3283707424902733,-6.417077582750535
-7.922212644325428,-8.89408832420662,6.745968194937623,-8.846015666060211,-2.888438165962583,-3.787032120741216,-4.45756626583361,-6.64027874849225,37.98619813634125,-4.956688848895624,-0.0700280339922162,-4.613790182871748,7.7868505449622,-1.1244252082864292
-5.221657309974208,-5.961821775563266,8.282603029271561,-5.316232420748207,-2.471115330050196,-3.2293205078860296,-5.110141389055496,-11.202498693424502,35.62394349814696,-4.800659983245367,1.8287608892514933,-4.10538487219525,8.239215116899983,0.6216333581011081
-1.1032370185249487,-4.628526575158247,3.8980988653429782,-2.908595228585483,-1.8591810436838612,-2.3654074312366618,-5.715362996929094,-14.719116677433192,31.575818798893565,-4.927343651211004,-2.062934976649345,-2.8913766245101966,3.67555774670895,-2.569812148816396
0.3423348444301727,-4.722352299892577,0.0821877598351248,-2.592676564435237,-0.7184588847613327,-1.973122899748887,-5.653396286611513,-16.150857490532786,30.485171424162587,-4.765178426115256,-5.503640465733881,-3.18465871469128,0.6569795022220626,-3.2320477947854203
4.02306632082858,-4.963550002438012,-3.8609341337995016,-3.759028272000023,0.8620719070629264,-2.3201178241000093,-6.73718392603682,-15.87351008762272,32.62799988030642,-4.296193414836182,-10.154930445531171,-2.5027506052593758,-1.117146993064451,-2.550414383732334
6.839160512922886,-4.194663044396748,-5.882594057583091,-4.574745277105592,2.1600301705125275,-2.7916202094486096,-7.040786789587608,-14.981718617998013,32.84668306452855,-3.8150195815445898,-10.847610295464651,-1.28264209073798,-0.9043435470320214,-1.64836741424927
6.268196018998531,-2.411200780360332,-3.3317067042354838,-3.3876810752296365,2.201237228808509,-2.469829989172297,-6.371589623674178,-14.232885235857424,24.446535907284694,-3.4756900484782136,-6.284446667375956,-0.6811294345948511,1.136958432935167,0.7146044436950464
6.890408613291992,-0.6450341126222838,-1.0400633746678414,-0.0853606527928718,0.5893663269752096,-1.1390985360530692,-6.40969781488858,-13.50490611104206,5.011127405054936,-3.1370010826043995,-3.4727227002932315,0.7123074952969698,-0.3419174212131632,2.062334371230032
5.287482027807224,0.1012757426449297,2.169621511939632,3.71637339530389,-1.925291765077333,0.3378474750513192,-5.450626243980823,-12.056883116023585,-20.69717298132423,-2.595316676170796,-1.0191099769978154,1.9204296319871208,-3.8486755703733886,2.477531790215052
2.3809573464646667,-0.2373827242625736,4.498929636865504,5.833004896341009,-3.79619573133516,0.7421504454636079,-5.136815178108085,-9.223556162588975,-43.278102633450914,-1.8814594900266288,-0.3034319592454985,1.8349970115216496,-5.658803116218471,1.7380511292541598
0.3924459263491026,-0.916156961668122,3.3387191639446194,5.087825280721546,-3.8300947625395736,-0.3511683188928032,-6.173058720573067,-4.97193518415645,-54.794303846587866,-1.3005520684480132,-2.580574645801404,0.5809482306865986,-4.368672288977155,-0.7698856169720679
-3.771549927009466,-1.3130455911887395,1.882319115519468,2.0558636801492014,-2.185742356411197,-2.157869030192728,-6.505473954857111,-0.006412212842406,-53.75877463403791,-1.2043563759684446,-4.180352514745395,-1.247243359840623,0.6296592034565837,-5.055595266089093
-8.829306919177972,-1.599463648434181,-0.8709409904731799,-1.5447052356789186,-0.2751811080173354,-3.440871235014612,-7.78114025855514,4.539427447185545,-45.3788116812253,-1.7176050522333526,-5.763962888857948,-3.98398200902665,7.199868905495513,-11.528654141893533
-11.860664739534714,-2.3938301974998524,-3.3004113199490366,-4.207270187566422,0.4220437054843842,-3.66771478726767,-7.822515585697127,7.617003479427581,-37.25427482693812,-2.6182671809044398,-6.056921762679679,-5.855158492919782,9.65939782048006,-14.602689441681996
-12.09619515280657,-3.7876843577521697,-1.9033103908501807,-5.568997573463719,-0.4160901472338594,-3.383418083208767,-5.479576757127949,8.763341911701787,-34.101922179072886,-3.42464787843619,-4.332520967368465,-4.892456741439275,6.394405324347302,-13.96713180488808
-11.28809508012334,-4.892796407945099,-0.4540953394857401,-6.211857188348063,-1.8105793937464512,-3.444379550377988,-3.60808268377201,8.36225738024595,-35.380402073052664,-3.636882084196571,-2.394239907716505,-3.8910251314515834,0.1657940347122235,-12.269067916139315
-9.36400364361866,-4.562080460429343,1.2334540892829522,-6.673493420966508,-2.513417459161275,-3.967609813211397,-0.221264980554587,7.455435900287426,-37.00814876377444,-3.0295753901396267,0.3141299224119713,-2.6295859195025377,-6.765252628994219,-8.054386111493205
-6.189593875106938,-2.6331377201856867,2.9051507609341662,-6.700532154980323,-2.1772380158461715,-4.14963549896251,2.278646352730706,7.087312649818102,-35.16881342254881,-1.8401392274586497,1.5964047966675794,-0.3583699671184846,-8.984898331369031,-5.414181721305924
-3.8103166470310663,-0.3205046833865594,0.9362788962089882,-5.48832299142012,-1.5210047156210749,-3.1767621578216847,2.081688475289049,7.537689185363533,-29.06432522742128,-0.6911676073357853,1.0708803737906276,0.2443488094374117,-5.589705081578376,-4.669074260928581
-0.4348169309782193,0.8664427012083848,-1.979991406839111,-2.6556759538417225,-1.3856821230684346,-1.270668719964192,2.833920403487981,8.040328993462737,-20.925653675668684,-0.2258467107810133,0.6723239540463662,0.8939612938519843,-1.6827833656403586,-3.672083592537296
5.4849099107531085,0.7239158649126125,-4.775555398948793,1.0612854674862433,-1.7011805713339785,0.2776613637949481,2.574917277867429,7.351985224483812,-13.96807394643875,-0.6687836374427292,-0.2087755242218917,3.2261085843465525,1.5176965480488724,-3.466703916955937
9.329026830501624,0.7733888674307821,-6.011127170277644,4.193224679028589,-1.4644233678341294,0.2197892388782776,1.8823142675411368,4.861877177873538,-10.216533252623748,-1.6349322190008024,-0.0018899871291283,4.1918578475705095,2.5679051419927026,-1.5715112586381996
11.359864055319662,2.8364821906036752,-3.695061373551692,5.757076737862519,0.2137979791331758,-1.4429873439317191,2.4320151547103017,1.3545415899038318,-9.602627114134748,-2.3475702857873983,1.6326124103483943,4.729876679127061,0.6030612010125116,2.261756773194361
14.519654845875396,7.014823025886827,0.4460689010433348,6.184708368580338,3.0380638552407437,-3.358239954724411,1.724807547041297,-1.344914152122513,-10.454833619026218,-2.1161702505444,2.556650976896284,6.510165797209007,0.3373293000789297,7.541549289089056
15.491506227736318,11.141777581618625,5.031478883701455,6.99007363634734,5.538446535240432,-3.989539984448641,0.6975269483497035,-1.740924247529506,-10.708564086601925,-0.7398895524065949,3.156718454498171,6.6446066168269695,1.9846649873053293,15.007485273376265
14.885456429632836,12.487180505856925,6.476789004967995,9.334913005998228,6.230295508024978,-2.9957430620097583,0.3598307639490327,0.0092567546140998,-9.129993482525688,1.410833369363715,2.561654679962101,5.941799233852282,2.068476578203624,16.36164270035423
13.547960491709498,10.247647615074644,4.274265156647524,12.736571020056743,4.878676335389805,-1.5346452753070938,-0.009710997404881,2.0275378022666177,-6.044313349599752,3.629199163630299,0.3176074710703772,5.770512525804582,1.45533913438058,11.045157561421789
9.220122912374954,6.403117882108091,2.340739560419208,15.156594193778584,2.703970649746818,-1.1800260550368655,-0.1216128913115526,2.1489962568978704,-3.167636332979786,5.21491663257714,-0.8829939345778054,3.748180154799919,0.8525139186666231,4.997181287492786
3.175689833150936,3.959624932315613,0.9179097722228324,14.542790839626017,1.336088699685391,-2.4160821372849317,0.0033046698841087,-0.2487288804141698,-2.4413869589701136,5.70374558756361,-1.2486474897785769,0.9718074280048838,-0.5031350512708641,-3.785197267684537
-0.5150831161365917,4.130918092180849,0.705548310294753,10.581803908259587,1.4644065063565392,-4.079089025702444,0.8808464733131458,-3.6319980393558495,-4.466345546494097,4.916356491864761,-0.7539371377177039,0.1867209583183094,0.1287798817991001,-6.878178859997408
-1.7653650751260972,5.159186976139907,1.6618041476827072,5.1543967436073785,2.385121113014222,-4.289342117940009,2.695637791716958,-5.563980343118487,-7.710022639678954,2.944349554074435,1.2198230411763775,-0.8961581404515053,2.505430134444349,-2.9153930940620243
-3.144384940981578,4.019374980624491,0.2449614321282125,1.0505053017216426,2.809502294270658,-2.0874337943726573,5.072638846796434,-4.775268185031223,-9.31884638481216,0.2291120997030589,1.1665630291883455,-2.388034353533832,1.2764533457984553,-2.0261821946130985
-3.243891039391547,-0.4982274084573248,-3.004558570736802,-0.030562454514694,2.145666015047766,1.6608117020488464,8.565343494355448,-2.1613815125640485,-7.10500438589284,-2.30417658939254,-0.924200926451662,-2.1769561853755293,-1.4839589422550945,-2.201163424688854
-4.670822646572826,-6.2575599739384415,-5.019806139341242,1.4097006353387656,1.0472620859748645,4.908714520496716,9.471939206283016,0.2313902386347024,-1.1919863369155337,-3.366047102830521,-3.1340380543895088,-3.56309785828685,-4.007204889929151,-3.1624294794283405
-8.414569509820515,-9.399984969035415,-5.181886074564239,3.2529493226624027,0.7139883360442241,6.073885730807319,7.0066170846993385,1.2067516061975994,5.998932323413328,-1.9684062877266515,-6.227279155095664,-5.140317713267191,-6.096888684430342,-6.516169896559011
-11.23214120051546,-7.798390442059656,-3.6673452815766394,3.432466666608605,1.6023432237041106,5.234912821465684,4.310353309769283,1.3454003417496665,11.358160759022326,1.5766006519083362,-7.099072248441273,-4.839024770503018,-3.126285200049063,-7.315577491256851
-14.698854304370366,-3.201198636460731,-1.0260941665077408,1.3048824561366814,2.790764279140774,3.839331704591245,-0.91694548194352,1.873084846526808,12.963098013102185,5.171187747371846,-5.327664111901166,-6.255458106056859,1.518765067229185,-5.797082678156749
-15.221567042578007,0.0352109738532817,1.118065512005632,-2.193613606356621,2.6743110876690253,3.259914246786707,-3.8299862077089,2.709255636521561,10.882388162407096,5.814394355612308,-4.393970317085069,-6.540855625931695,4.518728155958256,-5.076725819017175
-11.74852494768654,-1.3209743558904847,2.102996621509579,-5.408230927196996,0.4197526777379607,3.602079164332906,-2.686959882230376,1.995421498349458,6.670625429978884,1.7170140216039729,-3.5792642063599875,-5.125724023857408,5.466670389742169,-4.29523041819552
-7.743239681462464,-6.437065790709823,1.669996238592077,-6.96362846053654,-3.160786897602065,3.876679072160925,-3.0115288776371285,-2.006555938906331,2.3433107734753094,-5.810343602439275,-4.653097251606922,-5.0523173425501815,0.8358982791926568,-3.580667532549572
-0.3017187100009505,-10.941625071784756,1.384930347424413,-6.260564814041572,-6.192994219148886,3.2644348691246705,-1.2378386106801862,-8.374131070699946,-0.3374907776180293,-12.485178949710756,-8.345514180459789,-3.127198046806899,-3.93889204076613,-3.3418047725117987
3.566799481231431,-10.552431745607578,0.9984475528547094,-3.51195934837142,-7.315977352261484,2.0932943109434063,0.2878363590483199,-13.160815989437085,-0.1595996764616529,-13.645866837240078,-6.9633122710553454,-1.0187420633265398,-5.414320458195611,-1.8444545961538588
2.828955130062264,-4.681657472036704,0.0830073696131494,0.3416372711114945,-6.81214361103298,1.4830945986193456,-0.2939821783289073,-12.192649345420593,3.2445225036764214,-7.647975055583174,-0.5947016354129916,-0.4193074852207564,-4.2219864260012585,0.8603245667785641
4.215923317139017,3.0791684214699444,1.2754661651798271,3.785543516564985,-6.209105518416209,2.057488422656661,1.6257160309359813,-4.832021557447661,8.956603909490468,2.59528439918563,7.813516553284288,1.6248834304201956,2.2353945942282034,4.091203630097968
1.859346373239324,7.914203293366654,1.6088349569763625,5.221845939589571,-6.685755928131584,3.158858749581441,3.080878445322148,4.819961904810043,14.683615829878022,11.361443352928973,20.033887066793625,3.3690059930764678,7.03237039035628,8.21697662706523
1.6604514447622594,7.538940656767522,0.689651690989124,3.854598889718204,-7.77641882142052,3.486186499122141,3.889384231482732,10.75848565390288,17.641126611973164,14.006118727908984,23.80955750166636,4.164629072651771,6.360966995447601,10.054721840811586
5.390533842479486,3.63237660703544,-0.0921135307250409,0.4331350507472962,-7.637324994414483,2.5257784877026097,5.411432185884065,9.74713203040028,16.251737881694226,10.075574020421527,18.05852336254185,4.871105490880034,2.4690431602622285,9.29352989404742
5.235218625721471,0.0658159029459284,-2.3376343483876614,-2.9117137354066926,-4.694095895707847,1.2334775488806144,5.622058690144751,3.81564587976402,11.49158161938476,3.3306361268950013,13.218515782388153,4.779890613652402,-3.979948828062344,8.587565345296573
7.734233113912144,-0.2170491739676663,-3.3023805796540446,-3.913137526748983,0.812185456648308,1.1716027744080293,6.078972756098191,-1.5802539038950272,6.588621256520469,-1.1797557146096551,6.387407458058568,4.218730358531622,-7.318955540745937,7.1561090551868425
9.493372350496072,2.965322311409864,-2.127179587574894,-1.6981817635557943,6.781076775519182,2.9339024082069045,6.834977028434835,-2.076252127229281,4.939807678879902,-0.626791005117866,5.366330077794711,4.02837512246072,-5.037068790770148,7.621629974962422
7.536205940382683,7.578133615672641,-0.1585977991567247,2.5944284097604395,10.732163531122067,5.458936674258439,6.70821538153321,2.3320860262479077,7.688833550145546,4.0971389116423325,12.183555556876904,4.8215111714354055,-0.0397785811750277,10.53960905646417
8.334842813427802,11.281094794155024,2.6443507187780946,6.636731358139059,11.487199731896226,6.926351624680024,6.8483385428683246,7.897883802512638,12.9162212422558,9.677556297728074,15.847154969233111,5.672359691780369,5.0363313943664565,12.41278865649397
6.987976402652914,12.919789235994756,5.036725903732053,8.518170967143305,9.677219309893871,6.332333411027548,6.551922319385345,10.714404840436998,17.18312543040787,13.085954443471168,18.43905910322556,6.217331785300889,7.78065432202566,13.898306775274037
5.219576980854477,12.686094897172438,5.025175239001439,7.856628696213022,6.887789361174157,4.236292858339311,5.7481697820078566,9.936816154434894,18.19232437554126,13.489863491935694,19.004067148079702,6.808312135740882,6.255276024305833,13.559257769527678
6.270351798986335,11.35515190992544,2.7757945752516107,5.639713761562007,4.447637023971311,2.1026912009833723,5.504530393994214,7.96484148647346,16.364142136901023,12.155110498872205,15.63872933776773,6.339528831263372,2.210419011260798,10.666274288604429
5.256527829687193,9.545316433696144,-0.3210932037368688,3.158277590396665,2.9280782483483563,1.0477530455655142,4.958757548990891,7.8401930631875985,14.0933725990742,10.881914886430875,13.392416639654169,5.319261851477157,-0.9669133517105796,8.478036643821332
4.939274290601958,7.529955454956621,-4.508979835210499,1.091269176796004,2.447242423974785,1.1973325368618362,4.015417450137917,10.465232365295035,13.4945523873713,10.50620397896364,11.526878437704829,4.706230583923035,-4.014571837674962,6.540821462101442
4.934604594765614,5.45487094597604,-6.610386648739467,-0.543131519402209,3.0179126602107544,2.021413608744183,3.704890285000536,14.04294416681546,14.684228370858818,10.578437102276894,9.386419607528811,3.969756656118285,-5.24758071867126,4.728601368033211
2.943322201107263,3.5264643658384784,-4.82518939115599,-1.8091905894910951,4.367278659304247,2.9976825914671963,3.782910039318065,15.890658510223034,16.00817734334555,10.122059023847214,7.812478316166022,3.6830339737404647,-4.036500564994579,3.650906860351179
1.842484842588804,1.938923166276254,-2.2507774849984745,-2.457441009251852,5.573076785530475,3.84364610702562,3.740741051964007,14.73129299254947,15.779488561536256,8.545038906270747,6.215868067698033,3.841003695337652,-4.143842866369376,0.9109088868337336
0.2304140188322015,0.6723668269805785,1.6751519260790415,-2.1727955727785684,5.335523282081567,4.28550837702096,4.245309324678147,11.465397009479377,13.800011251819797,5.946909557639742,4.797806494664063,3.5898994690688086,-3.821313941933248,-3.446718054863856
-0.9787917148805874,-0.5362562656977161,4.53754730593679,-1.1172195042737485,3.055244303527843,3.924943747536759,3.9891299127631785,8.054310631691465,11.320157116155542,2.8303099603905366,2.7080021769621663,2.7517749803538405,-2.0042615086746567,-5.378744017913541
-0.4742461119849737,-1.914673399742128,3.501550122598615,-0.0534801017656718,-0.229222495902718,2.54530878370565,1.978145191694554,5.795661376392104,9.660187562906913,-0.2719136614610988,-0.1530048868516246,1.1054838078849991,-0.2268095254621294,-5.088350396040303
-0.4660631314220315,-3.298900989936556,1.2874204434947123,0.1912545400879253,-2.2332002643756823,0.519617022323132,-0.1264321775985378,4.520140718717471,8.932479486182956,-2.908404815522317,-4.239650930222712,-1.0837438686684226,2.147926910415172,-4.531500593810107
0.5641463002598143,-4.11322047438523,-1.3873128377038482,-0.5882756017207385,-1.1936674520163706,-1.2778385881867962,-2.813510152290017,3.14813942984722,8.072328557689957,-4.68640654853516,-9.884887974680073,-3.5987225385262134,5.175138172331059,-2.888272906114845
0.9519252470357602,-3.8438444690131055,-2.995841242693172,-1.83924943580098,2.433995345685389,-2.133447679484106,-4.7442774950538364,0.8418273029709553,6.028796703212265,-5.397445120259761,-12.772707259054233,-5.093662905057154,5.656594014870153,-2.95512174934751
-0.5454813585367346,-2.638574897957824,-1.617036753738807,-2.7896932092046427,6.027994799828832,-2.1074396842412284,-4.427216803126651,-2.2809543483055563,2.856192011351652,-5.274676626526798,-12.780900632155063,-5.022081082686645,3.2768631993175443,-5.110716558315578
-1.2386505120681977,-1.4230639210998106,0.9667542651499512,-3.1034049326062814,6.790572741480048,-1.9272938179064452,-3.961792217485192,-5.2732019692963945,-0.3674394187669918,-5.040293629471535,-12.353152727381,-4.728918857449636,1.5833039516581864,-5.651082105685419
-2.7905687261164576,-1.3155912556453586,2.873565719307584,-3.039880973066716,4.001263803230927,-2.2183111105262583,-2.913475937566981,-7.00701120990982,-2.627111934872289,-5.507821068877945,-10.474955498666777,-3.6376401741020095,-1.5767528619531097,-5.1582777693509385
-4.585002937777524,-2.804174258821888,2.985867972506798,-3.077863738459996,-0.4974123846563429,-2.8563791127816103,-2.535068365338358,-6.837024362332556,-3.891697553419817,-6.969650329058879,-10.465317455799832,-3.0245551257629395,-3.874287829033507,-5.460565046699023
-5.344018487026186,-5.392797878478518,1.0134722269412908,-3.4771113224811643,-3.992155885549096,-3.139654517462759,-3.836813444892865,-4.996314667493266,-4.942104924819319,-8.90940036733167,-12.76766897952335,-3.744963250551436,-2.5342569354262885,-6.055678979138727
-6.855468015872337,-7.960903530831615,-1.3125373500834911,-4.181361133841477,-5.13872012133794,-2.621555070661856,-4.746494472862774,-2.626868757793176,-6.38630368268872,-10.358281552902554,-13.621867542640064,-3.8356235572645647,-2.278544990020285,-6.902961436109896
-8.438373911078969,-9.445840879261452,-2.6650847628767536,-5.011206008077892,-4.6845979188341005,-1.7268270882513548,-6.171055892229173,-1.352618442107854,-7.99929665218005,-10.643748188067008,-13.778874905728268,-4.13978209174848,-1.0149224028530748,-8.251801732925216
-9.113938277648725,-9.338994985932883,-2.54261684033984,-5.839473281681251,-4.217515292334497,-1.474819450325441,-7.595928683812549,-2.4144392668601995,-9.11669370192817,-9.906244634653577,-14.00284588434989,-4.534954641657428,1.2282979780811845,-7.653931193703661
-8.658529433419496,-7.869884903386435,-1.1892808126598713,-6.611336830464637,-4.4518564863809615,-2.5556809432139573,-8.553406365611094,-5.778309659002673,-9.59125373894014,-8.947073503235089,-13.76552689475025,-4.050391950794996,1.1989521968503194,-4.965062421230896
-7.743038626160882,-5.999061651075166,0.0591811071297658,-7.322680713092396,-4.859755099964872,-4.66496283963113,-10.45600650141075,-9.933642966561637,-10.161182898113196,-8.557672568131068,-14.05818092586764,-4.084859037402552,1.655375896244783,-3.402616503422329
-6.291869250929559,-5.141467813924464,1.3329204865890447,-8.040770753283951,-4.828690839060798,-6.714525774849975,-12.25701496094863,-12.787884136678954,-11.722190275617535,-8.933071169361185,-14.930629364556282,-4.170785058239287,2.3067733201134115,-2.539631658989845
-4.130855686738402,-6.383487627038335,2.2346416992480065,-8.856285363036093,-4.794516756963581,-7.656205987872909,-12.535914877789503,-13.160407984519344,-14.244966929638757,-9.677284136251671,-14.60437401389002,-3.7456474876259382,1.5521511052164003,-2.0540424072871657
-3.314169865755893,-9.420823818420695,1.9006305543902224,-9.67450842485884,-5.87748671968814,-7.138469876314474,-11.407562695251997,-11.680013530921276,-16.533548733172385,-10.337364909978076,-13.178749127966988,-4.061694693813772,0.6859012353748749,-2.565794580285149
-2.4350904932354744,-12.180057289664774,0.607020937209067,-10.039335424685811,-8.351063369111001,-5.537664795617152,-9.171139826898232,-10.210679198978632,-17.1624145820297,-10.876692524545073,-11.725931424755084,-4.23078732004406,-0.4500727922870198,-1.4516446543639858
-0.1333749747037226,-11.999191623049558,-2.0379905561386007,-9.320098649146804,-10.767186998317792,-3.579978384173348,-5.685000759616774,-10.168944790466544,-15.68549099183273,-11.543644809788248,-9.9159395606228,-3.970614581778544,-3.0156728022132806,1.3149016508845053
0.396831333957758,-7.8993903924784945,-4.16425940776177,-7.266409967499051,-10.995487611708558,-2.0059987545316886,-3.240180063618312,-11.161025577000132,-12.921608671196177,-12.226377282696962,-7.355810527686602,-3.89762035418106,-4.216520754601093,2.522593529712203
0.8047651868954429,-2.02727886944637,-3.3972730800034903,-4.44639997856806,-8.321246567093162,-1.399292562203435,-1.8480591676809244,-11.202368080520015,-10.085396428648837,-12.027041205847476,-4.122464207034051,-2.2382455988767544,-2.493759178121348,2.5639225861510653
2.466506457268409,1.4649240522345792,-0.2848550441824148,-2.03215243176993,-4.401393448098162,-1.985612759323132,0.339937716666175,-8.43259503154161,-7.701090094579271,-9.728745021730347,0.1437164136381941,0.1865879167684167,-0.0292026405939046,2.4281870227681424
1.8142943992223752,-0.3091171297056263,4.265811476449684,-0.9678584416571,-1.8836075378085584,-3.3903685375956485,1.9029927090955097,-2.905329384171111,-5.405947790458214,-4.993529771818629,5.561375120218153,2.236366479384819,4.435977941269297,1.5407745063488218
2.0851288235997747,-6.195156580353569,6.505557566203684,-1.2007848380843311,-1.921731812002505,-4.668759380157368,2.592173055869796,3.1011045116327693,-2.763443038461375,0.7831194893628037,6.868807680374582,3.617574712589368,7.049556465282389,1.5289222854322064
4.174324379769305,-11.381564665727922,3.618138106071438,-1.6758503313301247,-3.100955639248013,-4.8649782024594685,2.080947043147554,6.574862602154994,-0.1577826022478632,4.985065820242966,3.68950444151653,2.3252758946421133,4.041506683576905,2.5281896648502573
4.214297204390163,-11.00968529356605,-0.829794786950591,-1.1357870950945426,-2.94742666310205,-3.782986127696319,-0.1048058562869666,5.893002457312122,1.2294620995670016,5.547700429337013,-0.0533404993324108,-0.3268034762293723,0.7705238173520907,1.9722093331755328
5.4743342665953,-4.128738227586894,-5.135562442162335,0.9207936152982654,-0.555146062970266,-2.248918859867672,-3.134754043527102,1.9125003385764217,0.4125483205801572,2.6206076840061883,-5.642332047774638,-3.1627454316406154,-3.6928192139025575,0.1045261751030793
6.92732547762567,5.398475324920099,-6.130008275862142,3.858488001512569,2.3381430003504704,-1.5062510908345814,-4.73911252450285,-2.76055338884791,-2.382170490115556,-1.377374299926771,-6.932741783288862,-4.788546533543786,-6.811539083254607,-1.1258426774338195
5.338434968939656,11.87919266860331,-1.8341371468722645,6.323843039550013,2.965828664010502,-2.2178365984971435,-4.203731210968186,-5.661480091399795,-5.6865954460666615,-3.520876549092094,-2.939535407929854,-3.752348327677014,-4.209425407056723,-2.093614834075481
4.401518986397227,12.143945024822898,2.2957347643633463,7.104409476861832,0.267144578581707,-3.960204901810897,-3.48781220268172,-6.026827967312499,-7.8344089309424305,-2.558776912557676,0.0948860433088706,-2.135782834677675,-1.7691593305155655,-2.3452760553219147
3.272556450202509,7.64150910726616,5.334564125892065,5.877119826008112,-3.9474137115839767,-5.611864997560076,-2.0832630882069094,-4.933189605299788,-8.144155008093463,0.3265384528956474,3.755823592293802,-0.006570487381791,0.9082939229114442,-1.489497983682935
1.2705302330412729,2.7219631379950044,5.571870560392115,3.4378188674367607,-6.519803313203568,-6.194650362716232,-1.2955263040484537,-4.116895292414739,-7.183148982427213,2.7830443995652843,6.516648101524774,1.237068637130409,3.451282742420412,-1.242699389174087
1.6461527922034624,0.9001157034516609,2.1741233075194706,1.313689290045204,-5.659178561129437,-5.390393711084727,-1.8389581257344467,-4.5500287846730885,-5.938664583750381,3.427715702556497,7.417219281009931,0.8896566487274,2.743378271921179,-1.448285865763902
2.221535199711823,2.410382533200675,-0.1873313036060964,0.9177845052864484,-2.3179934000689286,-3.442781877976984,-1.7697699378850669,-5.863752161408371,-4.775021310582986,2.978911578314211,8.945528961277228,1.1373102547803136,1.616749388586532,-1.2118685591834948
1.953815812791631,4.842146810742861,-2.0564627979551213,2.6374385511081755,0.8724734103421383,-0.824601891034888,-1.8807357420500352,-6.893774090654716,-3.2387486097348983,3.4336268813569006,10.454415265940016,0.928502568931346,0.6919313994782326,-0.815934180070758
1.8289145759737493,5.73345203870548,-2.670945844845452,5.4058822985603285,1.916078562232656,1.8559930930247504,-1.7899639130424476,-6.741808227253898,-0.8876019379371769,6.07056096528413,10.547352975927929,0.8313362992088924,-0.4721171026010617,-0.549225014908417
0.1096525446910174,4.516676275451374,-1.6490732343866676,7.180150010995391,0.8980319269424513,3.757370290071521,-1.377723558816088,-5.479120002989191,1.7713523296560254,10.06785670220637,9.365798853742625,1.4196421218041917,-0.8879210665318341,-0.3442832152952607
-2.239285916583712,2.343003981056853,-2.8880964180668145,6.23422524466082,-0.4724491730333398,3.987251050159074,-1.2376769548518678,-4.036155283476745,3.3221598693673684,12.970646902320112,8.317431452753311,1.1631398487212798,-0.7879911640410069,-0.905420932513671
-4.241701655610318,0.5947028932438627,-4.863428322509112,2.5187412551183286,-0.4866844136292343,2.263573327834507,-0.6795595151355902,-3.4576089328683395,2.5877882965002925,12.64446906481578,7.205999041923682,1.0755615760711192,-1.7879329291386403,-2.3607152366098703
-5.227662492301752,-0.106115545305812,-5.047373531320655,-1.930417353688085,1.2923053210576256,-0.4697273892033706,-0.0503536487949541,-4.082241894884191,-0.1493462272860597,9.07325259066684,6.532611530078301,1.6823272286699162,-2.439148623892017,-2.366904517549856
-3.6440337260625353,0.3402694985298637,-3.411214863313039,-4.064445473647368,4.00226136766446,-2.2810602497949617,1.7866773234969238,-5.195418616558072,-3.068604445334671,4.473539822531109,6.638612355200739,2.4086021840965364,-1.6212899703556842,-0.9504622674775416
-1.3880313708559746,2.085219472798656,1.2075187396405298,-1.8527905564685625,6.4219712570208,-1.4920638283433902,4.583949531826498,-5.415163312302241,-4.070791911843116,1.6113819132226297,6.5246970876573975,3.5773951804866693,-0.5331773329426859,1.849891754654792
1.5601432645678934,5.132096484672246,7.644864011804253,4.109421293434224,7.945522521535736,1.9880656291836944,7.018760064619712,-3.653604379506561,-2.337288354662149,1.7331534508253412,6.414336969112802,5.180784423562407,2.653226844414312,6.667018384841066
3.192907388871175,8.55838482866973,9.857123846012266,10.700991866789424,8.832732914626902,6.458611041363753,8.795184375795916,-0.0689879724343569,1.1136329848903586,3.827231176998652,6.017569727649566,5.521343802279659,4.804426663997848,8.018960399654887
0.5752907093945798,10.428555266992106,6.367060534959522,14.201768293643925,9.650323988310888,9.653188043685589,8.210130322521206,3.748276684758906,4.262311773558054,5.72850897616766,5.167163795622965,4.358927757200609,3.0931048587512637,5.690305409019799
-2.550334705142678,9.060343240254966,1.2755904391088737,12.750452593692586,10.479657359881642,10.36298530034773,5.929716452109768,5.721001088272715,5.530935346980058,5.953613756665192,3.866022919293685,3.112233079287278,0.958109728238172,1.7571174832471217
-6.301085250221622,4.655348713265255,-5.413448259300545,7.533543132938277,10.682490962353596,9.057728276125689,3.606365942126813,4.855989578356258,4.692352589105809,4.627322937869494,1.9479453204488169,0.8299188918394793,-2.88197117454375,-5.199635826627001
-8.56403467542811,-0.4113185222369964,-8.490020658684033,1.8340264649378923,9.557627939370631,7.125523281109949,2.914489151260844,2.242822164117314,2.735349325262831,2.89462744568074,1.5205172260850723,-0.4752264770019812,-5.189564169565966,-7.485296898350132
-5.869345020408597,-3.1763853504432973,-4.875106782618186,-1.2797221396190253,7.336581920596203,5.67827081363491,4.092077471574828,0.5231212686948368,1.0564558231466776,1.6989168253513895,2.699007779408255,0.6645174128108177,-2.4909699318625984,-4.5442484180914375
-2.652965461878821,-2.241718394663792,-0.938436061192054,-0.8563118309110251,5.430092155386674,5.076241369463531,5.967847643115695,2.044829994965781,0.6688237119439435,1.2167246883238931,3.742384415214629,1.4122219872079391,-0.4372316628727663,-0.5755894224736843
1.349743767343512,1.3557518710411074,3.709122966253124,1.728804995822415,5.377986296650093,5.293530033254967,8.834333736667668,7.072063390720345,1.8125167062384264,1.2577190220796837,5.121210709177588,2.876666184158482,1.999642129887654,6.400234932319525
3.490492327271075,5.146513189493035,6.306803872668816,4.109226702071808,7.276294264811021,6.278632341296444,9.156799471002335,13.47257807914788,3.9430019780600105,1.8120961319459,4.676186967706565,3.861325489199888,3.711420165244911,8.217634478258624
0.7378929623728452,7.03556664992967,3.195583846102831,4.58459911689323,9.24779178117329,7.716446719602693,7.783917298089427,18.132457419725128,5.978776078970043,2.953127676266554,1.9699640362589288,2.2318986083582084,1.5662152081373593,4.011840822385472
-1.9153660303495952,6.424230495723641,-0.3436788151395177,2.948144365089526,8.743920924311468,8.6520304507588,7.493960614362638,18.98158452599039,6.781323461074443,4.322236669227941,-0.5466049377610417,0.899628194119416,0.4579615003277446,-0.8424266483814569
-5.908108337562689,4.085853601210395,-4.145707696434908,0.2123396556027685,4.688133603963898,7.836799313889934,4.784851419759812,16.13321195545209,5.771506388957054,5.06433891324815,-3.4552306248234177,-0.7161791047815593,-0.7700701469166178,-8.486456854766514
-8.817508269982566,1.3156224643384995,-6.147066747857464,-2.2711362653095044,-1.499831432906845,4.788330443820144,3.10138637366916,11.47416617341768,3.3402246249835734,4.509495669394152,-5.473610168183718,-2.2822256805349985,-2.2290144992418672,-11.362727254226716
-7.570903137916838,-0.8682726238474601,-2.890260789072685,-3.641434517696688,-6.991395150301349,0.4870529131854937,3.1162236714631213,7.249649084917291,0.6639920544631952,2.868855941143101,-6.133599771742581,-1.9089853231669756,-1.1812851809725258,-8.445483717530973
-7.267033700045167,-2.0995200731155474,0.3235986562748374,-3.894732066196383,-9.738403366119297,-3.202031737355144,0.6086634360989152,4.763927304779956,-1.0581769556425789,1.093897086062709,-6.507378702895516,-1.5910072027990698,-0.6616579885489332,-6.113646755877184
-6.2731393039312655,-2.617683071975009,2.9333851998192264,-3.67029895743356,-9.7693420057661,-4.955720951389841,-0.6014970801690519,3.980555751579309,-1.38447467161168,0.0218318156829925,-6.105081011588659,-1.3180859178116855,0.0591474110493407,-2.415621804528348
-4.6679346229284535,-2.910369718252748,4.257172495130644,-3.6248552851598985,-8.608479335828429,-4.886957821453921,-0.7690598027165035,4.032630686822593,-0.7759385934315288,-0.2374686497338078,-5.268475005035859,-0.9483369060576654,1.0805965052247912,-0.8106783740828474
-4.920421450285706,-3.255109890393257,2.006605727922917,-3.8632304110990088,-7.679976153827226,-4.105287047080914,-2.01793044233783,4.07723811530027,-0.0167402340408937,-0.0783636714697166,-4.032816757167296,-1.2881001061794708,0.4863290522891775,-2.285429752473076
-4.185803983368392,-3.524837466143925,0.8261810607880362,-3.9450522766672655,-7.316091748714498,-3.5660076568936674,-1.7417819134117696,3.847544294119509,0.4964263314094417,0.1989274576660449,-2.4963681015359644,-1.5336679538746316,0.4315373289056289,-1.3290476798837572
-2.7878390811167075,-3.4903356303554567,1.1590240775251686,-3.518791518673829,-7.054778665021082,-3.440994350506628,-1.008336082449491,3.5935084322170177,0.9156332502826316,0.5357644970562596,-0.7627635714170757,-1.6458774713257152,0.961595366513551,1.181641479743221
-2.043602127277003,-3.3240256817203147,1.3129870002149482,-2.9339178139941358,-6.506148812544456,-3.433872441206681,-1.1923631051948185,3.5919231491347645,1.4924859371375945,0.7497374994190551,0.4429496126306034,-1.2778051546468754,1.292595291935564,2.937660336748521
-1.346657541912592,-3.642245354688022,1.3685101106094208,-3.0457401932673847,-5.713456281120351,-3.358347199980173,-0.8771144602880558,3.735548282513321,2.119889199682269,0.3905616952495165,0.9578277091123324,-0.6016344980800273,1.485518819470105,4.702959922942507
-0.7964605482446753,-4.831896847576317,0.2176189268695796,-4.232904669873122,-4.778546659149654,-3.2211550165858043,-0.4189756613324718,3.614150422012784,2.438555483742704,-0.7502629716195912,1.149879755505362,-0.0413695904581965,0.5355555033319754,4.351711098854749
-0.4692703221523117,-6.310977394800361,-2.1103579835074298,-5.648640787627784,-3.442968379419554,-2.916926359206421,-0.1634813116565499,3.011483943221535,2.3891712336272874,-2.0689356106754104,0.755739630000309,1.1562525164024162,-1.4302435585401043,1.412259694350496
0.5415988473983713,-6.697748987875201,-3.5154743699773414,-5.714608424852926,-1.2913487164342428,-2.190238994701133,0.5339439397183456,2.2803260936566403,2.5146497254628883,-2.426869570708419,0.7619534278554186,1.828716878769557,-2.839335726177157,0.8145008651327
2.717777850684808,-5.0189518529591055,-2.7973356299798637,-3.620009497528464,1.5548241548373554,-1.053394355471248,0.9439025676077092,2.1181262762930477,3.53708168658094,-1.22573671361571,1.2156791719642062,1.9374277183678548,-2.4970885959568165,2.235222358692486
5.4238526321931255,-1.8541306860195377,-1.6299642405239252,-0.3565600588681548,4.022404495201492,-0.0764141820776487,1.3392818288679538,2.871600120036604,5.550136703563375,0.855076102114424,2.260019344100898,2.6931449193230987,-0.7627202260497634,4.689371910658783
8.485903326858187,0.876421126758089,-0.6065718226842225,1.9393731809295789,4.538866122751244,0.0064418824370733,2.060888535009928,4.059913917204838,7.685908059923392,2.3761091961662686,4.20144305684703,2.7907643591272238,1.2804144354883704,9.2535181750994
10.853504760457971,1.5085343396937674,0.0952310124115979,1.9107314156006368,2.160439063311344,-0.9192045699334984,1.9358807284971904,4.683543376090654,8.719322047360045,2.4542879671365085,5.043260301183398,2.84537158812831,2.318712702093084,10.966780783584609
12.531921918102372,0.1666278572858885,0.0700211083372056,0.3479759213993674,-2.472607682885723,-2.051420232479714,2.0053535267971374,4.118205079488703,8.123421968565417,1.5095575050054464,4.797081460744406,3.753590699401186,1.507052280756915,9.641124676262878
14.255676996675916,-1.2968434269123748,0.5578737045131349,-0.4177764748216219,-7.188187799558634,-2.2963804873562594,2.350414748612589,2.7436417331160072,6.569235357975359,0.7094736841085023,4.51681952400083,4.144812744245101,0.1662859200339199,8.182498891778852
15.37636496556992,-0.9810339519330428,2.2115840595053866,1.3713016598311327,-9.47320394860995,-1.2558209859580387,1.5701961381458271,1.637731443885727,5.34331195085322,0.792503978543877,3.771133064107952,4.541908629229578,-0.3647506106219778,5.439601811668344
15.723680268475771,1.327273376663456,2.8138526028715622,5.227367116811294,-8.046747555050146,0.3908543732278531,1.1479069533155897,1.5504652317533498,5.179577602030633,1.4838318393963874,2.4728412340276837,4.237177010963412,-0.5804223932215954,3.317597636588482
14.371111717850408,3.984558057869677,1.4783233678494785,8.724332285289876,-3.67259093675365,1.471778365734309,0.3798885649726218,2.09825399075865,5.562679900023852,1.8807507800389944,0.6633669463785788,2.0768270412334227,-0.5649640359993664,2.1631157240497227
11.44154102573397,4.99342024088719,0.0218863883568208,9.469567264323205,1.4195349701098363,1.3030513280436369,-1.724087941885939,1.957466909018251,5.1277280466622415,1.1388039926428064,-3.503460554879561,-0.7292029276833336,-0.3504111912968741,0.0348627771441156
7.73578522516547,3.725815218862735,-2.09998651696912,6.963876310603112,5.050727372844449,0.174896104541105,-3.2552103300901964,-0.0595099416389786,2.801204401572221,-1.2287025412800006,-10.238362016799313,-4.3897776970875295,-1.2156420670494257,-2.587400128719988
5.175614421062126,1.3117184896582188,-2.623788909866502,2.8254312932245824,6.3504685995043815,-1.0170183376790334,-4.206479199380903,-3.9465374091111016,-1.2742590581831903,-5.32537906043062,-13.011348189254328,-6.415191491915759,-1.5723012049136715,-3.8020949177889305
4.981933172807119,-0.5103141285573543,-0.4189550917564683,-0.5944548438451704,5.849999930476727,-1.5732851700690276,-4.661519728964917,-8.340198015390634,-5.731187828991892,-10.637943517244992,-11.786838670455356,-6.02059628194495,-0.1896433868866077,-3.6689106171446175
5.084062208761168,-0.8713313549892661,0.1904333465528689,-1.8732571718158368,4.589175880796574,-1.480670205585653,-4.181603982892344,-11.375558659470691,-8.819512150936092,-15.693226999779933,-8.30343993834925,-5.674382887346169,-0.0910198140802435,-3.385599480977852
5.700771895151748,-0.2229114527016662,0.3058219924869835,-1.162568798033348,3.229507285317588,-1.200778228378681,-3.5457776917010526,-11.898791351133111,-9.45705062707534,-18.3427604236976,-0.8963104273375362,-3.7502981348586406,0.5401326022723735,-2.553581133116971
5.221130489068006,0.4588963177006562,0.1098981907056827,0.3887597904550617,1.9372475113354424,-1.0437991187187663,-3.348635445382856,-10.17263712458977,-7.830769948567955,-17.01117502149166,1.9946593169049984,-2.816945249251868,1.5427371809851966,-1.4258040672049728
2.52783245134264,0.7266112551958273,-1.079811502576218,1.6403475531185734,0.8437868654558827,-0.810652086459136,-3.267126830250384,-7.638951827005684,-5.263680599735316,-12.067354428001892,-0.0361988894298004,-3.574943182634765,0.6466463741990921,-0.1399783237659966
0.169227151847329,0.8723774932577228,0.3705668367020336,2.0137989685923543,0.2935661751746252,-0.1284354277604791,-3.1986407073900094,-5.961635032179295,-3.4692032795903955,-5.942527620272259,-2.1630611608210253,-2.636004206227164,1.0553857598509648,1.4168806470574913
-2.794208341101144,1.205418894363646,2.28463919237127,1.37822465014996,0.4861210854589117,0.8346238517258797,-3.083697922678336,-6.000563668439732,-3.5825425229897263,-1.5834317576451582,-6.4133577377905295,-2.591854412068514,0.8787130839944959,3.1251850647085737
-5.562970718598922,1.3383088785786086,2.4193346408132204,-0.2958031386964208,0.981951945875835,1.1089721546492726,-3.366139949853112,-7.360511180779859,-5.486594415496185,-0.427716304738162,-8.18607018528765,-2.746855648543989,-0.6037541293970199,2.161711954116993
-7.08383742815784,0.4055747908882736,1.678694853139035,-3.013310867563604,0.8288230355685684,-0.3656829836170843,-5.017661194605425,-8.785934179130642,-7.87486680979957,-1.6327211420066376,-6.827800141259001,-1.7766901123608037,-1.1538635194906397,-1.8069579829574425
-9.379084175227772,-1.9109823372507504,-1.178186854460853,-6.505114789672049,-0.6054714435796598,-3.5482760401380844,-7.040296796948317,-9.135616490777082,-9.119548716160914,-3.155448036007499,-5.687798726995364,-2.245102587833775,-1.616207446789805,-4.482648376271346
-11.445523883704212,-4.656018534743716,-3.490005263344206,-10.011657492300934,-2.885998495853869,-6.816222925707727,-9.483635559492296,-8.263228742354585,-8.436530467363099,-3.5974613263314126,-3.53974775288617,-2.51456851217089,-1.150369108897053,-6.411181362848528
-12.10173964630038,-6.109166608067746,-2.575550423749879,-12.45245872560576,-4.701160695152701,-7.930028793048834,-10.725231217805815,-7.130644975976367,-6.498130676354151,-3.155311175639838,-2.6044692563866465,-2.109737168574499,0.1681193139767034,-7.126937788363239
-12.126265874409327,-5.243447731538588,-0.227398779790387,-12.950097247977489,-4.937802843108727,-5.815452021398269,-8.484875980483913,-6.997527439685566,-4.939798059204854,-3.006405730857736,-3.321343149474797,-3.037200185815285,1.1064414921868169,-5.701978026407813
-11.107575634245237,-2.7903353535176905,2.056704230933485,-11.3339900743761,-3.646194746319175,-1.596071879193964,-5.425772704026859,-8.281735722766427,-5.056323197536408,-3.927955975120728,-4.7035855986112125,-3.824237412309864,1.7314487225675506,-6.61807481954929
-8.737294917585803,-0.8040131190139732,3.0074723563381243,-8.255844788121834,-1.9372977171669987,2.164608913362983,-1.5647147194154056,-10.06091429500901,-6.711837802477312,-5.491765009459453,-7.467271028734935,-4.373409464670931,2.432633782939776,-9.70170119929938
-7.706404510638223,-0.9928366297332224,1.5774042932544892,-4.863073288888497,-0.8864548054666557,3.452424408980441,1.40509266896663,-10.748586476978623,-8.403163881277099,-6.46102761348212,-8.422539614844547,-5.523490963644033,2.784094827100529,-10.392389797788631
-7.739921763396715,-3.2684443304601487,-0.5302118251124281,-2.273237367276163,-0.5056092321758214,2.3223873622970927,0.9966123622793092,-9.458229261400897,-8.480793903409507,-5.879688373012389,-7.392641527309812,-5.51872481633945,2.659978698532825,-9.337263914938868
-6.914298928263907,-5.798497871238,-0.71489757145711,-1.1302385121168437,0.2192457322346044,0.677231909925549,0.4661786302285252,-6.850676644873587,-6.514888902578624,-3.844921765890632,-5.672332405762981,-4.89810772505116,1.4179237951063903,-7.183497007268703
-7.106049793033629,-6.49847417798126,-0.1623289854852386,-1.376775260259036,2.2895810595264265,0.5877010354552361,-0.3387923997157271,-4.621746534957195,-3.629493306528016,-1.3874408379227583,-2.431509903935005,-4.904005491935254,-1.754046243177576,-3.0785122825395783
-6.570378524931752,-4.664971039234729,0.0082289641702454,-2.278294503010075,5.6737845710416215,2.67033231556484,-1.071341965260048,-4.01375448664512,-1.507284510301815,0.3336453033487405,-0.519072481286955,-3.861261119486786,-4.522011552843177,-1.2403031622968828
-4.6001899901582455,-1.4459625779638552,-0.2129860615196873,-2.739803757328173,9.22256226722486,5.797851117651351,-0.4243133870525278,-4.725212804923119,-0.9714328088107536,0.8191612151394736,-0.1101800338610568,-1.8991289436820509,-5.12631565725537,-1.8282335778098449
-3.798273607091664,1.0828170537234798,-1.7101363691356934,-1.899658383036718,11.47314251254636,8.149764947197289,-0.4596161055856173,-5.272045711649327,-1.4283067504811644,0.4419055116962758,1.4098058928648771,-0.176634974184938,-3.76386606460896,-0.9021301846094758
-2.2479508963515684,1.3914295207272631,-2.380458206298377,0.258456125725188,11.518319264263216,8.553682038350575,-0.7688644217342879,-4.442618797671263,-1.617645116505904,0.0463497904501124,3.448512478218246,2.851695190191069,-0.451861946834611,0.7077627806807112
-0.2968824930477268,-0.5396099638601592,-0.9077940224102432,2.75595716706928,9.288661465871591,7.085749219376263,-0.5114552626359776,-2.3723475269911494,-0.8497050231361403,0.3465802627410466,5.792530127218199,5.333005633821256,2.837823213922336,2.421926531807733
0.208287701199817,-3.258327712239541,0.8254035075528712,4.233955286578082,5.35220079075517,4.7251760901838455,-0.0963004150027698,-0.1503254886063985,0.5333157462749734,1.5819875526894922,8.808006826857897,5.544087214767638,3.2385075019097744,4.806010217998825
1.3769343152855518,-4.715558728835843,1.8732613767300472,4.008174030148388,0.7105667045784614,2.588833477613327,0.8625519399935341,1.5663804547155946,1.865818790768417,3.5735042151910807,10.480213003667096,6.15969812428534,2.040739553420506,6.031977576798671
2.652161682898768,-3.4712473111670903,1.7311046112310962,2.706503887596325,-3.3009893642850354,1.3453616453637969,2.21512239824868,3.3529439306885136,3.144065908336426,5.96793693084431,10.723434976146194,6.285270623666087,1.35606545708509,6.033391704673095
1.656863873299038,0.3269395470429224,-0.0556964348437405,1.792970122022055,-5.374337756391242,1.0101520629343508,2.75040114845874,6.254974563406417,5.066200232965141,8.345655460463881,9.790660587634116,5.466722788827289,-0.2687598515207395,5.324642810943772
-0.0502850421561582,4.768525329574132,-1.5944073085647144,2.2561671729663217,-4.991605781959713,1.0369268702000376,2.767049526056508,10.226907328637154,7.967739492700343,10.14278407105598,7.110281761288212,5.519524426138245,-1.60405495183266,3.4336120366851257
-2.2132237526577376,7.1450737964279085,-1.1767088511542192,3.621718405888439,-3.021295231692383,0.6232457173177259,2.819794165615856,13.547137839633196,10.834340899755713,10.645335582308933,4.283115709244699,5.055270703666964,-1.175043395249365,1.19340132032156
-6.656113959862819,5.714234522423388,-0.7503729051179433,4.30453932880917,-1.3513784334402708,-0.8026271375630927,2.265592829147987,14.083231048471294,11.68379667094877,9.306085153661732,1.2150098062049008,3.418170951723302,-3.64436077877007,-1.4381504133678602
-7.402109072743653,1.123211543272138,-0.427516935748788,3.113194243302484,-1.5529402643741328,-3.0994436434564605,2.4138160890361062,11.31339852515228,9.244874501177126,6.274353203030284,0.0215874285656864,2.7945416937253693,-5.454824829974916,-1.6755134811974086
-3.688196957865869,-3.741425668901204,0.0463042389782318,0.5465835778345465,-3.635139929084968,-5.322433962229098,3.051853918691818,7.058793968263181,4.404838278375127,2.669682882215671,1.2900265859361968,3.03088491776364,-3.110530926111222,0.9561487011885038
-0.4782556091577982,-5.658492284273549,-1.2716500705094953,-1.405597186039916,-6.048255342258809,-6.270005001324314,3.1065965640973183,4.043890065111452,-0.08025960831635,0.1906780585789889,3.094872978749116,2.7673189437222034,-2.780715327148961,3.237310302844574
6.323804324243408,-3.3960623976800197,-1.5972593289608197,-0.8881735932851988,-6.963482514765662,-5.379535183482847,3.87905112948378,3.564723856090307,-1.5390702537577852,0.1653604068555658,6.162423148443137,3.3440833724205348,1.156157837624644,5.887453199153602
10.68933861947785,1.441086002804834,-0.0588377239231601,2.216306106560197,-5.649621806166444,-3.242393573080708,4.182582163103267,4.493905315326696,0.6431360038107599,2.685701041601888,8.145698542793639,3.9503883866360834,6.923434155914994,7.43675890833642
9.444046829426918,5.80115286745886,1.4107927695000215,6.1696418433943805,-2.767926330298604,-1.2160181545309037,3.7861028500223655,4.574723862366874,4.700772406805989,6.507573622866552,8.703819023665378,3.349296370150596,7.153312006548452,7.262288594294111
10.408967063113971,7.619401154429003,3.931805401167303,8.816036706772781,0.4280758345553721,-0.3944444699403355,4.014399301552743,2.724691378973862,7.977184277481438,9.839897404772945,8.380422651449848,3.243132241646989,8.017458162937771,8.63292357487015
9.1434725006519,7.156747337660466,6.029923019461793,9.201985888701197,2.9838620033226384,-0.8259504813906027,3.576051641486722,0.1117879738598865,8.854061152339092,11.436028141183511,6.41158136830528,3.350731987377162,6.155178766760256,11.150318197264244
6.965515716990718,6.148126307322233,5.024977035982775,7.926937478782605,4.421201149300202,-1.662057807074671,3.122532549652421,-0.9885000351326028,7.559032190908518,11.157309164158946,4.6233095786141725,2.5557494408162964,0.1532040450388443,10.256904530113546
7.201651948690653,5.760030147981432,1.818657763228972,6.096337939476964,4.424386314523574,-2.0417853387462443,3.072690354365534,0.6105879116779498,5.439317019215284,9.641633223326636,2.9048062466509195,1.680386305039816,-3.2842693613086147,6.145411264293423
4.527005774317139,5.460587234027912,-1.5961605004780086,4.109824524645038,2.8186330698165847,-1.8302992124546835,2.45829715464902,3.865765773328377,3.5911620537619093,7.495363227860533,2.226138142444935,0.8530228570442261,-4.4916157504962495,0.3460422737626276
1.2074984483593425,3.9137276391445504,-5.761181441461155,1.5578059310945065,0.0607734252913338,-1.538638334658618,2.073257721610983,6.419600107334972,2.084833262614538,4.824910565443123,3.1014483898246814,-0.8058278779050723,-4.763516895812068,-8.171571537210829
0.0805748457699682,0.8920440048342826,-6.993965590452332,-1.7653933004093538,-2.469123751775445,-1.6141830518187277,1.860002905679221,6.620399267350393,0.3194826781066453,1.548018275656155,3.684282009292163,-1.668286872668874,-2.058072718807328,-10.636425956391369
-0.5206806184685734,-1.9036003581112269,-3.757718516515811,-4.952321929518071,-3.1399728161350104,-1.902292964221356,2.008584064552588,4.788513827360909,-1.9722419002653204,-1.8902984498070337,4.345048688312861,-0.9564344037961564,0.9755873690633317,-6.29491396285284
-0.3227296394102579,-2.1755401285835525,-1.4653782754684577,-6.32816364771482,-1.4366546882490925,-1.829256370472088,2.620100975405064,2.734519426109671,-4.052709167220154,-4.2455296235854725,3.9360579767018913,-0.4350759929018486,-0.697268919330595,-2.0712164562881945
1.0757992115475106,0.6456628102698438,1.5851233439708357,-4.901424452149286,1.2570052080139824,-1.061592605392388,3.075300527090373,2.1548482289412227,-4.50451608720358,-4.125868931998287,2.0557185311713533,0.7321994132240777,-1.684464962135591,4.16669192744464
0.6456082077333148,4.401282766067947,3.5040243815024423,-1.5559178829174627,2.477441659638416,0.0857154838436038,3.219140042994385,3.350438388006296,-2.38258752366405,-1.1478906717797237,0.3584271802006263,1.427595219155835,-1.4282406197159665,5.694152535701551
-1.824619785234727,5.73193850866361,1.755672167721781,1.2794590171946538,0.6586454328227767,0.912829738855418,2.162430595370563,5.170483292565306,1.7074440794348114,3.403995230111459,-1.5197258415665371,-0.0154750069727749,-1.2587280042927422,1.1257536500872043
-3.826850609690581,2.9397788422356648,1.4604940983944583,1.3915684121636769,-3.430511837891704,0.971861455863552,0.353280683262702,5.961635936134449,5.566852162091809,7.093431009386309,-2.3633386843123545,-1.561761814532337,3.46534959262466,-2.2807350481350066
-6.887226112697598,-2.386904373100279,1.1357625404478116,-1.457336588364644,-7.18729052355248,0.4216202806363611,-1.3510319037885,4.679211840221152,6.644229701234279,7.755848979380154,-1.8088833867503693,-3.383558781171973,6.446227809387776,-6.358183169042184
-8.498081976481071,-6.549973542847189,0.3198786851760908,-5.271735088959858,-8.305941798402234,-0.2135288875511243,-2.3814581058509936,1.5053948750266493,3.7889112262488673,4.826913692479135,-2.189246478485756,-4.65671557125148,4.2302984147587415,-8.041451435829323
-6.952581857743434,-6.76608788718069,0.6531937192439035,-7.305410902320162,-6.69105573850311,-0.565717588315465,-2.0647190167099527,-2.202543740274905,-1.7743304704828624,-0.3441191476054683,-3.2127569624675743,-4.450109014856648,0.0043781382731289,-6.086602389093741
-5.748084514498196,-3.3988779584062403,-0.5373026858268499,-6.075250966619835,-4.4297155124094,-0.6685441879613894,-1.100172751472737,-4.551096554187879,-7.074903892120439,-5.351163680734883,-5.80004432068656,-4.134985270049228,-6.555677228768408,-4.779985835277447
-3.194543818703141,0.5314898797682286,-2.2506865109400023,-2.3284081732278814,-3.828370472626748,-0.7291387658523014,0.1594384563195125,-4.145756965515577,-9.28344878745398,-8.131872688267398,-10.517722333085564,-3.3599963462513407,-11.679655563045523,-3.077162528908625
-0.5845890513704943,2.044359737473803,-2.4265677701878827,1.671352263343408,-5.274044627270889,-0.7624792334595671,0.8838144949373619,-1.077113100164956,-7.533617604546835,-8.030061744915656,-11.101364695706955,-2.892348454691122,-10.112839387192702,-1.5207834994801288
-0.1262866975926628,0.6545336375563515,-1.6427910873003966,3.813366265524545,-6.833739592811919,-0.538357299562028,1.0968710921196356,2.857298573865509,-3.369370254814534,-5.960851160347401,-7.47435965404308,-2.161679982896884,-4.054673462018721,-0.7171355399648179
1.5978007441538449,-1.523037089464272,0.4302135573323706,3.4321450825829274,-5.946917364061196,0.1064983557672167,1.7013187501932725,5.15685118240371,0.4637043157866012,-3.701068134978315,-2.395437726223206,-0.5220303896998859,1.817532933291018,0.7418410319533238
3.5074699270732204,-1.9264206676441369,2.858506051508898,1.4078660201925368,-1.732457103791578,0.979373026310972,2.047435023742856,4.37858870870889,1.9285093601937708,-2.79723557215259,5.627717258782164,0.6969773049412427,7.882818790634278,2.5509974711823418
4.213648283221207,0.136045392940213,2.7825100573982686,-0.7051410840361534,4.054148661669517,1.6333850364954765,2.034663453832214,1.3131782745168978,0.8836802926257308,-3.7240216534840775,7.595378370221505,2.1311831965006083,9.789356169497657,2.722543197072385
5.606674906834413,3.0792401978771897,0.4772976188917474,-1.6822823826674038,8.18684662984897,1.7673830234910848,1.4823032767587667,-1.554980907245918,-1.2205494334263531,-5.724011361691694,2.661358185510716,2.6587411492076978,6.6091214894012165,1.2452385842695073
6.343981303969469,4.719868839406585,-1.7609141363419252,-1.1106890901494,8.304828468363638,1.468383256873656,0.1058335660371684,-2.03798862005219,-2.690780900524421,-7.35131356070401,-1.3218155104165372,2.0112359176080696,5.58239056757836,-0.362244543163542
5.96582463236802,4.291132875127704,-3.590884414813835,0.6996720612984787,4.625785827922151,1.015601461506544,-1.6054756450853875,-0.040908255163923,-2.7833701217223306,-7.374680587861716,-6.486374576368417,2.087309014961268,3.8587904242362754,-2.522077504101186
6.831335868633577,2.8883386166036,-3.145639706169258,3.0341187891281565,-0.177874519023106,0.4950741237200695,-2.232010311780299,2.429228975174428,-1.8589146225156168,-5.542414473191146,-7.716106330654346,1.8062767111272773,0.866195350327188,-3.413425810562728
7.236903005220119,2.0893571024174813,-0.7209832904471472,5.064410120498427,-2.789800858976984,-0.2638000680631087,-1.5491177841088628,3.057297792508312,-0.6395716025976979,-2.7952886398827395,-3.534915394477562,1.3150384523892409,-0.1632000907592852,-2.66381850749132
6.837509496706868,2.284859042639668,0.1998245239268443,6.123094094505719,-1.473949459229161,-1.280316622257818,-0.7684230664606166,1.1795734358212142,0.5398266798246962,-0.7615612223372654,-1.8176251179319265,1.5671294379284575,-3.183082981781794,-2.48948378070709
7.5124480474267585,2.449278381421492,0.5148677891995056,6.014807993973342,2.778911492535297,-2.00706039970173,0.8061960411464116,-1.8350604201056573,1.785165530536144,-0.7212709023515389,-1.1947175477944836,0.8182460759234265,-6.966301749642435,-2.4143559706802016
6.543211431968186,1.537302254813087,0.5624615831748138,5.197127690994227,6.958685318637826,-1.5176204866969387,1.2721368973455385,-3.989380675637087,3.1424416625707807,-2.609851407119681,-1.078712794908658,0.0594500659930839,-6.541193064676262,-1.281408693416512
5.2963635734289,-0.0328500660350528,0.5750312021261159,4.539736670075131,8.160009957612424,0.6727534533235842,-0.4542851583357934,-4.40333889353226,4.252271067100919,-4.801582133051534,-2.770900906825278,0.5185093078021158,-3.7262438872435415,0.6949283432603862
4.988382061577783,-0.5038668774810082,3.238638759458571,4.645914261990396,5.668678517122105,3.870820264892596,-1.767859536886292,-3.781047365051904,4.60118044628462,-5.065662717874815,-2.7194601248309342,0.361567182544757,-1.437455505099899,3.344010931188962
2.5284282318007216,1.412410061380459,6.905683988216561,5.216692424258449,1.462434730772375,6.367136894841909,-3.94844636014163,-3.355671109801228,4.068129250587204,-2.224459869018122,-1.073040398769176,0.4338489173502847,2.727219805652669,6.872695453824051
0.629230977434947,4.7807747397968745,7.669296195055148,5.099470590140543,-1.344848867996978,6.560916920251194,-5.935533380935452,-3.547590023389912,3.104442755674537,2.7120471720784,-0.6729792841889072,0.6323275168483742,4.86879304422664,7.013211851197132
-1.4431733565550413,6.641954766847984,4.925109995995736,3.165267713277168,-0.9777550198086632,4.190001129821651,-5.628218223841307,-3.711075294676924,2.2976917815063524,7.003131137639535,-0.959257066388194,-0.9251464395104022,2.52045990783125,3.38647956221897
-5.70782845138543,4.291487809840319,-0.9367516628645952,-0.6380683478065041,1.5925249328164046,0.6114188954217727,-5.838616718452254,-3.1184086569653573,1.768725124102314,8.086403799832343,-1.7291177969760343,-2.617296904838524,2.442964381866279,-1.016158908399691
-8.745014151216187,-2.2903329440329587,-8.69063283491974,-5.014516805813546,3.5086083881476933,-2.167669043883505,-6.029312495461042,-2.045175887440468,1.0525752137160342,5.480101878300252,-3.4467958582949154,-4.192879326537952,1.0868809734255054,-7.291601272841573
-10.502790026732534,-10.09797104847883,-11.494124433305238,-8.184183204413271,2.462998330311642,-2.960011326040597,-5.626596957423525,-1.7517432284159895,-0.3888139859430666,1.073791289330881,-4.594808153342223,-5.649680093106252,-2.050633448299355,-9.788777670679998
-10.403712287515372,-15.266289750111884,-7.509165545295294,-9.203356201886091,-1.3572388264574489,-2.198796992518968,-6.617721429509813,-3.316747191255585,-2.5319674058079062,-2.4714022713566184,-5.19904432722313,-5.370184216152013,-2.05591911889879,-7.729273906540308
-7.984966418838416,-15.886736690052908,-2.481143655647383,-8.589255462697981,-5.447724895859595,-1.447996595324165,-7.585020031829204,-6.476463725723821,-4.674230003224626,-3.827621305767829,-6.304900658671807,-4.634657496571293,-2.9647920895225592,-5.35320787072381
-5.112818805558058,-13.067914433611158,3.4344851877726668,-7.708806715578489,-7.040507325129822,-2.0419892264520154,-7.832654870825166,-9.673058286259526,-5.970931333079452,-3.789095249991594,-7.630090598464393,-3.906227403207084,-3.783441535938461,-1.1170677248871643
-3.274037327365312,-9.514256091930164,5.959849766740291,-7.532914927949232,-5.200624573323781,-3.95391457439103,-8.004036953179595,-11.35807312073166,-6.145166678573418,-4.159826575915141,-8.155732753167033,-3.191044415006357,-1.9421498148263625,0.8861869324606909
-3.135728549826632,-7.148416982835165,2.3672007802942527,-7.919887317052875,-1.2732486500571412,-5.79246325791176,-7.131918572824243,-11.344993475694302,-5.724192089065581,-5.888997684079794,-7.91062553090434,-3.545573874669587,0.1140197665456513,-0.0389668486578847
-3.1934873069206167,-5.9677105773789485,0.2654348676390193,-8.019893063466402,2.406899286813857,-5.936777029530258,-5.486993062709402,-10.895015479469794,-5.568391992332019,-8.192433701491876,-7.656187577242365,-3.843199386873618,0.8749582168371444,-0.834439694020479
