AF3,F7,F3,FC5,T7,P7,O1,O2,P8,T8,FC6,F4,F8,AF4
0.0029232603623174,4.9660274801160655,-3.7054391491981895,1.8790685456396652,-0.5628817454163784,-1.1256915456771523,10.381178620247804,15.376236667173671,1.2419018983607344,12.050721526165823,5.283442441362776,-0.2558165774202846,-2.830579272596144,0.6839336892438395
0.7507359505235229,2.1717006910990038,-1.5657092694465318,7.040230235791369,-0.5912031986947,2.46428896417572,8.375083799388717,9.339405711899667,1.3269561933902858,9.822273856599846,6.931303437906213,-0.6618387531013529,-3.1356733227221136,2.221747365349525
1.2059641409529656,-2.490506661100981,0.5491436493769086,14.638009450296565,-0.9059314022253308,9.483429365670588,7.2876776292800765,0.0080356029571737,1.159894648996002,6.919247869271777,9.292117300854308,-0.6681494183706456,-0.7976043333251823,3.2279383667959083
2.765177469304593,-5.485366064559758,2.563045083550612,15.67763626463982,-0.8237402246314437,11.715424123001892,6.977359578781857,-3.839763887382537,0.5421010660639737,5.185880126553193,9.124218577633131,-1.6980984153756669,3.12025983284655,3.533816911968321
5.992659627580756,-4.281200821937223,4.7253741908915,9.246064058229926,-0.2187466069404602,9.178883291500242,6.173977961283389,-0.8471025711453741,0.2130942840344895,5.706356309556917,6.921933596702449,-2.993518695515564,6.185166354125499,3.349734679034644
9.663014921614254,1.075684568399207,6.818668265015895,2.530098135294109,0.0932893201902417,5.218721485005252,3.987667286022405,0.3661784789354391,-0.921982060483022,5.43305193805338,3.9974010937571145,-3.457454217199886,6.36632222727868,3.214788081143719
11.469412822869131,8.12998299996669,7.7463914700498275,-6.712327978175393,0.7008301917940215,-2.080252991435878,0.9402393257454258,2.046452689477566,-1.7756216986648734,5.118022468664823,-0.1842974729634072,-2.9993566076398457,3.81707197688112,3.552161491492367
9.894591060978618,13.475463666380008,6.167049610743762,-9.432756423247625,1.2082047315584965,-4.461659612856225,-1.5420462470875185,2.141557333014804,-1.3762820848512782,3.816349169447885,-2.767449289485898,-3.2802680738140557,1.0381894816780672,4.157441810205421
5.597146827791349,14.493709343200855,1.7502722084194446,-4.002949709165051,1.080321571592388,-1.2280616996225882,-2.6037091660964498,-0.6360367121975622,-0.7412721953493266,1.053988622127759,-3.3720903708498966,-4.076689239199342,0.887699340700812,4.194450655404388
1.027924814915267,10.602992856189086,-4.118088045831362,0.3983328420091218,1.4669441327100197,0.5133147284485683,-2.798259711658,-2.7702062836398684,-0.3654039721856573,-2.69350093101604,-5.559001728541116,-7.015456445206689,3.852644844019855,2.8709757597644687
-1.4299284696557208,3.6000264599742167,-8.951225495139944,6.192032961062311,1.544287651423833,2.6584430980959453,-3.3638052548539017,-5.106133328136194,-0.2993369753336541,-7.878209719925591,-8.70090036105379,-12.59870149170592,7.046948391319703,0.237011542410767
-1.1783230448753343,-3.135968835588897,-10.684480508033284,8.671327612924696,0.7991518932129615,2.8056686930289434,-4.705762825236231,-6.327487505363548,-0.5186119765363016,-9.682613868837963,-9.009979646332392,-13.012017523943175,6.248872365035508,-2.698414297403789
0.4644433539170878,-6.422406163397849,-8.88247817710061,6.230575447508556,0.1416962138219343,-0.1740462843653059,-5.7605882566367415,-5.852938190469206,-0.3402803603254618,-7.756980443870757,-6.720753887121462,-8.183867982014213,-0.3813009492323971,-4.723167810491336
1.673792445868275,-5.142568605020269,-4.725050123738734,4.207898463441327,-0.8090527065039053,-1.1206809153986208,-5.033946772404427,-4.893232607580298,0.4671136147825553,-5.635238652002938,-3.939448790175952,-2.8929538623170767,-10.074604801717443,-5.354503079526108
1.66831402191168,-0.8790550373119093,0.0360705423584108,1.0269987940915677,-1.5273046646158754,-0.7340487013737235,-2.322527971863438,-2.910780615117156,1.4021222466660923,-2.1500233568930143,0.0756141043627256,4.580328543530431,-16.932929119925397,-5.042156756147301
1.0354844330747732,3.3430223552640643,4.146091706558854,-0.8411309313017646,-1.1607354147111877,-0.6190428751269573,0.6923061385554459,-1.9159156965752573,1.5080244475180198,-1.4623066879715334,1.3195347860589255,6.818346046042647,-16.194569154791886,-4.4839099366141895
0.7666115482729643,5.316851981831384,7.119109509252232,-0.6164220478130589,-0.7969494503338641,0.0566807014043454,1.7383912309563705,-2.1221174698333014,0.5341840871455926,-4.310608282253954,-0.7989932538845741,2.7000772972167058,-7.84534593503912,-3.8269313588387255
1.1434673590004132,5.037010701800421,8.785391529099545,0.2000614190731194,-1.423762981130149,-0.1751915582507717,0.0013252272661143,-1.9936365635582929,-0.4180967691307462,-5.319232764275651,-0.9803767877410574,0.9021652832618998,3.3948923078009736,-2.63891508652944
1.5857749872740583,4.048598170103988,8.868630032419077,2.5198969526595647,-2.710714164056178,-1.4738239424139723,-3.024505011625815,-2.033793137262454,-1.2854583319818669,-5.470487360321195,-0.1065625007096067,-0.3249362700738956,11.604573253213363,-0.6789707885010752
1.4566042933715684,3.553831409683571,7.166077362528394,3.9686393301901406,-3.598958681823576,-1.9196864145355093,-4.730899241606153,-1.518679744201357,-1.4149670770857563,-5.1952900857275095,0.3151634890854486,-0.7349318136766564,13.73247515951764,1.417599371479282
0.8419989930047918,3.302351427383368,4.109208652842195,4.436267438934843,-3.0224280796508385,-1.7798952891741937,-3.5641117554150727,-0.2395244058341763,-0.6532734602236598,-3.623061938791585,1.0872341894861692,1.0839803904746297,11.063297626672666,2.400592063054303
0.448213513650838,2.422329147512197,0.9419474280290472,5.952414148954806,-0.4212872898438083,-1.1661462292441953,-0.2357649696502358,1.8153855347281724,-0.3153445534333979,-2.7264202936488497,1.18841925586859,0.796094955989614,7.373756889413656,1.4988412564538434
0.7676039809600064,1.149822551575494,-0.9357906917906972,8.038585644560106,3.3241167419644477,0.2892770607370955,2.977185498848339,4.946398922602539,0.3126236115097345,-2.3780498615708874,0.5075376706182577,-1.2510070367841644,5.740700700940172,-0.7009196413241332
1.454531620422339,1.2412689412168385,-1.0189098373889638,8.252158182115318,5.620065969163481,1.0588034723763091,4.054834283659544,5.782248590342776,1.078948436799081,-1.2990689474684385,0.8484849365783185,-1.5458068183806255,6.6109347951181885,-2.537801406398459
1.6147381766023094,4.170683482397711,-0.155060377613827,6.633536965478942,5.463660866080764,1.1512742633125983,2.573486061576712,4.160115539139882,1.2522848910317563,0.2010348593679694,2.083744942585024,-0.6808647391283265,8.226939420106012,-2.589129074147444
0.736109931111836,8.831402781047643,0.149056336116597,2.082235440878719,4.131682127235838,0.7271947469772367,-0.3392445608643711,1.0401486665042676,1.4593700370095566,0.9659636112952285,1.947991812889444,-0.3768685362574452,8.50718666418747,-0.8627350510393408
-0.6987271290044532,11.52177730079976,-0.9407291857943232,-6.199718503560166,2.6337127306905086,-0.603799928965743,-3.0360682701957336,-4.504301618098976,1.0149610413690546,1.065070796993504,0.6366286079888851,-0.1470913294194673,6.6675333199632245,1.2125752102453475
-1.5728400649858356,8.975331753098082,-2.808889023725564,-10.064693332602388,1.0890241777801135,-1.9235067585648715,-4.368525276071727,-6.799054286038056,-0.1260226757382723,0.1081630703999467,-0.7165599908652028,-0.9121810239569682,3.524303408904633,1.991374307327841
-1.1522631222443684,1.860545916301546,-3.926367413740958,-9.436237970397906,-0.0156283936216505,-3.31458546143027,-4.100264891445729,-5.526498137434531,-0.7145704147962906,-2.244218441212844,-2.5252500450965383,-2.9996207509528,0.6147087256275605,0.93150466107981
0.2105131098112562,-4.939353644019016,-3.262882607551459,-7.348124929138759,-0.7335190590511808,-4.391246774305015,-2.795548029479546,-4.861998511391865,-0.7081923056604533,-3.638312925694997,-3.6293245074983855,-3.9345561567356175,-0.9956788194284556,-1.091989372466483
1.3453484167812082,-6.223164834647744,-1.3000637896894238,-1.818400213837038,-2.8265323509199103,-4.921109094276865,-1.4737474252789031,-3.5038700829170875,-0.4771780408888577,-4.131799708363048,-3.8180218036084943,-3.8850902461910968,-1.374185477476018,-2.637641463340885
1.2218144853708997,-1.291964413443342,0.2875073144912108,-0.3993878001195926,-3.9668209028328247,-4.94788294494741,-1.1263029514998042,-2.4019229792424017,0.0442526473682619,-3.979631279074781,-3.681298297276147,-3.283617944515578,-1.4987369582687329,-2.8626815050437493
-0.3110310941197287,4.955635613558572,0.0083673031333422,-3.5862566032277754,-3.440882913969361,-4.239030260459643,-2.130941330161435,-2.0690913866469605,0.1434898868338527,-2.5957777591313214,-2.8530179657205004,-1.5908059182584695,-2.3567010339081023,-2.0150689638041683
-2.604897740025377,6.100838883254659,-2.2254839992374804,-6.851292567742913,-4.839184157123731,-3.93857961626294,-3.841409475773081,0.5195487169183907,-0.7028978345263532,-2.1307372026150304,-1.6454019698696971,0.054843663345391,-3.9702617223454446,-1.001035165166558
-4.861424291952902,-0.0392324573480733,-5.062151958501119,-12.039897445423906,-5.434737702917589,-4.033244963139805,-4.772860849263592,5.176046261000311,-1.246817091511126,-2.5458588589947597,-0.0376948573204855,1.7146213309614544,-5.065578469297712,-0.5760387109124534
-6.609885867091297,-9.290110594598804,-6.802700441433384,-13.251728013973926,-4.39543916062918,-3.089388595672826,-3.4606158402025464,7.703302321312471,-1.1408491454788503,-1.6325540194027068,2.499066787693465,4.268956355735116,-3.790067391804231,-0.8572069711400618
-7.62244820922816,-14.686188907730472,-6.626809062775555,-9.683634667659833,-2.992654840556125,-1.2623391757752436,0.5226970699045601,8.387716933062839,-0.6950581469245272,0.2817908428205138,5.960358221738512,7.548620118595879,0.8307158915936501,-1.389068039326972
-7.603791041552067,-12.492094401922078,-4.969793118365357,-5.748119013483772,1.6010885595627675,1.6635815591638397,6.131725794790331,8.79672743536391,0.6608379330980824,2.784745018582516,10.124823138923986,11.70586483548375,7.71627024742516,-1.5142322798320116
-6.23868965023334,-5.216322016879037,-2.906296805814937,0.1302431036780002,7.2134524315095,6.025068708222142,11.31606214874316,8.068095681854775,1.8667144850327189,6.268944164051433,15.116549926036834,16.909832461353417,13.919016488929511,-0.7303874368761074
-3.6709485741204064,0.967378579309056,-1.2185836077415686,3.515066239164623,9.026127740816206,7.462550318368356,14.050453258852194,6.703912215006012,1.8989976751228883,7.400174812849237,16.900723919956917,17.92421347370584,16.360151498670305,1.070580697611629
-0.8342046340378797,1.8412670972331329,0.0593100366283074,3.646422369527612,7.1609147847025625,5.772720887405545,13.280376299686282,4.717304754426537,1.2516442459800918,5.928330754506109,15.07045665249045,14.341452047740942,13.97710606657262,3.47502807162189
0.9404638617320784,-1.305739696841643,1.386779744935397,5.369851301290334,3.719535902079142,3.7285772129165977,9.350676346180355,0.5536117691108551,0.0748066552236949,5.209103738664185,12.407985139167856,9.777372514608713,8.563826125965047,5.613536828139624
0.8994944250013797,-3.170291725528957,3.138937576332596,7.577718674965817,-0.3798446855387734,0.2911977957008577,3.8526601813287114,-5.838411619489532,-1.2772364347809202,4.52728567411463,7.840619862882926,2.9094774019613467,3.4815790022104847,6.536662229488631
-0.3912886224033354,0.6377229116244543,5.258404066508209,9.390458362307117,-2.4208532879473035,-0.8945831383448144,-1.0095358377287955,-8.606945133942098,-1.7127480159254478,4.5296047516954525,4.603532918448208,-0.3510535550885198,1.1994011848109185,5.796631119122531
-1.2636291592847613,9.655811202627795,7.361615582250208,11.411172905969355,-1.5693288076492005,0.722997828847648,-3.400544443084453,-7.614723576545031,-0.9955239747697,5.805279599194672,3.180290798398284,0.8463046681706579,1.6911314470700192,3.836632052779663
-0.0697361178834983,18.854928997788072,9.089594891504891,10.656872800036716,-0.8531747434065062,1.4519553441120323,-2.861808443054338,-5.779319577630195,-0.0228991973297604,5.593366977856689,1.1490368983224015,0.414305032955278,2.971391847758519,1.8029363385746888
3.5718307521389505,22.60710307350704,10.325300368612655,6.866607097423443,-1.652443836045674,2.2024003956941893,-0.7302687946891737,-1.682300277339533,1.0182812680178324,4.094389593568528,-0.6048365208689008,-0.1898967367564973,3.1176195042753854,0.813645995226135
8.27931687688429,18.828913149092312,11.09052158943567,3.064651871488194,-2.7255760152052995,2.256229357819665,0.5885495067729805,0.3423267594818238,1.3669735309147932,3.5314291634959973,-0.2320741501464561,0.4189302786999667,1.8566894106321692,1.2009164664438154
11.52762313029758,10.011964896952046,11.270424374426511,-1.3962166772163889,-3.5047176997961245,1.0475031001791582,-0.6863835718557678,-0.1553170978350641,0.3605170506503444,3.4996849998362616,2.304982133920177,1.544652168359628,0.4098762672431133,2.323117557695328
11.091533671570032,0.7510817077449294,10.501387407255246,-3.925550621490329,-3.9723684717384025,0.4648213927481278,-4.199172651060762,0.4404194051781238,-0.8232196184877979,4.239052465357388,4.671447729686424,4.863127410894865,0.0733769267390385,3.10645266441394
6.54281392222076,-5.728200294086614,8.430074756768022,-3.7888266745827854,-1.8889710665071595,0.2200749233072076,-7.483042914117767,1.093658530278846,-1.684364575300233,6.176675055471497,7.208346800207768,10.60573920237048,1.092918995067722,2.883437177824025
-0.1228244340665134,-9.092184245232676,5.1937948173538615,-3.270502980056417,1.1948878882295182,0.2169277836741976,-7.802807272389531,1.8798963105070543,-1.647061473276076,6.832423412845563,7.926602893260773,13.032399834237411,2.7685659298498955,1.8555155501787624
-5.336022969097495,-10.66816017983287,1.683873469203501,-1.489341173179281,2.615494837227057,0.7853093686140605,-4.450466805678964,3.210455420286364,-0.5589995108488982,6.243354418124054,6.162222158946443,12.122689658273268,4.281059753762777,0.8284916770486016
-6.029966932609336,-11.241741049272068,-0.7707467485167552,-2.2067437171346347,2.913738690313777,1.013244246774526,0.5200554718261923,3.959150144426236,0.156066175510816,4.4119021042006095,5.595712921846918,11.045350805297163,5.131558023008297,0.4785617031033701
-1.6886213329076378,-10.272910578875036,-1.2128480258300414,-5.914818279033051,1.5203604258108672,0.9547330855497558,3.9293113120811447,4.218195334527533,0.2918748935342651,0.6828402040536048,5.68450067351197,8.514098207404045,4.863844624613709,0.7913407129293395
5.168017999823356,-7.148605879093222,0.2095591546097077,-6.047916554937213,-0.6530627571889625,0.6775770893056987,4.141503160466618,3.790037280355218,0.1491832438023774,-1.7808771083620991,4.187632493867774,6.367462982626132,2.798148802973615,1.1496486192161357
10.595403122550632,-2.851006164287446,2.211758791312187,-3.2263137688168158,-1.082855789400358,-0.021293542635234,2.3643968472768817,2.409695295267434,0.1601724935339576,-3.024991467744645,1.5677009811799911,4.949715993682705,-1.490463938416852,0.9659767162133523
11.803065752393149,0.0165332665064257,3.17667987782973,1.4019266993696735,0.58419275327873,-0.3228823852898171,1.361161249084054,1.3775966362408705,1.24366395432444,-2.01629577484014,-1.5014810361731827,2.789298051580596,-7.26385584269322,0.2639678908926034
8.71745788114319,-0.8315688690642513,2.2454473682189877,9.185442737408096,2.153098070832105,-0.2371880865526889,2.774529619032572,0.6252505536073758,2.9049939952771515,2.183284412660925,-5.340798575755096,0.3880600144270874,-12.399115564993338,-0.3450926833593395
3.427369749169656,-5.210935092200186,-0.1352326824518153,10.516890168327649,2.332166553657079,-0.2721619354108461,5.583852074777697,-0.1812395882655818,3.2171531966761413,3.320820701780548,-6.662409831573813,-1.2663862750786492,-14.49301301521642,-0.2866451229416702
-1.7170986568626017,-10.192739435533117,-2.6365573756767584,4.82570864139632,0.7891135800762732,-0.2652105793640665,7.110942072415401,-0.762417917094109,1.650542655863858,1.5756584017009123,-5.100461222404845,-2.183444693917641,-12.589032124204378,0.338265952626789
-5.523113986189631,-12.123429692075252,-4.084357464009898,-0.1573666325199204,-1.7993763971272303,-0.6421319789921138,5.539690922055268,-2.4839172768144597,-0.8713680385940508,-2.910420122477533,-5.366208265233224,-4.216134618212909,-8.02758406489508,0.7471867457528865
-7.8317101877371424,-9.315819904643256,-4.252926277279068,-6.597093505252857,-2.8060839417779846,-1.4970816683351271,1.532570671828013,-5.423808586241076,-4.208189578576997,-11.73280155199404,-6.827676151316273,-7.260210592332843,-3.5565198688009496,0.1881886354723612
-8.515328980738397,-3.2449472726456783,-3.7965712928961217,-8.504321248345496,-1.6083369857050096,-1.7949077836634542,-2.4775101676734623,-5.5476150967959,-5.275274640685775,-13.981173065749145,-7.239009333732397,-8.437385064276853,-1.3628291140457818,-1.2417211543698583
-7.081682583104327,2.60951396855514,-3.481388604170496,-4.353164939131364,0.2150572090170913,-1.594817879768741,-4.45925857966965,-2.8551150831278744,-2.7901574072264976,-9.39436835158599,-7.314389585716717,-7.912577789764424,-1.662492915667377,-2.4672144802685647
-3.4644348448755555,5.226091468331666,-3.496735911998702,-1.1241242833853573,1.0772225972727,-1.0565689873816175,-4.276512512127459,0.1232389237204597,0.1401921716449646,-3.3373369774569026,-4.157025813788577,-5.421571427988275,-2.9856200124654286,-2.239722838408457
0.9837942684240424,3.857288957146652,-3.494595789616594,2.916337801079105,0.2620516162284992,0.0558994953095972,-3.241841316504028,4.256139481662834,4.549587385861118,6.776174125557013,2.783493727312638,-0.2183962441665148,-3.764243674278413,-0.2740608132243962
3.730055268386794,-0.0275970163379635,-3.230825523963124,4.607201496282745,-1.2739817681563377,0.7041172922090358,-2.4580861158568688,5.724430322435717,6.983984720543574,9.595897159824109,4.588400712280881,0.8325554691161603,-3.680419394803288,2.277999300502964
2.746436432200097,-4.276479899008928,-3.039589116224805,2.7223088898999475,-1.7489347497124332,0.8682532466123659,-1.750958437417249,3.920066520625445,4.174443535970247,3.934439798598361,1.433970528597205,-2.4832384003531134,-3.5549410886892305,3.5354587482857207
-1.756864877101889,-7.55063556882998,-3.5433309839105824,0.097356457378984,-0.6014504846140635,1.1192227399106969,-0.2040621171293648,4.24651940601707,0.9312757162593732,0.0091093189674018,-3.625580448035672,-6.685399400266282,-4.054270791384008,2.297864474850186
-7.230024835474411,-9.576458004781443,-4.86249110964683,-4.482759059480925,1.082188392214008,1.2238039776276697,2.406906147061642,5.880975662060778,-3.864897903030074,-4.873075202890939,-12.65383688716386,-13.430799557354511,-4.706853142472328,-0.979281733547042
-10.576463906746454,-10.320204482444597,-6.232529078549068,-6.673707707256206,2.0242937909210066,1.4177879871741264,4.875784019061696,5.819769348072257,-7.180554069872665,-6.087850679223775,-15.791544331020818,-15.20282746769387,-4.378883632688405,-4.468862618163862
-10.35243714571074,-9.32998592798449,-6.592493809645424,-5.981657488726258,1.6149656784211,1.751794955478018,5.382298018772776,4.773426879519804,-4.655977812268033,-1.881390562012748,-12.335269988791888,-11.205558363219554,-2.7489015361336886,-6.28643136604498
-7.513423996001577,-6.162894605378402,-5.649617627866536,-4.807984169901433,0.454747264013741,1.8709997262538147,3.150499544447149,0.8948000841531967,-1.8711280879608183,-0.8826965461700649,-9.052764240138998,-7.683105355766384,-1.11125410413052,-5.746196241692724
-4.204436235501127,-1.428569129414984,-4.280782351216621,-1.9545037362206013,-0.0822291487925998,1.8232166536882448,-0.627865282643508,-6.482089073888196,0.9733766423006854,-1.805382329472037,-3.566533717151645,-2.7902792005886927,-1.4120262728913389,-3.5942237203585847
-1.8617068441111777,2.937036089589114,-3.713083499262899,-1.0402472588603648,-0.0751585333191915,0.8666173119280753,-3.546044765935332,-9.387297554766324,2.6113834193666454,-2.832917812861645,-2.4228816838147496,-1.734877396399717,-4.298030418197229,-1.216127767512412
-0.3917508814445718,4.866251853867864,-4.234711048019508,-2.4057980933003185,-0.0593847166117909,-1.14516916143338,-3.8276984014659208,-7.866172187235219,0.490332214204503,-5.386446731031022,-6.807255404680711,-5.716905235999753,-8.169642780882894,0.3390238063847796
0.9946851842180822,3.8779017637344895,-4.811481385042852,-2.2066014975919868,-0.0890416589307434,-3.3918782695597285,-1.6968065614031862,-5.690970145316163,-0.6701525843947109,-5.768055166478843,-10.045560407018344,-7.31473129951604,-10.370494320130408,0.7382523040969904
2.372112598066732,1.601117686548687,-4.139583267768015,-1.2020513613341264,-0.88986743220484,-6.078617163940264,0.8616414082347386,-1.0690278367388422,0.0912146265989505,-3.838498207450356,-13.85533630459461,-7.825973070637945,-9.507695328691833,0.1318587517663945
2.698765177592643,0.4692026607389001,-2.125620412195258,0.2631844110481794,-1.062222354115147,-6.521710832117442,1.6725804829599196,-0.280661110798423,1.8031530623238217,-2.8793336549642583,-14.06330857337637,-7.234411097282113,-6.692213457267215,-1.1397873779870529
0.9061616244330492,1.7928651643581794,-0.2033183224938013,2.784157166607032,0.051201558389918,-4.338359748294244,-0.0764274665867619,-4.010989287690636,3.956926433124337,-2.1761584196986488,-9.400361179229508,-4.250135318574608,-4.493408679639984,-2.5603684077968163
-2.619042245729224,5.013892666913926,0.0038645912549117,3.142883535552913,0.4199776690869364,-2.3067105778971357,-3.470838040201341,-7.153268413271719,3.752345411322616,-2.964252785717593,-6.193206007341901,-3.6553990025584255,-4.5927672364614285,-3.4231203314659844
-5.7388177341454,8.63407289270289,-1.5625368561711357,1.215816425084623,0.7446637532076429,0.2495688470252406,-6.747457588841262,-11.253244425812303,1.583160630508489,-5.878162645120489,-3.276663112801688,-5.261905495134644,-6.295893482410593,-3.1779218605464417
-5.936433127682344,11.580490287910695,-3.014380910850644,0.2224189846628975,0.3197509073012767,0.9931853615780653,-8.524122977733738,-12.12815743124232,-0.9343666777559962,-7.464772607836543,-1.516474748999021,-4.427537672505453,-7.173390993658382,-1.9937047532649137
-2.248461625717552,13.540488661731157,-2.0351101501612767,-0.4524172020624245,-1.1169763445204597,-0.6930229683847449,-8.47746688938373,-8.826931159037601,-2.3537616950416447,-8.044475166941613,-2.054965297350293,-1.850295722849689,-5.174261468859116,-0.8765912690214164
3.9075444438240186,14.231388262331278,2.033215555086363,0.3969640334467649,-0.2789210805649312,-1.312660704402982,-7.23744048002329,-5.920500917920949,-1.0069387890128332,-6.861200687333004,0.5058086886564792,1.8047196705694024,-0.4270170570747176,-0.9520952380615332
9.6960053631772,12.905596425440304,7.463414593802025,3.44198028720796,1.0791682276158476,-1.48287615358793,-5.835083842224879,-2.233785230757096,0.2468271873568281,-3.079633502863033,5.880514141655024,7.382824644026736,4.605600904171951,-2.401836243366084
12.765545266780286,9.04505414555362,11.453123284320515,5.532549724341631,1.5827818871617372,-1.659401643573443,-5.099308014516061,-0.5772456645600921,0.3149728052055708,-1.5485897855879731,7.660059516213396,8.190242694736444,6.635448448761041,-4.074089736099311
12.570106491738452,3.5997135828726115,12.292014448888352,7.037536706105154,1.5500054936698249,-1.287953804114785,-5.212903395590775,-1.8094534273537823,-0.480143459753824,-2.0932398621564507,6.484859640881595,3.801259719052751,3.69623592687292,-4.277976617605787
10.266493798119845,-0.8086817047440915,10.51299003666429,7.953047342602306,-1.0389607594343993,-1.887253561954023,-5.578070432178215,-1.895034596011646,-3.6468505813779175,-4.297666792582432,2.213721854620489,0.0840374551634847,-3.359208773733449,-2.1617712391426185
7.588072017003959,-1.399835639908419,8.172883766297186,7.635602000302242,-3.609169688443079,-3.453828132576521,-5.15059972538794,-1.6432359143904398,-5.386067833358864,-9.342158445107758,-6.615021808296425,-4.440499956081599,-10.934538636933311,1.5157660364242584
5.735308139334211,2.658758921960535,7.063651925771486,6.32449082137124,-3.640134864312552,-3.153639217166212,-3.175222303691815,-0.7723385556583184,-4.035877746561407,-9.740402863581236,-8.459063893245501,-5.812401307626105,-14.494015133251152,4.884099759938244
4.96939115711399,9.427606401302413,7.416809047773914,3.6932212848236734,-1.881740571473073,-1.0938560995045163,0.1544174588595739,1.3784932329206163,-1.562323440634504,-5.270175119902064,-2.9741536245310685,-2.8398105909567977,-11.2530376825005,6.280860173627637
4.841750499977832,15.416367193708153,8.014528522946168,1.552115434988449,1.2812642993305523,1.3566306899613427,3.7089321452375454,3.0164746418826662,2.150065232981053,0.0466313219767066,3.402952198828283,-2.5240435047778167,-2.1144869067405736,5.319659299428973
4.627005732667009,17.793371658981155,7.371878094335208,-0.0611199434639092,3.7322429345988266,4.79157177856568,6.220470071557264,4.375831118829711,4.893375188721686,7.970158928664596,13.379144110354558,-3.862340076992063,8.658666529341003,2.984472127729936
3.7070261135965055,15.808536258171,4.928132258004258,-0.8663037720426904,3.491404480042321,5.74618434875846,7.243955519771058,6.111079924364734,4.617240194287802,11.594489635260375,17.204477410739454,-2.7775011313794566,16.16485215528281,0.8805916114917256
1.9097401455989829,10.593415825570087,1.4183052215328722,-0.319888303476496,1.4720319179127066,3.813242835112278,7.428933140791443,7.950278263866634,2.8930330123284853,10.093788658445208,13.628014549445842,-0.1886393778838276,18.2326377072804,0.2896855072942799
-0.2711373431735033,3.975081372205115,-1.6766864658497358,-1.847095800197816,-0.4660955712070256,2.426774169093293,7.824994268235856,9.998673852839488,1.637079621232297,10.90260480641738,11.57321175808679,5.537824722482163,16.85798515224274,1.5677341484639502
-1.8619853091634155,-2.5015150596756524,-3.126621915676376,-5.410095000268618,-1.469386577884275,0.7626189306646969,8.819355947895941,12.306522636805807,1.124614963509184,12.4574171955566,8.632484911569783,15.236579016709232,16.357635065676167,4.036113277649173
-2.136115693463786,-7.791393238395724,-2.754363728166,-5.948764748735194,-1.055274597978712,0.4001260933961338,9.649191983889844,12.040782142036129,1.1840504525023785,13.21078338962596,7.329859031290655,17.85963013454888,19.500413521315387,6.297518400838426
-1.421858804258811,-11.168796505878534,-1.5578024209666417,-3.8572608737274208,0.1150942435174424,1.977135748576451,8.933665580896655,8.95554308912921,0.8907609816177393,14.160848179061263,8.999598315728889,13.16216610520152,24.77578366747497,6.885942533486945
-1.135453778028869,-12.2146886923977,-1.0317842130546877,-0.9619600808488038,0.5373399823281478,2.374143686105956,5.799089348073755,4.654223018291478,-0.4199673880451234,11.089142806501432,7.718706811000975,7.065945382071491,27.30259724166186,5.068243505966382
-2.664114102046055,-11.049777703850202,-2.0830377265389446,3.746641481239218,0.3735780760392796,2.0393037573520623,0.693432297439017,-1.6314097417471396,-2.891355269905488,3.6243848563728394,4.236330788115097,-3.0222885476156818,22.89947670516705,1.3791259685969424
-5.8825455685696095,-8.450466887095718,-4.33137774255311,4.327161479850334,-0.0364429648617518,1.769471658105404,-4.741258791535765,-5.165274478909289,-4.460564120221381,0.0795970666487437,1.793109605794624,-7.535712049986365,11.97059974326262,-2.579798090575313
-8.780709982778585,-5.601143456734281,-6.438284710637165,0.2129380631408787,-0.5918792828590439,1.0558511648299431,-8.624391079036663,-5.459202944277142,-3.5806356115939644,-0.0396623152937293,-0.4515486881104091,-5.317431361626427,-0.2327498056069163,-5.1156314210280325
-8.93096738499102,-3.6443316922737576,-7.290090510821122,-0.0505935663545094,-0.8284754510937629,0.9393418393205456,-9.90198786533604,-5.803844489563151,-2.14776049138339,1.3322634923136212,-1.461241334511593,-4.544345034844223,-7.389381743371453,-5.54757905034921
-5.760834792479967,-3.3279916085042327,-6.999325417038895,2.4714556791857683,-1.2881990289040453,1.4812225115887012,-8.78149215039242,-4.96524511571766,0.2490518762010251,6.030954309104775,-0.6644840463937706,-2.8318423234215704,-6.786051199674699,-4.538915667880424
-1.5062018138862907,-4.810765858872109,-6.711125659865548,3.5711103584451744,-1.569126445242792,1.4166341159156857,-6.330042209500768,-3.969674331339127,2.103829799935824,7.273454884844816,-0.4612720710153488,-1.647027208418768,-0.9698221132203102,-3.349846265405004
0.3617899719162611,-7.506649850146898,-7.307079716829303,4.580709450702956,-0.943484111511475,0.9191448886405764,-3.671288401749168,-3.1203490354089998,1.7021109951615694,4.84269419347151,-0.5204164767729569,-2.023216734760024,4.780475453182364,-2.688795624852755
-1.8865236804854584,-10.046785449189668,-8.293080339181506,-0.1437998861615089,0.014196206363704,0.4456556188167858,-1.4484423802192854,-1.2885876585931717,0.9163816427128476,2.933570501087889,-0.4981964061069748,-0.115263225995512,6.616275754166745,-2.245348552496951
-6.529691545183459,-10.70904237471544,-8.130410509835478,-11.653814588906467,1.8560990750869395,-0.2100844632059113,0.1244018225765692,1.2375038543721928,0.2194164577491556,0.0342890711498993,-0.8178195829486362,3.581109538784961,4.250315113080919,-1.3180515937023145
-9.697420609635106,-8.450881150859265,-5.8536772448527365,-15.05254968491064,3.0940831893063043,-0.3933476172985988,0.887877200562631,1.8129389574381136,0.0995494949900434,-2.034497400792922,-2.0310353778645625,3.694168785966008,-0.2406238798854456,0.1693637175282933
-8.689341102432023,-3.955201605056061,-2.3847675503619907,-10.929501248153011,2.188307330473605,-0.0181209593704285,0.5763668483240458,0.3040618458918214,0.8146647349689112,-2.7799414923266923,-4.324276144487354,0.4202030058052952,-4.981499298780321,1.3757568875723436
-4.337016066926985,0.3564991372790467,-0.0623858329863455,-3.6339148429561647,0.7516315629377923,0.0021847181762427,-0.8905712546745441,-1.975404387741752,1.221788349428154,-6.080754318085549,-6.816380853409497,-4.637715055786741,-9.420375415283404,1.3134098565005845
-0.2123397798824911,1.798254846609629,-0.616433602933574,10.184017310249525,-1.5922448424202502,-0.203075605089694,-2.9798535563140263,-5.722258952397056,0.3626900170699146,-11.613511206307026,-9.697342008976154,-12.733468051630007,-13.318276785168557,-0.1200009838455535
0.6207855561644422,-0.5262906080717205,-3.4491856540847863,14.390165707243575,-3.136744096097872,-0.1784382061299714,-4.527198024970689,-6.577386603480664,-1.1882143728782686,-13.628983534239534,-10.22395143022552,-15.147920780177907,-15.46871875920283,-1.9431736415500147
-1.6609974475377989,-4.836986788319885,-5.931139947235284,7.9862220173388785,-1.8937340718168263,-0.0557162973513726,-4.332841515803553,-4.126844246716532,-2.004312120738091,-12.417155547887086,-7.983408389741455,-11.239661701018044,-14.17863274869972,-2.941570832508189
-3.886237229454842,-7.954710721951885,-5.54142064899963,1.3448090251890408,-0.4195296435724501,0.4596928206576052,-1.971426114532509,-0.2870391442417997,-1.6258757718243506,-8.385851567973091,-5.900261028124236,-6.430676153830077,-9.292219167789549,-2.691994363424625
-2.7989277073140606,-7.854468558031849,-1.9274248644137124,-9.411102434039554,1.310429272083391,1.4567507705463478,1.847683242935304,6.1725607632591775,-0.1165483578184011,-0.1135473365294768,-3.2787274786337712,1.476852549305852,-3.4545376465062176,-1.7550201733385578
2.0554648020243267,-5.31238842608002,2.938323317352058,-13.1298602175047,2.322094321733789,1.503400256450712,5.696781762745202,10.021828196690718,1.661833095421023,3.6210053790697647,-0.8480361927164712,7.002507577948344,-0.73361738069298,-0.9477004780656166
7.958568252326442,-3.1259155195790136,6.497692302782298,-8.00876523051679,0.923690279001504,0.5796172382866539,8.313033486258096,10.905269380235335,2.1490916239104823,2.597108732200086,0.9115441658292838,9.343030364730362,-3.3119084764478317,-0.5414087286702003
11.25466438073225,-3.527941017870452,7.530340410392652,-3.1865196385598544,-0.3888249031115688,-0.3052130311878774,9.280245106425728,11.957512742775911,1.121037006564639,2.45564287240594,4.751416045730985,12.847542456600978,-9.12232846336056,-0.1852809074433334
10.06704816224628,-6.077752783072046,6.599217523089596,4.3766753698754695,-1.260790084011885,-1.4565503917535227,9.04829189669126,11.886782928807824,0.2547945216703422,1.2522442200386297,10.508158095349629,16.068133092374367,-12.844824198321902,0.5117131564295576
5.29728202709463,-7.929035731708537,4.964198411284568,7.07679702481749,-1.4452313171319568,-1.9445567691512715,8.395127089129945,11.454415737023533,-0.3244053796391711,1.6264641535561064,12.476591544735442,16.060661891302917,-9.876863463056152,1.484292334084694
-0.4802348656735224,-6.288568427759918,3.341665187128464,3.382216217544593,-0.3726427548322604,-1.5652872619848568,7.842700230461128,10.865683055759447,-0.8936714020360325,4.314503805590026,10.726593055053566,12.88029543950783,-0.210067686778105,2.323804122312135
-4.869084733571029,-0.9709846488403446,1.742575280239783,-0.7805825190801238,0.2781557213078146,-1.6425089500081995,7.46671157621385,8.325838451458068,0.1350613777913566,4.824168731886418,7.770151158785521,9.75575646472444,11.026648012258534,2.7617500450293084
-6.733409201436377,5.120845393361707,0.2314731649551844,-7.670003559459442,0.317552689913405,-1.9491753235079128,7.120674836972883,3.921531483407752,0.1456959325319866,3.764525173445492,2.296518255920473,6.157716934031556,17.010384523384747,2.8958686161589307
-6.156357574362716,8.035461697079368,-0.575874750107995,-9.781326216108416,0.0545575148086837,-1.8878453562001296,6.738269817702227,1.143072352942749,-0.9029648246852232,3.0867266049843227,0.7272667557861081,5.398168704485376,14.086091833160776,2.9172203091521767
-3.9268968733567737,5.751362859659308,-0.0197522976861685,-6.036801764523508,-0.1075757975075352,-1.6297782936531873,6.396864623796716,-0.09526342864241,-0.695097722555768,2.1117258496769447,3.684234610024917,8.425081353922582,4.318715162861983,2.740479745691231
-1.1514264076821306,-0.2100429679878299,1.6715502493459735,-1.4658350906408908,0.7413175609885875,-0.9846817801356642,6.137899151010307,-0.4398860690012403,-1.2793862020311253,1.8736221191519284,5.250079191989631,8.622736509825476,-6.105037810966492,2.061055168220665
1.0453751097388722,-5.790345521401676,3.245776572887963,6.03151957668554,2.028008557332155,0.1475234955701037,5.792834722702612,0.9776166278091284,-0.5456480315265335,2.667348822005603,6.9128427680471605,6.756271114537189,-11.166919390286896,0.8288607280255471
1.9732251227074968,-7.288914979682252,3.474689834142588,8.685950151731738,2.34082612366299,0.5577967341270007,5.026156155937105,0.8849960016626042,1.2754317652811935,2.891553886194738,6.972424598319415,5.718799262097008,-8.650501152919137,-0.4310776848645425
1.779214603832865,-3.9781807421818978,2.370814686917267,5.533062466026962,1.250983907985031,0.2243119675180095,3.563496551384481,-0.7446948414373327,1.4806921722901851,2.808690074424877,4.469907175988765,4.430836391900008,-0.7599203055350063,-0.9345365810895468
1.2771469164453686,1.545008022997309,1.2025183745774668,2.1609684605114245,-0.5311664832904929,-0.1625283914143825,1.4031303717017352,-3.449527475356475,1.416627210519845,2.611815522343779,3.63536732348631,4.7404652040695705,7.958441202138693,-0.3907922316343715
1.133148441457184,5.511714300055018,1.139449054206887,-3.489688541371806,-2.265774974886361,-0.8789252097756763,-1.1403362589860668,-8.076012748495444,0.2090329826986442,2.034498141179267,3.9484824156541327,7.069641989624047,13.286227017699092,0.5642992344815374
1.1471615759323237,5.888140785373121,1.8983772480781225,-5.8312514670686895,-2.5024312215445,-1.2141236183718034,-3.555581261104632,-9.7328434850903,-1.2938975447743348,1.5931875028154023,3.605819457091035,5.631454648366693,12.928184601764777,0.8093338614647232
0.4940273747108232,3.698140225586069,1.9317485859978156,-3.938674648994674,-1.256095125312236,-1.0596745957665352,-5.326359088259744,-8.270903100603352,-1.230884793292344,1.2553586363707407,3.268413442568681,0.5400692239181293,6.957177318117988,-0.2177210438369075
-1.1414156578815922,1.8069057038382104,0.1853575268372331,-2.4025254820832984,-0.6217545580065293,-0.6749663140146113,-6.115150051167143,-5.830569222892512,-0.8891470612496821,0.6906560810803349,1.4731649186008955,-5.150070968821616,-2.22543804014892,-1.801950120252485
-2.6771193144404366,2.396291288355398,-2.2762246117046416,0.3061889249140473,-0.5473089378747579,0.1619828850261861,-5.882199111357448,-1.2128843000445562,-0.2177646044078371,-0.0207444085492894,-2.083737508264005,-12.664636171913964,-10.405384526576606,-2.3207218982983706
-2.1258718651113924,5.369990203519768,-2.612917857827137,1.8581453615323047,-0.7127237755400718,0.8018186556897731,-4.886697288241836,-0.1949098448398521,0.4910635469435068,-0.758706454132099,-4.765698614401375,-15.196446651023592,-13.195935830687247,-0.5427210476734352
1.66846909367667,8.869243233022535,1.3927081830168897,1.639435423095262,-0.8608562992855568,1.236474662697462,-3.560437226373889,-3.2815028337578505,0.4594382906616079,-1.559376000858141,-6.854939588474792,-11.881127298372466,-8.692730633999778,3.1623096685848697
7.534159421899009,11.071889608282106,8.857508864522506,1.7563950711121403,0.1083136601298172,1.2499362313252744,-2.3380810714299933,-5.319652059540656,0.4144955485215242,-2.598271373432122,-8.989862203343874,-8.91374535148565,0.5820858359670193,6.761377168087565
12.253200338832524,11.467220571458938,15.6151713824926,1.492110631010296,1.541159962525125,0.6432825523562744,-1.5603039395458964,-7.633560751796188,0.7026562063948714,-3.876659526634914,-10.670927783163997,-4.584351003612074,8.554874936615661,7.843321186916556
12.736147045750466,10.656184258622964,16.923264967413992,1.487877008605434,2.1272691600073967,0.5117007034359594,-1.4560409465300983,-8.053373627235988,0.8144739696040948,-4.580815983042207,-10.882081903473882,-2.4558070973827686,9.4593695710818,5.370142544477607
8.500221456882533,9.308626419986748,11.139496696370466,1.9639074407048047,1.7303247463372515,0.7934547934306704,-2.088516174280137,-5.687571622384218,0.5365405945990465,-4.678642390510177,-9.426041398385433,-3.619017231072454,2.063116897698407,0.5765162034578459
2.383090164540528,7.541879845625996,1.3775952133110645,2.2138873310210614,0.9896526694414618,1.2752574103006102,-3.2201126924704155,-5.255319746976163,0.0022958732291329,-4.476058276388494,-6.88099691186238,-2.7951795241832595,-9.174537188314403,-3.736163562860391
-1.3277784259318466,5.215072922974668,-6.433434383636701,2.437765648963911,0.4338801691288385,2.198252000005428,-4.267839742407734,-6.185664143925381,-1.295954577638417,-3.7578626234667953,-2.885724056300294,-0.9846813657905908,-17.166900425190583,-5.089183902445171
-0.1209410268229902,2.5399134309779647,-7.807287048267415,1.4518186786895957,0.2611106844068322,1.951291939369177,-4.5781556625255,-6.258669562586046,-2.250156277532525,-3.135145141237881,-0.3308707872232488,-0.4647397453807405,-17.145938148732192,-3.05530659023448
4.624848661135278,0.1975904967737705,-3.0235828548387893,-0.939916239322525,0.2630718750397201,0.4433543790898521,-3.942171910571172,-6.2040278634629455,-1.8882615397790508,-2.632475890998872,0.5387988256499143,-0.6085408054798782,-9.62772465748957,0.4768946311361759
8.45044029026947,-1.1474757129657362,3.1154176004983967,-3.2867022857113657,-0.1208286238660984,-1.0344565041815483,-2.894596865394675,-4.494973566962255,-0.5166807590535709,-1.2785846880225162,1.607714998454475,-1.6475119289706228,0.6450948238299894,2.750763242131189
7.163511795729228,-1.3787406476899309,4.930613674812541,-5.874092458317071,-1.22327275804836,-2.842372107593496,-2.394288342349572,-0.7410433296260013,2.2211991281226595,0.8508343633562386,2.135356941235119,-3.9332951003919714,8.423864651643179,2.218201414829746
0.2289033055958569,-1.0051804914263442,0.0534988332673762,-6.896633706831638,-1.9292735243135128,-3.538426158800423,-3.055949391716034,0.8274744364910696,3.9768093174817474,1.5917022164983052,1.7499479932131523,-4.840707589084224,11.107222647657425,-0.3912516038719502
-8.538310672346498,-0.8314788415712329,-9.053101222489024,-5.933089417833418,-1.6100053032195631,-2.8213751311309845,-4.621530479319155,0.3928952641620704,2.95084876199618,0.9496358943456,0.508644381185227,-4.336224825626524,9.22596016498909,-2.869808510326319
-13.695648625713968,-1.5748877747303638,-17.19382065280434,-6.18922793906358,-1.09259828106596,-2.7030714676151075,-6.19224475998659,-0.428993768138725,0.4342519196598297,-0.7409643146610416,-0.5212133603052828,-3.953739292521384,4.8430528590993305,-3.491240714501608
-12.2613136459413,-3.600694797256452,-20.23833762992569,-7.261059445737962,0.0605538455841202,-2.830548654248676,-6.991763154445401,-2.5375272665665767,-3.4907401050585576,-4.053490140285133,-1.3355991163033134,-3.1112103884189186,-0.0255301586250809,-2.398173097913101
-5.911376008961359,-6.676635763064731,-17.62223500558329,-6.887591119660256,1.089841272352301,-2.540902801318111,-6.899275961297569,-2.8898870288204868,-5.663811657909958,-5.218697764253393,-1.4464337995013603,-2.507695767290666,-3.747417834600324,-1.192629183397905
0.4687440771061446,-9.74212119505614,-11.981868641591849,-5.486282757355253,1.1243675556410744,-2.115532835515284,-6.284452800391943,-1.2237962083064222,-3.5133104993814843,-4.081501135504815,-0.4989129704417432,-2.3122693729175827,-4.853447328665808,-1.1845828233941305
2.6386962671905785,-11.032526359572357,-6.775438130108306,-0.5961540971255284,0.8706885009212679,-0.7651270480619398,-5.465048090708951,0.5439743832747902,-0.235102755209341,-2.343671573680674,-0.1612445358016306,-2.3120868287967338,-2.5485071009408884,-2.0527732540433163
0.090798694914131,-8.917057620191297,-4.019425731119313,8.451340514988212,0.1259801027453445,1.6334056104575148,-4.479218976759228,3.1785712435068647,3.522024048045701,0.9398600101947336,-0.2655766427147957,-2.75114452713428,2.122345338531346,-2.281018444242872
-4.018028279111423,-3.2056280197231715,-3.6124371630145298,13.024525703093849,-0.7448759707753392,2.7338780336796256,-3.385882380963228,4.415676893078627,5.363152319538319,2.2514514826823677,-0.800407510585724,-3.884575258212859,6.065471071452404,-0.9392989600224056
-5.744980142860985,4.08359473803813,-4.1393497984172,13.287905115924556,-0.8803227311521249,2.573639973962218,-2.572274622577193,3.9325693097617114,2.944445849565816,1.2974172298998168,-2.120825841005024,-5.825823865653254,6.05026914602848,1.056902515088595
-3.465918781986865,9.500269844076636,-4.086055524772291,10.481109632111265,-0.2159352686429233,2.241219361079562,-2.4836957323629747,2.350395164474305,0.2060938672238266,0.0795673015190242,-5.1926593185722885,-7.911331253974463,1.571471255908552,1.642648527433046
1.2632399120619056,10.353013002213668,-2.601751730633371,2.433094126976993,0.8392676992868715,1.2169661158176337,-2.9308345439621317,-1.0514463573792965,-1.970981261722188,-2.3076011557134493,-10.3068906588712,-10.220346308957108,-4.147749096038876,-0.2842849559288929
5.411599018451454,6.760229120778927,0.3134316622124089,-0.6184122086593716,1.484964213993247,0.8569547195174579,-2.820102145492605,-1.8324055121103755,-2.819561558028449,-3.068591324357216,-12.315793750266703,-10.226913088143345,-6.543967615635232,-3.4366462535414293
6.951285252262442,1.7447039853664703,3.9297462023250063,1.4977321805318,0.6358339267303857,1.3117008179391765,-0.8866957284298422,0.2131403164245175,-1.2086698767012525,-1.8836272400706655,-11.142938709341728,-7.535163364614611,-3.706174462884281,-4.990152799133291
6.016722465940207,-0.9644823925820027,7.080091198660286,4.782218365795574,-0.4339154462137801,1.5725978031164074,3.0551023034629523,3.5684098991540103,0.0923285663023137,-0.993965227535446,-7.808629256258322,-4.772703133286867,1.7483571169545442,-3.1170698867308104
4.149097929382513,0.2903763739192371,8.65721676492295,11.695224342299348,-1.0697196924289116,1.9784665479337964,7.571574481428801,9.40802403233899,0.5565105542779916,0.2952194597748687,-0.9425323590037512,-1.2787391803412858,4.879070068496298,1.1370536821789532
2.7223650056968527,4.065226891098425,8.209661414809629,12.971802884084216,-1.334713506576917,2.111760485186845,10.5166348311474,11.161543521216768,0.6101392025904531,0.5315938212788678,1.685962999015734,0.7258479302614429,2.7531128326340344,4.494341810087331
2.0364161727250765,7.293978834009203,6.262019395613762,7.946544616835899,-0.2472099761048911,1.8465137564948684,10.744652931385929,8.406232684376278,0.0562498277347785,-0.6525418285382467,-0.2242314507585376,0.6698796714529713,-3.1419720437620424,4.151402499608022
1.587927524697235,7.779782940424225,4.027915210147711,3.208519275199901,0.7985122506408913,1.4490867837215493,9.07888744458495,5.702231459158649,-0.1871145615068719,-1.1130185730400135,-1.3564706873056591,1.7999146686930596,-8.515850312844455,0.165919217339737
0.8741098887922927,5.484697978427288,2.637642227448972,-3.4313859304032284,0.9954135249938828,0.7734196313308442,7.54723941772176,1.4872992512733518,-0.0987358562069269,-1.214604515309324,-3.4533324974495234,3.531280743364964,-10.09308360769054,-4.577414740306011
-0.1607332605422122,1.845953822891131,2.4438316151378863,-6.413231857647848,0.7874504070779819,0.3471223313256705,7.50329451457756,0.0911471683672553,-0.2610810341718086,-0.9221894669252536,-3.2666381846825727,4.449053416076681,-7.916185581412503,-6.714588077876479
-1.273477286508431,-1.723836148382821,2.941568322236672,-4.594072419558102,0.5814726397576497,0.2101821393116917,8.369337341892045,2.3291884946071377,-0.390315695768505,0.1448312233882195,0.0228231305142886,4.959284384018637,-4.34257178402296,-4.952045793728512
-2.250037396654034,-4.595799500873266,3.317636713234654,-5.348814584985206,-0.234837860113871,0.0822288168561467,8.220818429587148,2.610536316439789,-0.2742216555734012,0.5732975334129162,1.0250885377879522,5.07716655577978,-1.3772758261428992,-0.7254157569299657
-2.997669485374699,-6.628150922347583,3.117693383139194,-7.324536076577837,-0.91689849484228,0.0986095530328378,5.706046731808085,1.9684095600682256,0.080009990113113,0.4278994918636892,0.484304256592969,4.611734008157477,0.7308729544629617,3.278967185537134
-3.4395285063320475,-7.686056948394386,2.477614783674385,-7.068466201392318,-0.4677328286845027,-0.1598186921805412,1.4990767607506168,1.7625163413206024,0.8273922519620929,1.6639356024555525,1.7399343257832331,5.514804204369646,2.590425810194505,5.171860739607467
-3.4938655740177964,-7.66846344341478,1.8218708399330268,-5.471412082431196,-0.3408181610757621,-0.7358764144233815,-2.1007116400415526,1.1900412487769798,1.3000244337375475,4.140346250855657,4.08465603395492,7.901310058071789,4.081827858391408,4.759425604574327
-3.2115548225496227,-6.748924734885431,1.4169986578265004,-2.33452023249784,-0.3156090110985886,-1.4327499033604318,-3.0745235291001336,2.396356358524516,0.8593227605352831,7.6292950906437,8.691201220405683,9.652539829658911,4.19759568525663,2.9586472437002485
-2.851929982858657,-5.2462751599600885,1.2210592989759623,2.886170615171545,-0.0907701711343018,-2.366045094420712,-1.3622961950016157,5.573662331726741,0.2263232362274256,12.578776973899435,16.248608156930107,11.155121287743938,2.495487273861272,0.7584130308319352
-2.7246463059538897,-3.264065455902646,1.0828157279959214,3.247306336840293,-0.2655177738262839,-2.49329124411246,1.1510225418865687,6.054212836117224,-0.3674999853215497,13.88015476193155,18.27790270763011,10.711020250938516,0.3713954208399954,-1.197272026219185
-2.9257772399984745,-0.7916786442698935,0.9697215157481692,-1.6407157687159222,-0.4109356462697788,-1.71983633026003,2.227069287911384,4.032520570370286,-0.7903293676105322,11.192644587566454,14.59600319122744,7.776451554412896,0.4781138968652101,-2.362756674771827
-3.2241916379322646,1.6294595670681815,0.9356312232097608,-4.235452914677804,0.1748417943494707,-0.7278533390490145,0.9887111551899892,1.8346630994726671,0.136067587900935,7.881570898236275,10.695782785581954,4.896253497904994,4.55712990136719,-2.156278751870488
-3.163216021425633,2.597469291896516,0.9130855912351876,-5.906976837302095,0.3819224983179342,0.7537644196289536,-1.6151963724116598,-1.4905565264563962,0.9095665738510548,2.685403568993644,4.689560852148906,1.5633179975392222,11.59571732563073,-0.4135400475883983
-2.2337790313332846,0.7620316695176399,0.6703337463462518,-6.09581522379537,-0.4213366807661152,1.264260229993176,-3.74780332148454,-3.025277860088611,0.5569981415549723,-0.5944538560726437,1.6584260698171869,-0.7300070328196568,17.991535661097416,2.0485497618750017
-0.0373006741408374,-3.585642185610297,0.0943430175538964,-3.426268608347378,-0.8858812258222301,0.6207411863212131,-4.072172711672209,-2.3497001632518355,-0.1158410431392629,-1.3571197404765285,2.5823983285399046,-1.429920335638927,19.704641279434934,3.63765696648548
3.470857826540282,-7.956421131835519,-0.4749062532536641,-2.978618055843816,-0.5681968428432979,0.4641456709892625,-2.534738526257435,-2.9584766240768827,-1.7803218988794445,-3.446284315262912,0.0041288616337977,-3.67816747632069,14.841568613276422,3.126194079400328
7.645222112580164,-9.189842876149411,-0.3177769666263117,-4.397137400718245,0.8972563110389176,0.4614528078714923,-0.1932443512005761,-4.196499195871973,-3.2486276460443264,-5.905723522794946,-4.945432480934308,-7.086653946016428,4.921746156035539,0.7901666672337342
11.03042460775675,-6.044594549503245,1.0690744832948835,-3.7115257403001936,2.732939432505857,0.1884310701471228,1.559407577269127,-4.710580753552548,-2.840474830395023,-7.330827423263247,-7.353649572298555,-7.6952494242516,-5.897368002773568,-1.6305746583647576
11.863861212733468,-0.5095827836470477,3.317529053677092,-1.6731643770902225,2.7854527423224065,-0.1362626418864551,1.8052585848861755,-4.949568143118645,-0.939668007340778,-8.083070774559713,-8.11830056770097,-5.731513132115276,-13.060292897629722,-2.3208617197214068
9.153755030172022,3.5625687586991006,5.159197034735769,-0.5394937887104562,0.3416876283626568,-1.3816542228641748,0.5384587570451629,-4.0620931106119045,0.913523661890178,-8.319817375820085,-6.247914328742699,-1.7977729399245237,-13.987869476466742,-0.9710635078004516
3.627710617833245,3.4898900438490443,5.253358735329385,0.1595544009990438,-3.5275522427606667,-3.64690237609222,-1.4207844715997169,-1.8064925960036284,2.705183150092728,-7.825115700696131,-0.7212948724736536,5.043789439024224,-9.30695288182804,0.9186861479674064
-2.300725289890295,-0.0974482206671609,3.3118905733645647,-0.0164362110360726,-5.429844922352633,-4.076019687513918,-2.9409927378786165,-1.429326076069238,3.2893507094877616,-7.109347025818224,1.5961151701913434,8.095052887913322,-2.3283006037899554,1.3849345643099724
-5.7529592560719465,-3.808357527539599,0.5531103591665243,-1.5130100046176815,-3.324073434360024,-2.665496736589375,-3.208809790579508,-2.90857608562121,1.751457094839174,-6.162686847148974,0.8171105374102339,7.021876015761777,2.9025341157952056,-0.1529129003484257
-5.067347122461214,-4.221246853110444,-1.0498554250508931,-0.404097667508882,1.2353238219105105,-0.8332054629591668,-2.09845216713002,-4.005824062758066,0.6633844396381415,-4.149505806600702,0.860269679129539,7.515380309313507,3.887589268668094,-2.2286373378866955
-0.8206777007144268,-0.5286994642854808,-0.267625099556966,3.3582909937872314,6.572105071067558,2.074127582443825,-0.1241147765538812,-5.378416754850656,-0.4360642738380582,-1.1115364157191787,0.312870305791936,8.133529251789176,0.9731448224022614,-2.538001368107487
4.4754911552549,4.938685820838813,2.3166123380780164,4.759008921955049,8.184489956886397,2.8955535851443024,1.86206028908623,-5.128802992598005,-1.279346340988431,0.3064261605182822,0.7960210643857382,8.2929423755397,-3.136341086698991,-0.0509339610603234
7.776052100428416,8.53150028061144,4.608859587576987,4.390901683738511,4.168273101558638,1.280409306792819,2.978708404700185,-2.807155313700778,-0.7614133957249694,0.043390503074249,2.776135387185695,8.693459448152392,-5.357801369883191,3.80335502874766
7.127995367985363,7.893950951538699,4.533832139559095,3.0579031646537373,-0.6806951006845143,-0.3364438508719048,2.596058196916033,-1.9386269951462567,-0.547916970528536,-0.0945353621730673,2.409606085787775,4.880300500771197,-4.375796756730907,6.006301756022907
2.619395363437036,3.439705064450152,1.6105840753348986,-0.2248391169361265,-5.514383378187805,-2.7617165116861164,0.6972303204705668,-2.1270440160732607,-0.5544318518527285,-0.7006389067314941,-0.0430667893190346,-3.436039283139344,-1.413124517491326,4.296985533163252
-3.776910752339049,-2.1680833044417795,-2.6874370136044803,-1.4682747621159484,-7.270103878106731,-3.337838174102569,-1.8066031319029603,-1.9518315408072724,-0.4692002358556306,-0.0627337095122833,-0.6867077755785376,-6.296170594371415,0.9705401405791748,-0.8645012564919909
-9.272324545952472,-5.898630363217606,-6.048873201344762,-0.5705350455242467,-3.843118951917964,-1.5839334821466131,-3.271223410316196,-2.009759935388354,-0.4288700745689494,2.1612796345483427,-0.0293906019999843,-4.058494758916611,1.0958355307771086,-6.354504196328236
-11.615793752681142,-6.179361359148601,-6.959097154423375,-0.9789424301121888,-0.9593421596074742,0.8574891498369417,-2.310744689314077,0.569367582240403,0.2209059494890739,4.846812210980627,5.042579121205211,1.8531841562681253,-0.4663717452891518,-8.52592192818814
-10.041750674366,-3.554285908137615,-5.54149076006162,-1.9156713326078636,1.5770726506917527,4.80058842291562,0.9373433967720786,6.157656559050422,1.6250324499903042,8.526599112396564,15.66542421107018,13.870540088577933,-1.5794844283607006,-5.827553183630627
-5.431691908611384,0.0005487734180746,-3.091623600403665,-1.72276531791912,3.1376590541604177,6.539875033557447,4.4368448254128765,8.397569344375727,2.5658107737072844,10.0870032388698,19.392315330366166,16.947726704304458,-0.6615945858008416,0.1025676969665454
0.231993007299593,2.455622005452611,-0.957435286471508,-0.7490485077401817,1.7219098362528766,5.7192890059441455,5.484424978246473,7.625253670264473,2.1491565998168096,9.2113943291508,16.440860109071238,10.506717759716585,1.7522797097278158,5.676149935512612
4.738758636948255,2.881627588531672,0.1625106163338472,0.998678330194598,0.9223646743884096,3.724602003191014,2.8443917926662152,4.494241486495175,0.7358154547164151,6.323186909713824,8.62743216843569,2.762938214576763,3.535350788102249,7.906245848505947
6.461578395864727,1.735710708465021,0.0854638850470337,3.821996466698094,0.6914832163897204,-0.5074299785816467,-1.997782461541888,-2.50415130080721,-1.5982530202650431,0.4357765692421744,-7.178897412117584,-9.879698529936906,3.1035064970698443,6.2894255220044855
4.90094182842612,0.2265551527198255,-1.2860146722743837,3.4062624520433262,0.0752015730371572,-2.755874688427388,-5.7442160217133065,-4.805041738692884,-3.277938969301752,-2.7800045481634106,-14.0966978234455,-15.080338570373852,1.0425871251322505,2.692642554799548
0.8731779148055665,-0.7100529392127655,-3.936527116933732,-0.5385897911836698,-0.0395991449887268,-2.8200119896034908,-5.791244691310588,-2.1883535795341684,-2.959882165152644,-3.198839853025511,-11.65407989668596,-11.33991456404432,-0.4637437030046314,-0.4091370799619724
-3.752114882411689,-1.0322335080259677,-7.2225413943527315,-3.978844996599837,-0.5745142853703232,-2.605916147754575,-2.258203277584037,0.8585301145127351,-1.7588187874125585,-2.182739551575112,-8.693054783151597,-10.43252915041635,0.0787960553145552,-1.7515570684581547
-6.814541498925358,-1.3290196551459488,-9.637594472725986,-7.862141671584418,-2.19910492349495,-1.059248956628847,2.2109080013341824,6.334299656941146,-0.3810249234420237,1.7461944695971736,-1.2594169853749064,-9.41604593920635,1.7499709224744322,-1.7512472189712227
-6.919865896250357,-1.9457737871234213,-9.515555677438336,-7.802878474714894,-2.932517242917431,-0.2757585257332463,4.67611704137223,7.829143578485818,0.6657488613774409,3.3470163958792822,0.8710917204848045,-8.633048923304148,1.884578994837256,-1.55161018893984
-4.233454757001304,-2.376138823179833,-6.3260226196134965,-2.771044667217791,-2.0245922014829647,-0.3957089288057536,4.192271599457836,4.573565521130061,0.658477314223338,2.5465619560618373,-3.5131054550195464,-9.677254032609572,-1.3560082558269926,-1.7638031099484903
-0.3929005304918007,-1.6194719028731654,-1.3835533432292006,2.043974124526283,-0.6389669495872888,0.2486766283413921,2.2309649577245434,2.0273435043508705,0.1421951452256303,0.4269185116648335,-5.651744109939795,-6.579007930848204,-6.926881833357964,-2.056126793907625
2.5875385113844303,0.7285570320757042,2.882750727284608,7.883078080818242,1.9118255706146885,1.2092165526369154,1.0536539999226942,-1.3939298571169252,0.5082782474758337,-4.345596851852342,-7.896622751133987,0.4063690118724334,-11.379181692213718,-1.749553190871758
3.743619648177381,3.7242223844314912,4.649871558336104,10.105452530953997,3.3736995302397137,1.873189719575893,1.6337869854065543,-2.9389031282993763,0.9732799730532627,-5.6997571744623245,-8.181902039105177,2.6508479801602656,-11.545073707579183,-0.6210692033502676
3.793023230944481,5.563208503957288,3.951486649977316,7.531673949731767,2.2278265792425658,2.383666984472917,2.941271261426918,-1.7306591142242402,0.9392974181162984,-3.4708706810002106,-5.2326662621709925,0.7232976963255793,-7.068514269251871,0.8987292128307178
4.3276750570658855,5.052147367364057,2.3392371454794407,4.934382487989862,1.3425401262163073,1.8039454904579788,3.0205507879594293,-1.6497458894493502,1.4408720477422006,0.0457690125947233,-3.3926082134370605,-1.6987265443373007,-0.6238790594427819,2.1683891833469
6.133583037081813,2.746907324711792,1.2876165354703917,0.886409334158636,0.4308550379481998,-0.0734218845337741,0.7291558627619743,-1.8959402746579628,1.0571740213173386,6.350892108884281,-1.909932815701386,-6.346182156197733,4.201832155001839,2.806522302562815
8.147915241154976,0.5951669121400016,0.8586867048557778,-1.5211537522558063,-0.1192280457238837,-1.577234530243865,-3.3570500564618584,-2.6231912054007416,0.2818935099085122,7.673385478211061,-1.3506437525086574,-7.56343577415535,5.418804141836972,2.7231167245940213
8.212932145917101,0.2581961812406632,-0.1029313652094003,-1.4985018982970069,0.6007609216996741,-2.910171635629698,-7.421630842534498,-4.4400203060165575,0.2878199962547249,3.432478394321921,-2.505009365655751,-4.696978621948861,3.5516100006650646,1.895623160454008
5.201229997316787,1.5820358236052383,-2.4473672106154964,-2.26881778968852,-0.2329472831622532,-3.815202504669968,-9.63971459118914,-5.879361802708859,-0.7180530286271749,-1.025262596258992,-3.33773099379844,-4.020888159141132,0.6321500813287031,0.3854138942401306
0.6052190811386424,2.667735663894262,-5.383254134841707,-2.911287541269324,-2.3003213532912623,-3.9218425583319863,-9.170168648006673,-7.1436769629133,-1.9090003989863644,-7.593333288166791,-4.214343064016416,-4.3001343777561205,-1.4718353176059793,-1.3323716243166928
-2.150082854682936,1.6036495960887294,-6.733693845823623,-2.9057955056800786,-2.994475791758264,-3.287706430996263,-6.416848835568288,-7.189773777557583,-2.092723238366548,-9.309694701075989,-4.567121185819982,-5.033195553695455,-2.003095376319408,-2.2582481618162262
-0.460618305184937,-1.5995308709286888,-4.727535106124762,-2.5421653949718297,-2.065437442172912,-1.6445905466225834,-2.702877726007188,-5.641879977121889,-1.5710687610196188,-5.063401702375821,-4.011076934945935,-7.19536540626221,-1.2158311298073272,-1.4646190396162524
4.9190853955463325,-4.622744287022613,0.2154448153073502,-0.7469855411594603,0.3355549893282671,0.8513058912878542,0.3161182042562416,-3.88705750565868,0.3688383051097866,-1.1117826346207784,-3.2203363401305256,-7.598718668382483,0.155436792554326,0.9170827000171188
9.978497444130085,-4.511849480124056,5.371658170474859,2.6133083172200617,3.803381208999215,4.337738267160031,1.3337007594523982,-1.570215662444719,3.3290639543426988,4.402085135399183,-1.902150863399962,-6.273753202328134,1.286649058335172,3.323767664304313
10.445633373699806,-0.1691208547511564,7.546442108836246,3.9791817881559393,4.977327929818484,5.482785810412914,0.0399464604318495,-0.0495897703274355,4.738133122435181,6.18114790320515,-1.0780919143243095,-5.248282460212332,1.525585593819386,3.6772801614795863
5.286839344359805,6.386762965597143,5.42949671865199,3.348435589660708,2.7461754815959663,3.99054214208594,-2.5934297454782183,0.3654230412042874,3.503148095000609,3.033686024217152,-0.8578887741628924,-3.8983262301893657,0.7360301200583734,1.0554102030365158
-2.308647151715689,11.187230607706852,0.550323436484291,1.7447848718363983,0.3718809205662279,1.3328486172904723,-4.750657782167892,1.7178230931268073,0.6601605159280595,-0.2115134169643636,-1.7646539286248797,-3.0617743141740483,-0.4470245829920429,-3.3144919998694604
-7.406712998747963,11.177583214169315,-3.931964219611814,-1.7207956552844503,-2.137975463219944,-3.4366125980582445,-4.856414129499939,3.676469472733382,-3.186719876299485,-5.138745288858439,-4.188139189688298,-3.039677471659994,-0.8949831068451886,-6.745137738998892
-7.231304049133115,6.559373122120178,-5.5713278364416965,-2.926697714444694,-3.6173498841332097,-5.7155664499691206,-2.6129470111613955,4.979029018490387,-5.468383394514409,-6.939624811806685,-4.162809135689879,-1.23242033168232,0.1737631665728827,-7.011178241990422
-3.231784353847644,0.6358029481177709,-4.193154558862432,-1.6684265240830043,-2.717575681772826,-5.170423885737766,0.8313062904247772,5.8660176183635295,-4.489331776140888,-4.722000950827464,-1.6546773963795596,2.249357990151423,2.465937964081633,-3.939548889698728
0.3459292914673426,-2.842993442502717,-1.5280055338259046,-1.370680154231091,-2.481030190424092,-4.538037139344804,3.762627375113908,6.0639434104227234,-2.3202114341250746,-2.360634204709591,2.6483559707299675,6.258849485778543,4.758140011534096,0.5938522962958359
0.0765823318871525,-2.6639085238228404,0.5342014088160454,-1.1531514806263885,-2.699634957941076,-2.6613666357913126,5.131333830118223,5.312215442153819,-0.2000591342695297,1.5314700299541744,9.790205652612576,11.330866170392683,5.8715610136622445,4.123141282531606
-3.88758027392268,-0.868820467815226,1.443244548250476,-1.1331062721730092,-1.6742000505213912,-0.7118544670628288,5.1448177550535945,5.909377466137202,1.0983975529733518,3.715246006720162,13.32376227329151,14.17605203997064,5.577929074126729,5.220381263376055
-8.086721946958875,-0.5353302885247899,2.0520616309237028,-1.7725740299644543,-0.2233934802246376,1.0968326258292285,4.838522940316864,7.877683288325966,0.567514328836058,3.601597072250301,12.989239705832777,14.433810659855595,4.611682974564303,4.089032754628533
-8.628223115029357,-2.663394857595108,3.4818178569187523,0.9826777787062538,1.260725632464839,3.7738558182296265,5.12829366113246,10.206111734359212,-0.3648908375493294,4.439186135162897,12.530934703750878,15.73964223186681,3.904806544157509,1.978416573373352
-4.21569872785264,-5.152524095936116,6.040621448875669,7.2940202278158255,3.4158443552074265,7.025587001562797,6.187496182437769,13.43658445690898,0.0465411169625757,5.380902983746833,10.424176783335035,17.363256751943226,3.8981014069213415,0.1928279653647564
2.9921727117627483,-4.924951360564734,9.1338341235666,9.66997669281511,3.634634921242517,7.765065440578212,7.534180833634991,13.893765054645671,0.8053331054990267,5.6197709217089615,9.360242058559868,17.24892759193639,4.503589066451241,-0.5103677474936887
9.073132377352522,-1.1496136902392209,11.924919095601297,8.548386954717719,1.5950254807034765,5.780558503878155,8.518331808228595,11.225615681760363,1.6753751264912942,5.474508061735475,9.785784337543966,15.772573565667782,5.430960626357916,0.0194260740502443
10.99280223322944,3.674232057717944,13.78621790601062,3.743405174898261,1.1156299804301932,3.6835105378321766,8.67478076828408,7.7415596874536545,3.435296007622504,4.599420155598984,8.561561323726192,12.134553350185143,6.2613636142764335,1.4589104248314868
8.213481893402815,5.952432529261927,14.082844624568054,-6.610083478680439,0.1276143383057288,0.7418370824346168,7.762591165086832,2.471661919296369,4.394408083602854,2.875185719672007,6.3045891352437495,5.856248839125655,6.247409298563156,3.079752545217588
2.4672587761901923,4.359116314596776,11.911195519143805,-10.973909907462888,-0.6409336072252442,-1.1711398096967776,5.73326707335147,-0.449526967238295,3.685764240750218,1.5581783869416617,3.924732511401446,2.5111021994697005,4.472040217293312,3.8920654992915047
-3.5828525447498976,0.91704510485215,6.684019259008181,-9.256202556187368,0.2886734302123977,-1.556742966338053,2.8569355502696965,-0.5174743246209996,1.8496925089394556,0.6272780222467986,1.0067993685697978,2.192629068151033,0.6970570474120166,3.101896712947763
-7.587534850590543,-1.3090837853939092,-0.6031862612726968,-6.64385991964925,-1.074031834431349,-2.8648775167915885,-0.1322575362034683,-1.4436182141073368,-1.7255165806197168,-1.857528123302798,-1.920670579715735,0.9183459910074266,-3.8168326511722057,0.7437432141149998
-8.137183385960014,-1.4801982604440411,-6.863575904549919,-0.4650022621198845,-2.0636939030503028,-4.571071864076252,-2.215096240934315,-2.206133073033755,-6.020175724692771,-5.760754147904149,-4.756257611882022,-0.1256886542628435,-6.681500719102786,-2.0750192073490723
-5.062214031693998,-1.7312534557706272,-8.43658607276015,1.4169793033251146,-1.3469315232227337,-4.427106113874609,-2.6594574152572363,-2.697808196858438,-6.64556382012508,-6.27302110550662,-5.1798531272606265,-0.8861452000037291,-6.097318344400577,-3.759504328051179
0.310445644132642,-4.528974955342505,-3.994102961588197,-1.7353647690127532,-1.010676228445384,-2.567280203840461,-1.5773579381264824,-3.3435510645168973,-3.213054759588924,-3.3676222606128987,-2.7655209352523955,-1.794808660493873,-2.4877998062189306,-3.372117385012245
5.314360012787759,-9.37212862858793,3.6655335970297926,-3.2575186855995137,0.5394014200801642,-0.9486177949622382,0.0692061640148864,-3.081869960592349,0.4444868630563157,1.4136262966793742,-0.1129742547607303,-1.624558894416036,1.6804714315827027,-1.414078313067222
7.09948147503971,-12.3940097515261,9.071310920505638,-4.968711572313131,1.3627602499994096,0.8061268243580881,1.11114356325794,-1.9687407930803973,4.383069212648909,9.283650361401175,3.409122053323398,-0.4258175062043917,3.995912309187929,0.5314394031186538
4.522908947871699,-9.565001306865511,8.157881302526803,-3.906926575499793,0.4252136639057396,1.5795752460358907,0.9629389735842722,-2.8748573782777056,4.8295710874942746,11.212614586545673,3.605057636947023,-1.619812339561706,4.167985921481588,1.0959298968050035
-0.6475304090579925,-0.5639673207387972,1.6449755770429704,1.0321977690110378,-0.2836910338499294,0.9162860089399943,-0.0922939158883195,-5.849176842674118,0.7615151764360599,6.531222273815062,-0.3072054867011803,-5.262818602040854,3.917184514429621,0.2386752208363987
-4.633853378806613,10.34420364553091,-5.429257155147049,5.030841247639077,-0.7144537853247968,2.251717484791283,-1.3170559912427322,-8.328638898862195,-0.4898084232763399,2.740372404638869,-2.974864351821624,-7.8210925623602545,4.69590095201788,-0.8525423812538833
-4.425189743312107,17.259479007318642,-7.89646701520325,8.970810619086318,-0.1164431583007002,5.383398843546956,-2.202126347829946,-10.885826198610316,-0.4756313216326091,-2.248778425727011,-5.441812164286535,-9.925775640571876,5.636706794007683,-0.9736177900114455
-0.2894364339768542,16.781448429154572,-4.798109406655758,8.654232532709052,1.0002861530237417,5.751152739104276,-2.7966625735742685,-12.122496726880126,0.0118706284436427,-4.997543066806596,-6.784318841086178,-10.298004607483984,4.129268150508462,-0.0525893167462765
4.287155342451669,9.892895989095654,-0.0261356434839257,2.850204972323612,1.1662268376189595,3.713622120194765,-3.4617582319537994,-11.504000295727966,1.7086046504113204,-4.268328145851512,-6.035922512853711,-8.176646495270553,-1.2434516215258498,0.8653903379646586
5.434984212402632,0.5089061043201113,1.2829927916128303,-3.965081205291092,0.7820120824442254,-0.1166063913664276,-4.388950559215928,-12.097153465920046,-0.8128102407254851,-7.183966984854676,-6.772243987078414,-7.26417710060956,-8.379787972769172,0.7142495857980684
2.143999251958121,-7.476948932432705,-2.689890138079249,-13.170837664409042,-0.2225693274675002,-6.761449520378069,-5.400881478638446,-13.546502358833576,-4.420598058407622,-12.902508735308462,-8.598817568669432,-7.177608861764567,-12.69831998207352,-0.5614973278952675
-2.976732451128441,-12.077668589283531,-9.002228318901487,-16.18089088513946,-0.9515674632361628,-8.536129945999413,-6.203253242707618,-13.503778889203346,-4.786405075970158,-14.965752230601078,-8.77078814992136,-6.784375743578124,-11.072484207738285,-2.043431584000487
-6.121641106010529,-13.115531916124851,-12.748211395327388,-11.698059360525704,-0.4161682880313971,-5.044002541316089,-6.761030394007264,-12.36091540461718,-2.533689633324172,-14.17145523443974,-7.739993066874543,-6.75387459061871,-5.083244912077419,-2.804656892746465
-5.67431801516139,-11.202808111079264,-11.392347510312476,-6.333422032002412,0.0932284948976863,-1.3188256508063565,-7.340553619427908,-9.947110142418133,2.0343433050530333,-11.133934970774314,-6.29708675329025,-6.135317272753625,-0.2629253841778052,-2.7573107309089835
-3.472939370340214,-7.213341601314568,-6.755067930253432,2.3193576507025044,0.558482747393134,4.457869377259318,-8.122883958388798,-5.79272117609275,5.760274123682184,-4.519635810216709,-3.992426607859828,-4.877047959140321,-1.6118469799466482,-2.5755575059133378
-2.8861348055275187,-2.4767833362016063,-3.1301300368282057,5.523590864402021,0.678328669485657,6.171741502679688,-8.784192349488904,-3.127335441724744,5.076248167888346,-1.528938159708888,-3.351964615091508,-4.183152423655233,-9.22586927291124,-2.895684436464194
-5.580809769810344,1.151023683910239,-3.5179793997857587,1.9561166463389728,-0.221461496071024,2.835656500767477,-8.54843596673254,-1.9856056615304247,1.1149219305234093,-2.351574673671667,-4.622004045432367,-3.911980375158781,-17.924192048707653,-3.6618644403004055
-9.961552547869928,1.9907603162513965,-7.361561582144645,-0.7280879966798275,-0.8770398269170427,0.579934821136488,-6.793982380534771,0.0475487120781472,-2.1593463621079736,-2.082197972466869,-4.643542551412047,-2.911367664435774,-21.24210867214981,-4.200300495721194
-12.57671743582091,-0.3938864169683711,-11.461972976063066,-4.837733711892909,-1.369791330897439,-2.160278237756464,-3.720163183054069,2.315895979467039,-3.690761918524178,-2.2841624318861657,-3.920334845960757,-1.3175858691142548,-16.38757466833499,-3.831960088398773
-11.046817938442755,-4.765517692794731,-12.815507835279448,-5.966378379214701,-1.3356705260600252,-2.9873618493035674,-0.4188384259853706,4.576245057204151,-2.640352235502444,-0.9830098388409112,-2.2938823591655946,0.0500375894991011,-6.14101945441314,-2.418088107709764
-5.863069887828203,-8.899603514782484,-10.7179058309992,-2.889036364955865,-0.3437193991836551,-0.8714236334896162,1.8352841421851736,7.105698021569816,-0.3016030793084971,2.501238310002817,0.8403354205246394,1.3594171858448605,3.511749934947602,-0.4575214103026042
0.3080751323295772,-10.855246403924523,-6.62117632789483,-1.5525484006126058,0.3042444529929135,-0.3163645253142935,2.5452474905662825,9.096595016404116,0.5115506885057041,5.700061751728393,3.6019563609084977,2.4991801042424044,7.766844972448041,1.2080639149251056
4.829167434479359,-9.866075049989377,-2.472094587306856,-0.7395383786580877,1.0364691324626738,-0.5972824820329283,2.3700206678923905,10.525383786522344,1.0976947914687205,9.229572135444714,6.163533376453279,3.3173469864479266,5.976902049873843,1.837079136749935
6.687318249010332,-6.36456385475401,0.6302203071418262,0.5805237500659405,1.1948510913757049,-0.4997066372328572,2.535998668679099,10.498131157891176,1.2164828412028117,10.2180647575148,7.1099663551421886,2.9185001230994674,1.3726251057520358,1.1913471617665436
6.347153763631582,-1.415844297169997,2.459827549954639,1.5948822157036855,0.327764487253369,-0.7022236265998243,3.743280487340371,8.695398609383181,0.8246621716697518,8.059617528824587,5.8939332668420095,1.1002517848540163,-1.7404149373753626,-0.2528249735594272
4.605448976338721,3.865351372174701,2.965007642807336,3.994234473846341,0.1940963668209146,0.2810659114346412,5.508948136026902,6.009210101926541,1.3640748802000555,5.173432117944909,3.6465750549073177,-1.865448899492912,-1.0645661910656372,-1.4703512608833762
1.9917818015348985,8.602032417784926,2.036951897468612,7.834370835693062,-0.2719941287016292,2.590378049187924,6.537479538920479,2.097154534916358,0.6074179325264067,0.6850951080361518,-0.2171653681925089,-6.3244047488116335,2.3599499156429147,-1.4849064959825
-0.7340821692811232,12.178654804474718,0.0637753416917803,8.48052195926826,-0.9281024514879858,2.489323603948629,5.801878629697967,-0.445271528237834,-0.995912142154484,-1.5070419823724197,-3.110623420479755,-7.831589613367443,5.269043664138167,-0.0931869928859896
-1.992272909472604,14.121122997354064,-1.5924051977971203,5.924695055436703,-0.8472380273495916,0.059209896761682,3.383329004925372,-1.3104695747461188,-1.122575900964558,-0.8491396730787915,-4.80885273800733,-6.059657194414127,4.872107423182115,1.8651196426673096
0.0073753119307866,13.933835386932742,-1.1417465356192906,4.543360800273958,-1.305311375390264,-2.4773925646356045,0.3442986819337648,-2.6999563347004663,-1.433220597323938,-1.0663532467376948,-5.627553923272548,-4.01741307025247,1.2366289586831272,3.0513757185461827
5.567347903177961,11.107646816844294,2.246772230910324,3.483859616402631,-1.08533679304629,-5.887825961247886,-2.196593754014657,-3.9520066924560138,-0.5384737376816642,-1.1720632218154228,-4.77167243980441,-0.5958922676038019,-2.478090573355644,2.67701618159208
12.408452092060884,5.576676049029402,7.482470881874633,4.126189380388606,0.3846181680633161,-5.907212026484318,-3.891615222141468,-3.768857859382613,1.694581983712411,-0.913709847751554,-3.0592966817025284,2.125147950722801,-2.3845865877513006,1.209702620534472
16.734965604371837,-1.4750354130485448,12.08565020623928,7.354358206117313,1.72447333225795,-1.9065065968369777,-5.123962859906214,-2.24341973756255,1.9649133418017504,-0.722901590343821,-0.1994686763088791,3.734493973565508,2.7698139729957347,0.0612326687839868
16.013018564870208,-7.254591605540781,13.9405331888795,7.075245741611857,2.7816231637852287,0.7151687307526281,-6.202273159791389,-1.1503359524945278,0.8959592653394878,0.1700117354073928,0.4172597970196827,6.266475162312081,9.97655593985803,0.4206083498124826
11.09626193436378,-8.414708849872738,12.822712951399296,3.5140489232558845,3.3447828310164818,2.9228436442116617,-6.671065795212769,-0.3304953619308804,-1.0534963815408318,1.7143778907600915,-1.5852566879334424,9.16311030222381,13.77410553590414,2.188242598629415
5.612317551438139,-3.444588322697655,10.406060168329075,1.4882229707993158,2.137349658752946,3.163990424559472,-5.539113793542185,0.5776812164742322,-3.249196007764543,2.2234264585707364,-2.0768023569935754,10.504682852523848,10.446706695540628,3.9612014896581513
2.963173686033315,5.309748917991556,8.781866985800775,-0.0478174233019256,0.0514375867076797,0.342404650695254,-2.3225836020037605,1.1996787710938388,-3.3290166982295277,1.6908610642643511,-1.7852400581829513,10.327550934942067,1.3299074116605425,4.153764784123041
3.577810395183633,12.200770330536898,8.784456305105323,-0.6018036329706679,-1.0048560637182655,-0.2393586065003346,2.089093266917189,4.8774130686904495,-0.6870080396969401,1.800256490181168,2.891133206631729,10.684722326418385,-7.681846711030403,2.3444033667205986
4.889396666578023,11.878172659702273,9.50776617052145,0.6433919994464335,-2.544163548447994,0.9478409007608104,5.721455258120159,11.85010142272528,2.85356074460289,2.2454483152552664,13.050117115078857,11.243652743836144,-10.360390726745436,-0.2871639977815903
3.984926145571194,3.548321918489364,9.315544161236517,0.0863729732352821,-2.966968972794608,1.1408694895569231,6.942420712606804,14.715774104194866,4.888016822530358,2.832290011089558,17.236181113502717,11.465090673408335,-4.879892580489582,-1.815846441231088
0.432540770421383,-7.741371055032687,7.392158210279831,-2.087422731544023,-1.5650465357048513,1.2249564871518357,5.897491550952509,13.76993536287728,4.1209410553156784,3.8385315968068072,15.8739456962007,11.68189370575466,4.752970489986069,-1.0261053894915904
-3.26655445026006,-14.395113702611413,4.503303721322595,-1.2578017820844432,-1.8140458939056523,0.2597980606696192,4.631425093597841,11.282656464551708,0.5884258677916142,4.3259613094508325,12.10895185427598,10.357298771096648,11.78770382616358,1.6837788295407563
-3.892342321306728,-11.842816355296463,2.374008997368492,2.183108897885293,-1.0152302693039177,-2.14388633127321,5.585409275815778,5.589143819061428,-3.414224237675544,4.2878302088602345,3.3416753354829303,7.356280142679363,11.860516359612006,4.59295845307588
-0.3326772947666541,-1.8909434147294637,2.258539839056766,4.615834896435612,0.4311933962176794,-1.7478004672330545,9.55500686824314,3.565526706925681,-5.006203658451695,4.109424855936815,0.6104957308661523,5.284508589760229,6.028720742209089,5.843246258490694
5.372743227712363,8.899904646065352,3.89514102109149,6.749757597037073,0.2119819789831306,1.439034274375284,14.76637624498494,5.62097133115009,-3.285755891868865,3.5759414605402067,4.471612871228095,3.917067674968349,-0.6265524148373061,4.635825550429331
9.467567842085373,14.295176699585454,5.64713968839726,5.0869953324934745,1.5784542756564657,3.651834070454215,17.921092959628254,6.3938704931334005,0.6140320279103477,3.1381367083530742,6.274319571275759,1.788318076418928,-3.419280896013788,1.69545087200504
9.090678990492163,12.569696341602594,5.640090379275762,-1.362063080775212,2.2308649724188028,5.669871954884718,16.496703646160086,7.419499495038827,4.106736475530853,2.827751110581304,8.424690786373864,-0.6555849640296945,-1.6236464840523013,-1.1861443770654887
4.108688109266268,6.61672029010947,2.978552597557382,-5.062329619663746,1.173485405655632,5.377792221699052,10.56511552234724,6.067933602608691,4.593912877922354,1.993845188067704,6.11667610149166,-3.299614761354253,1.7192613020076806,-2.2163379003305863
-2.9195649520515303,0.6680830631228218,-1.783201089405054,-6.751962109504337,0.9733758743552656,1.94498004234324,2.7600195488593045,1.457717410991907,1.7131482867201815,0.7041818149978359,-2.1751293543499592,-6.299277480472456,3.1594192773364966,-0.7182701726227947
-8.377798156918345,-2.947528613009752,-7.060437393864618,-6.966959887469947,0.210400277554248,0.3440184572055269,-3.5177576346983983,-2.3353483364794645,-2.423616739184933,-1.0329776701466231,-6.9386009627691365,-8.563484053757309,1.9632393816359013,2.312018531974616
-9.73034175007075,-4.380269011394489,-11.110833777545396,-4.11364586224704,-0.3460185704459007,0.0550071181377634,-6.24164531760357,-6.062148764775011,-5.459114671841006,-3.3594172289874003,-9.303179304358704,-10.015802104529932,0.1153674604640286,4.649783970630551
-6.999941934012043,-4.61068147658068,-12.85296357683808,-3.717586803171131,-0.0315937461340677,-0.410253817541113,-5.696981549890609,-6.724125009966234,-5.066974931416949,-3.822092433542476,-8.79298488144221,-10.158805674563032,-0.4231856101105791,4.219095194000261
-2.823793791258709,-4.008949099097379,-12.355414355663696,-5.623040251508532,-0.0660043215049627,-0.1436913535397628,-3.745256728941968,-3.3372108158264737,-1.560706366801449,-2.2439354955213857,-3.402970190183365,-8.598547994117546,-0.0581830795188125,0.6159602399313826
-0.9560600054246606,-2.6200935571858395,-10.837286062915894,-7.247707265985713,0.0531567629415672,-1.5894958308113052,-2.251371029729484,-0.7399583115246315,1.6500737034085404,-0.5414083595450347,-1.8131115730558487,-6.7374018641075,-0.9171228177178818,-4.365299242277501
-3.8777267938947935,-1.290833499400975,-10.029420098164737,-9.71487604268038,0.3977700990163801,-4.923053324051369,-1.949599698115492,1.9380995359801645,3.696590942055644,1.871346730888443,-3.691665317755791,-4.351873774525693,-3.941084189105681,-7.804408082489459
-10.878256855752085,-1.7137076768952966,-11.00227050926614,-10.01021196836316,0.5890234865120616,-6.155297143796303,-2.390120786054098,2.693156794883908,3.393602812215902,2.0544398346640085,-4.462942884059611,-3.170408752307191,-7.033873647740848,-7.691222285154254
-18.033788987782746,-4.874744997513346,-13.146398717029882,-7.731986401943507,0.1510852496930617,-5.62005459786398,-2.639831892394397,0.5023288742385055,1.0381242474687205,-0.4904759440169653,-5.811302079821573,-3.6190266506479993,-6.635676209434877,-4.382235361378776
-20.496471772102893,-9.523956340525244,-14.288806607637582,-5.649958584264889,-1.568150533465129,-4.8097306886982,-2.0046599653155823,0.3614187491296267,0.3942157188094786,-2.871891351504934,-4.497283226172016,-3.703763740658579,-1.440853470055913,-0.2766079677754476
-15.8380979096178,-12.62236182874662,-12.27061931937125,-3.0255456670090086,-4.060764703668838,-2.9565289827246213,-0.3671439569264407,1.6787692558656555,0.5412902153237762,-5.874784497700856,0.1517294569957843,-3.9373065975160415,5.552891131048583,2.045899763064142
-6.094216481103757,-11.75698083439599,-6.967904782547365,-1.5392900032662522,-5.0363986708154656,-2.4910306655800296,1.7856760126180546,1.464828516932202,0.6664992459922505,-6.788782712892375,1.3390626115156343,-3.82621144219442,9.102568688507574,1.6879453696884497
3.2377070304087567,-7.326493529772865,-0.9634446949000512,-1.702024186028732,-3.187402881293815,-3.65984651031908,3.493147838217485,0.4298820856272851,1.0481257295060589,-4.993777092615841,-0.4193099715788069,-3.07191010133361,6.260887996473347,-0.2006851132636278
6.824690723302758,-2.2870432621632792,2.0756983093741783,-1.8669878583257824,0.3193933777434667,-3.691625316396597,3.682096764967097,-2.441711333364092,-0.5262430267042155,-2.832324114073992,-1.3969691797350674,-1.8689722658211168,-0.8614543259348868,-1.7054235494800678
3.208760241836808,0.4412932728417011,0.2769908754019639,-2.5938351187317696,4.616955179150498,-3.0887896136933395,1.8194008797693648,-7.715883385991255,-2.5655935555719878,0.5329105583294561,-2.7931989905940124,0.047801516502232,-6.822723712804468,-1.8140485293313304
-4.186427659459348,0.4769650571968356,-4.667734323663929,-2.4042021347879,6.366040114061692,-2.428954859416016,-1.4946545353872909,-9.901286782636175,-2.884287694457375,2.4368827094741747,-1.700218018417213,1.4482863845659637,-7.495833455436688,-1.0060068575131351
-9.53901968292368,0.0037530204428009,-8.482958592547448,-1.0263022620148023,4.113221771048437,-1.2914516254886366,-4.631334996749736,-9.007911769966594,-1.927337561631072,2.453721206114629,2.567157552736683,2.3162273084423357,-3.295574669696535,-0.4222246107288114
-8.713070488081982,1.3570736253743831,-7.408098715302373,1.690037307494734,1.4980658119456507,-0.9706912347734108,-5.964527149407516,-7.753543578148272,0.0429218153929872,2.2744882040183048,5.582237377947668,3.146152563289508,1.879214045172617,-0.586990783526602
-1.9215145506172175,4.58173900877874,-0.9756872422898936,6.3045679493997895,-1.1379393620357328,-1.5452563364587204,-5.148155096694438,-4.908042753693648,2.1072964959155875,1.1207039903470897,8.041308677871777,3.646553454823525,4.659631540238067,-0.944781588743453
6.781900852671242,7.346068193838548,7.694739838592511,8.958880923761699,-2.5173498423833065,-1.328002128789304,-3.500875408413848,-4.024327148459293,2.47980420617713,0.1491971788250916,8.205578005293631,4.952299688415173,5.099289291356499,-0.5643034863601599
12.471357653865924,7.247127723335339,14.199980041182355,9.629730195452174,-1.5050081188038378,-0.5341228657351107,-2.9993089810543268,-5.5299529680556505,1.2361023333872756,-0.5097998272710849,5.081973985670341,7.152031948384352,5.710319287382404,0.7906968357250435
12.495249905077628,4.246950494449038,15.883784693796684,8.865903514279477,-0.795214728709662,0.8378845381765592,-4.639440852055685,-6.426537166188783,-0.1139780669292498,-1.2448237511887048,1.6885778082420688,7.78343441558942,7.900159626918594,2.320757609321788
7.84066329179845,0.9532570897095808,13.400123098864924,5.653186976712322,-0.7960783344639277,3.135468948978654,-7.575605681075302,-7.590144549730136,-1.1706205076666565,-1.7326387723403571,-2.686447963767843,6.948800688466822,9.698069740067496,2.914787756338228
2.260454736256463,0.5535539172371671,9.93676437228956,4.35714262859411,-0.737162532434441,4.366434591366851,-9.791992332203137,-7.953396374781395,-1.2772532255304212,-1.9667823946078165,-4.6907796268429465,5.565813012394718,7.343252539562627,2.2340437169690404
-0.0110995768502561,4.270861867729536,8.909392679355904,5.001679474956209,-0.6726701575808163,4.5144063526887726,-9.70833242540806,-7.083989649897321,-0.322133006363343,-1.865322701306572,-3.5837409109152074,3.100089359487602,-0.626144215097014,1.1108958310592243
3.287600047144366,10.389272151320055,11.72974528861394,6.250511492986378,-0.2373704939718114,4.464018549685332,-7.353148980567795,-6.875114365200612,0.3456591657530024,-1.7375782563800684,-2.449588173687536,3.1745556456724517,-10.813454241443935,0.8458764874252722
10.946399060278084,15.379069179334891,16.921197815521907,9.158642919069374,1.5582497891174771,3.753691362250872,-4.215207051230436,-7.015730751459496,0.5656741909806389,-1.5519760744999145,-0.2749849212072179,6.119680771569499,-16.74068888719094,1.9884178528274103
18.589614485009463,16.085044278688997,20.96135227722561,9.72749603201216,2.9925337619395544,3.615189845471212,-2.0510062356210312,-6.323621033991375,0.4949390689081093,-0.7952454687214132,1.299866271977647,7.551701630109552,-13.78053761912784,3.6845510956205487
21.00931292797728,11.54338745226812,20.366540323767765,7.773151962225802,2.6007269700484685,4.159642162469991,-1.6800055265966591,-5.01130109065964,0.0488327887796496,0.5203845827379908,1.852287247654077,8.200370362366623,-3.067988165841683,4.241958807539419
15.536844324083091,3.568671720856571,13.936062893293752,4.000487144645378,1.407340836430761,4.343572820716697,-2.600655366904021,-2.7732703840723008,0.0744964628660238,0.9152006241945886,2.2770467973810478,5.114966653262984,9.002548846923844,2.5496623639585323
4.30273528556404,-4.055762133537996,3.8571651440742585,-2.696851620905429,-1.4158225702840257,4.44752278276303,-3.502052851240535,0.6469101848874307,0.3690389135227065,0.3754645945680726,2.01132809446377,-2.807505880818827,15.317678058021386,-0.7932212105891381
-6.5860002158432565,-7.475086190727268,-5.219836801090565,-4.941603579241915,-3.86669554364658,4.502000557587701,-3.1668040897377523,2.286550679725643,0.1136115870608913,-0.761357729466471,1.2550745803938357,-6.614842605423297,12.941633249641342,-3.670552310595724
-10.911017157969326,-4.949726217214021,-8.894172740785933,-2.4159825217020616,-3.5466894462365026,4.382319547119917,-1.1955787808404637,2.0629417748726966,-0.4200183741198589,-2.88433630712024,-0.0603761900522461,-6.809458105728592,4.667848424204749,-3.991868548447997
-6.680639407958068,1.9146928008331088,-5.921710735441423,2.3570482199575915,-2.123287682367093,4.566394150288423,1.7681595994375243,1.9840378839998964,-0.9263212871384708,-2.8264187232910443,-0.1452793187363452,-4.25054768935993,-3.5215502925324245,-1.4547031618284336
2.3962905983916585,8.917419217270918,0.7701993884568026,11.31920643245826,0.160101774432203,5.053773658970999,4.378385316857987,1.3894130401039937,-1.2781840224148426,-0.3894083434077577,1.1756674207807585,3.149369963939983,-6.724340306581837,1.9531846615047923
9.613370383437712,11.796782910537672,5.951453535835469,13.32977595444909,2.1670203494717755,5.090286178702821,5.3567058126766085,1.522645088466366,-0.7553656133453637,1.3805906312232756,1.620339070889227,4.586587788419783,-3.9658626652091584,3.313241719499729
10.131916753168412,8.919554515119273,5.690193416553058,7.655784974961838,1.998996498130876,4.726478536046822,4.330855994009767,2.6949739681152893,0.2439125137596494,3.154282846202812,1.5531001035175498,-0.1246940962106908,1.8849152253324064,1.0772332203211192
4.2269719680256514,2.210552843268744,0.0367003081238692,0.6255533506414374,0.6745550927891224,4.187541179376661,2.2069748654508032,2.923068410319412,0.3905286509133555,3.1916259243158724,0.540588429857466,-5.387126866785562,6.4283059396969975,-3.5258651928086806
-3.486132328791569,-4.287325572437709,-7.280384909176547,-10.565848205308884,-0.1951484103493707,3.313738306140604,0.6877835796726117,2.499028297607316,0.4398541873625169,0.8500073529001035,-1.886602917173085,-13.667494015271863,6.486866284657339,-7.24131229639724
-7.918150791629074,-7.052399870292078,-11.84270238817868,-14.01247156058852,-0.5877159157633699,2.351039251986348,1.1041444308388293,2.6724111646663795,0.3683461409242796,0.3686457780299195,-2.4964300175268046,-15.859778795169472,1.7930903316076865,-7.241142433975682
-7.179190317883723,-5.052064505979743,-11.73596934656237,-8.345696559982109,-0.381610086527661,1.2992035092230247,3.354740996911076,3.195955709463888,0.0098667058255273,1.3597480815845129,-1.328831356781416,-10.87074596504204,-5.039243892926791,-3.3545787715357847
-3.303624660830309,0.0165398762072186,-8.434064197729157,-2.8801584842269787,0.5782949767120736,-0.3544008971515691,5.838330867116156,3.9473692687322575,0.6285085039786513,2.5669287704691817,-1.415932080891856,-7.922199668735591,-10.115069768228269,1.754468378825493
0.0215311297868368,4.935807367388733,-4.9946565468953565,5.419337203615411,0.0498807733404089,-2.6009726599834058,6.569266946049879,5.137274511242312,0.7754444208862163,4.8002336941889086,-2.206855062451171,-4.896936452926158,-10.614921930488052,4.638300808919979
0.4183277166341526,6.673960885575184,-3.4756502511359315,7.211495670875855,-1.178966853462666,-3.923748631201101,4.672479869162046,5.014392647865086,0.077935466550807,4.201645308707326,-3.754830928139445,-4.045086811706145,-6.603599652461952,3.677880457150991
-1.9184060024318088,3.793738544714259,-3.831739215109536,0.7138835104366007,-1.318361573301205,-4.305511477582766,1.058306040860586,3.47288107556886,-0.3691664515311537,0.4654975393280143,-6.604217558265892,-6.929347399863835,-1.076848878896172,0.1458716055935411
-5.152284364546617,-2.860306605649768,-4.815124343088783,-4.634708261089239,-1.5990272320783712,-4.618184127173075,-2.270766179434517,1.8864598351034787,-1.2240996351210551,-2.806606352752536,-6.993303735627611,-5.673823517281435,1.985287314662159,-3.049851388524445
-7.543164619733176,-10.463400046898856,-5.483750073576928,-11.362124690728232,-0.4682275890610922,-4.515481257298448,-3.668829266038543,-0.1457949154089135,-1.609830821990805,-6.464099503511558,-4.834959507373575,-0.8933948661531925,0.3800635591360901,-3.7667934419242783
-8.365179090340334,-15.554275771064283,-5.712643220400636,-13.604590178637917,1.4878632061497237,-4.552944813173935,-2.839250794932063,-0.614831424131461,-0.8589893322434062,-6.857048570650541,-3.223055367118449,2.4288361996166605,-4.663260678728484,-2.132670175751869
-7.643893816025937,-15.912419980783923,-5.5638590721026375,-9.632439929378016,2.028386295589701,-4.834247282771882,-0.6822440038549473,0.8382680344324607,0.083560459980465,-3.097183209628969,-1.3953497742072851,5.568423954483489,-9.202534866010936,-0.0284811201020644
-5.5961928743654425,-11.884267377539814,-4.701437082797142,-6.243037795659307,2.651127125006885,-3.860344304450561,1.6061248480418442,2.448215396145306,1.2565923581298233,0.0739471940875796,-0.7296753026218699,7.114620146692904,-9.280813536766942,0.7742100723877527
-2.645109465575139,-6.201003551159811,-2.782772702579706,-1.6196731568017586,3.331703787365574,-1.6760960078650593,3.235134897754268,4.783579046115132,3.0880958401283154,3.6604894260577834,-1.7976739313053731,6.222487064976034,-3.769347053035304,0.0762777360091533
0.1507274403135454,-2.3125670665459666,-0.3525961253041707,-0.235350840738972,2.923000841868712,-1.2940367887225372,3.836930403538812,5.189728769190968,3.8697985460038,4.235381271323127,-1.8871239603256005,5.158619744820934,4.619155734113331,-0.8892846802871439
1.1589986426576644,-2.3490989396126665,1.033109570480839,-3.3430500961072136,1.9002902669707875,-2.6337705642696623,3.1686500644772657,3.238624159155389,2.7744530869059765,0.7283077128750846,-1.3966219017047865,3.337054929443551,10.879535880565577,-0.8642140525492366
-0.8115146325971443,-6.053671150687976,-0.0626689105626328,-6.663293213497173,0.1329167312941461,-4.967196822359576,1.1240008624955244,0.8430530512175568,0.5125798597896183,-2.583425519388075,-1.6536979143481365,-0.0091020075632047,10.828510330381867,0.1861302368072923
-5.255724960025009,-11.23352743586791,-3.569062094714217,-11.642364695585451,-3.383168343581272,-9.021307300813712,-1.8832249334588969,-2.7633186026879324,-3.708505844786881,-6.785891912967233,-2.287208216385169,-4.69553649751226,3.758722165399384,1.112580538933779
-9.77524656497874,-15.188414083003652,-7.711539468325834,-12.58157714390224,-5.794640475971945,-9.677475957995714,-4.734060628321455,-3.889944785988789,-6.3985871096116975,-7.051715928492918,-2.389537380878664,-6.480946410273629,-7.04220521823283,0.7627188156524785
-11.478405439368316,-16.084308585094377,-10.32720431997998,-8.575456046839497,-5.074537353347872,-6.615360525406629,-6.094603749350858,-2.0767202556857383,-4.771928440637268,-2.3518754375841304,-2.046607908621647,-5.065896407135662,-16.139543844396325,-0.8680964548574934
-9.044952483498763,-13.573568651350094,-10.493265419278238,-4.238553947069955,-3.3760671292782964,-3.6390945411457616,-5.3139950970713805,-0.1582302463485546,-1.5851392607754415,2.6890655467348257,0.15319344611449,-2.9628949858352955,-18.91608743393096,-2.564225892663518
-3.772527603615007,-8.62349338735742,-8.986314193072051,2.003862671177504,-0.1576391077696093,0.4459966854642377,-2.930817698738608,2.83698598760209,3.1090659738526663,9.487234947314851,4.578034163718504,0.9393817807393232,-13.8966746877633,-2.9105004460525805
1.3214372827967011,-2.9144962603646505,-7.290198972661869,4.261485063997289,2.5710640846477784,2.697637897017844,-0.2886217957533503,3.3623731990545505,5.800906595497707,11.789831133981693,6.1961913492296485,2.168447042230786,-3.3277787225016127,-1.4756471429080025
3.644799518365751,1.851016152809052,-6.2467744128666,1.572320925140996,1.9674602818924043,2.441119370185965,1.4130608994407297,0.8323316348710272,3.195901990458798,8.50996449710062,5.092057767268685,0.2061896379210624,7.992752200678446,0.8345223185158943
2.7081703565140387,4.554222836813153,-5.6040283138601055,0.5994826862167703,1.0179002120637972,3.70157963314872,1.8216646790136155,-0.8618972205961386,0.3350916381229782,6.319098902127758,3.172420871769803,-1.2483975911895246,14.933558301489027,2.4910772033322104
0.0942847245130664,5.0450650252499045,-4.649102762191809,-0.1010220532263808,0.5933150734657019,5.737477180602786,1.3931942814977063,-2.604725412392249,-2.074038108729954,3.593808050395706,-0.7139661010595346,-3.3145322559574213,14.43167055044728,2.5069467318951624
-2.03684684969722,4.12734052003912,-3.052418187684985,0.3489698490200236,0.1325329014617523,6.195109069840259,0.833389286730899,-2.9912793821778902,-3.313163629680312,1.6679990798264732,-2.3450371583164134,-4.07670465764933,7.178888495438294,1.1478992285411709
-2.528277507162421,3.0668059117220707,-1.0511238665256784,3.042612614461887,0.9456782827349716,5.508241913302736,0.6127113033211131,-1.3158910121382137,-1.1847097180180188,1.5759988047722613,-1.403617874822079,-2.961470024811107,-2.379675349863682,-0.3183260137956551
-1.6610988991939664,2.867942124440773,1.0190827067029105,2.4561371225453223,2.1622498603476794,4.339242767839401,0.8870776322670508,-0.6380609796276122,0.5302521196216163,-0.8205036494958101,-1.5430638839878588,-1.94491293488702,-8.28637325483463,-0.6252425012429583
-0.3713405304779655,3.801393850191012,3.138781150576989,-1.175456762912676,2.0022447536081263,2.3088026468272904,1.6527824210928657,-0.5165276795161524,1.21948399286789,-5.057762838667585,-1.82619937996888,-0.4171129051937038,-6.759552977380103,0.4850950935886544
0.7863762131047167,5.48889432900036,5.454254386507046,-2.235830284601465,1.1151008229578947,1.5438317397743553,2.7918587863248945,0.4368480876785809,1.7850315153997571,-6.350299693924249,-2.080776441201194,1.1130663191823509,0.9892839584159958,2.021429446354219
1.936349483501914,7.340909445021353,7.79153267594404,-1.513289737447473,0.1625515539808105,2.2528268636623934,3.941291975511149,1.7901661267300173,1.445952068998815,-5.0552398195450285,-2.7655994173908964,2.412725940724988,9.213319074134915,2.5121096450221785
3.3217065384806546,8.836984618148975,9.472435428644118,2.0808387171657,-1.4662676827610377,0.616043965189391,4.463419491127453,3.7160781475078233,0.4131643768957995,-4.158027235118554,-2.617428783239545,3.095711901136728,11.604576595498829,1.2465338807824082
4.648205623777727,9.432851166478386,9.72882093440954,9.79653217437122,-2.5267814271595403,-3.061125456565388,3.771747865227937,6.396026470410988,-0.7799187060222978,-2.804852725764738,-1.6764423933237158,2.874647238672294,6.046045425073402,-1.015004803827651
5.142056325593899,8.463997859134068,8.35976178601527,11.801937765237016,-1.9180371593652572,-4.9194649537183714,1.8675477299179164,6.932818689793641,-1.682398897849874,-2.985637974440926,-0.9267777014533028,2.862293809827024,-3.667902466348096,-2.5524652135487718
4.350562591599584,5.530929570834999,6.019011635163707,8.067318586230538,-0.7535697973654928,-5.4503114582088985,-0.4062007154685005,5.160327028167504,-2.0205488560094484,-5.272800782155461,-0.1591171327667493,2.8901687908670413,-10.724566704567678,-2.110408533664668
2.873498346170493,1.2128113851449882,3.876240083524465,2.227366674460752,0.1728646708326027,-4.027188982264891,-1.7702774423701158,3.630889666505375,-1.1446456366126407,-5.252071956921808,0.8351522217704601,4.595876334373173,-10.53310295436576,-0.0420654219108769
2.156149367732638,-2.739114730069744,2.932728804783821,-8.063404138352054,0.8996040467930041,0.231627793876483,-1.39457447001665,1.7074761930003362,0.0009730970655301,-3.314919194407757,1.9187534669158084,8.351058481095187,-4.005393449625984,1.9120931411015647
3.314285765941605,-4.348042681574583,3.4778251336596213,-10.829463846359294,0.5272535222382873,1.5217158736675234,0.4221883842770211,0.9459110499888338,0.4576227062247896,-2.309340799748397,2.472569504852748,9.693771562148507,3.707931735321381,2.1290408664146128
5.961225627015864,-2.959324603756912,4.968775577739649,-5.156842487458585,-0.4014518351204295,-0.0982331345185279,2.4047633542835314,1.8519079994124028,0.1182307266868629,-1.5388418720350638,2.422773818389347,8.828684094870475,7.646487895174985,0.5784918535262449
8.185548076987672,0.0387790393786389,6.318741087461902,0.8133764087332442,-0.0303684802494642,-1.6154505688097187,3.256199284087444,2.3827540838751657,-0.6374630294613215,-0.6006406345824855,2.220322983045292,6.481826726235675,6.667298288961433,-1.1164292796162272
7.899776462865162,2.2123850348681344,6.431842010688612,10.0185493329341,0.7933033454211513,-4.275301714210984,2.67423235839302,3.0240866585866755,-0.3740053965445145,0.1264142367195045,1.6894060699083795,1.6091299203324252,3.3690747694666783,-1.1409182062026415
4.517552189240824,2.06528517638759,4.787209221820277,12.92551741570275,1.3946534268695132,-4.3845597436290085,1.5718318612214333,3.4932991771255675,0.5764724820109727,1.4239609801119917,1.2184320926472525,-0.0635763833423821,0.9654747310969896,0.8646755175998493
-0.4899209215366724,0.215347430528574,1.8110183597396696,7.98484175085196,1.5401617304601454,-1.4248574627950206,1.2896300767609077,3.4880784850059494,1.4580482380107562,3.301498840850445,0.8703132639959099,1.6708460184488674,0.3798204275364298,3.4966282233112977
-4.670427583405406,-1.3219990669547883,-1.2403345743051162,5.569823116828525,0.0936249847083315,0.7695324252055646,2.453223658056281,3.061691412889858,2.163527602691735,3.041549262401532,0.996324237146466,3.0379298084814303,0.1802518894764944,4.850727341591785
-6.343010875856059,-1.001626466001312,-2.9382048835080354,3.323327797420476,-1.8472994681657997,3.079117176612768,4.45006629300326,1.9902033257671852,1.6350085879909235,0.571822351699571,1.7694559995511416,5.326717298741533,-1.070553826526286,4.1076477364056885
-5.48034673048948,1.0396452283148108,-2.511807281536228,2.68259681590939,-2.6342459811977657,3.722438016975467,5.955544986369567,1.210667209203371,0.3136000431968109,-0.9928882382209832,2.502453037023397,5.43341960214569,-2.8171715894132845,1.9984968148374591
-3.091843804603222,3.454944470349176,-0.2533797526612318,5.292095267838296,-1.9892378917688185,1.9657377745191755,6.016319673900071,0.6928654652160233,-0.5331907425037197,-2.135657053292737,3.3247467956236174,2.723644085387203,-3.037355513779616,-0.0843462161637873
0.0061911360568629,5.126310832416294,2.7997764830990093,4.011570473514041,0.1414857757540985,1.3114116026411335,4.732644202869345,0.1024837881838473,-1.2109956986850956,-1.8449715116947083,2.798469936360131,0.8171273283483271,-0.6826521941062751,-1.2769321408198664
3.6072701254579727,5.995881196023177,5.577643489579238,-0.6609855999943081,2.567643475957945,1.2418651315643097,3.003826081953605,-0.3593604144801248,-2.0411127955817845,0.5788791639215547,0.664460281776245,-1.0874083135486614,2.65546176453644,-1.6046358204847166
7.330813788130257,6.555809694064614,7.427547826132006,-2.19197808465065,3.202793707859759,1.431759784770613,1.6876720750358558,-0.7130943436388555,-1.978712292401088,2.3819553973425127,1.4086135216195173,-0.6961999067432032,3.83066998452756,-1.4388673968419283
9.760800927344976,6.783015232488129,8.003158324082385,-1.5537495432397808,1.6645325272075486,2.5019003887703324,1.012348484149392,-0.9413605983993594,-1.0028685696894364,3.941604180841959,4.947154366110809,2.756864134415296,1.1663678662702637,-0.8990745786697047
8.90829172747302,5.846113729584914,6.969117220043664,1.3012276471316078,-0.8962194096765883,2.719964286247921,0.7073442219390103,0.1719904134612579,0.1694814588304235,5.994805837378788,10.125215481507269,5.810361808948808,-3.464870151603236,0.1118004100304688
4.000102552600161,2.983547049908349,4.117176591083034,7.680405863369667,-3.349588214573105,2.1465629363479453,0.5217520662883146,2.76555505559893,2.854033461985985,8.09169060194173,18.023573266403258,9.15202420712393,-5.686800793859732,1.4519517092306875
-3.0712862461765944,-1.3633265763692926,-0.0577957178828434,9.221778171291872,-3.6573121387235408,1.8855543311101528,0.4422898544858284,3.4071762250532847,4.520538470762654,8.956350568276237,19.816227932829623,9.869820703450603,-2.133832576485432,2.5898155555543454
-8.375315672353057,-5.383370808912819,-4.007638943111218,5.778928813634314,-1.4371203950674716,1.6273616447820098,0.3859858317093803,2.1648377024183185,2.9636027784674743,8.425133572188747,14.88304276677328,7.119744753598155,6.514108737529991,3.04070986133933
-8.570334672680884,-6.965417035437202,-5.710289493789215,2.315608673401794,0.7207047881918192,1.3122401542338495,-0.1280552396363639,-0.8253467357719985,0.8465561424166844,6.418777312765346,9.796588434973186,5.556143084951518,15.58545828238288,2.885450167957305
-3.4546662607835863,-5.121954212385715,-4.017919023038139,-3.028130498532908,2.111749191270872,1.0701585672356049,-1.7187068000398806,-6.467745996134668,-2.9213994547145017,2.4569003561133584,2.4516498605482187,4.39085525252346,19.582116878850407,2.705411398418782
3.782137026207506,-0.6481185738531927,0.3042508741000311,-5.222217891178129,1.9457265154778816,0.6172228401734422,-4.395233644973763,-9.004657924020648,-5.59797338100668,-0.3640991298841318,-1.1015943436922984,2.6640118893398395,15.978262625296445,2.9313633323809256
8.879346424984359,4.351510106663642,4.8756213593638895,-3.422925008076315,0.2528477115651206,-0.0326762480327554,-7.148454125915652,-8.317885870027798,-3.8784706146850194,-2.029261406355352,0.3755632921674842,1.0951140212778825,6.819154433672869,3.309454973425946
9.44251084241969,7.575314067144026,7.25302562658432,-2.6730161768833813,0.0059591529734609,-0.6665396036019523,-8.535123622689895,-6.863939358738855,-1.6677814068510526,-3.490255091884263,-0.2028635898857027,-2.3972309659540643,-2.8560626863698784,3.106485148783703
6.133558726640025,7.579971577501462,6.516210412190777,-1.6837830907580644,1.173147058055308,-1.3282410904096948,-7.891733748862439,-3.253469122509261,1.3560122396212455,-3.989333706363544,-1.2581109133323751,-7.922633552473226,-8.365774007860285,1.8802576861787192
1.456732193562905,4.422045933390418,3.612646592001511,-1.0723084383871864,2.3154964433170813,-1.5732878896646458,-6.028800695034261,-2.3362017635177725,3.675799830188829,-3.6061660594557896,-1.9332438982459517,-10.462945915929296,-8.058562756600153,0.0067518864917524
-2.409573488696995,-0.2176849051460143,0.3147551168238447,-1.5439876886680557,2.486532582235086,-1.3205150347314771,-4.634791559096801,-4.503127371657686,2.4542019650739486,-2.1832637349475763,-3.171942601675878,-10.115380672640304,-3.678841521648667,-1.6076374087525416
-4.743803352607046,-3.5959303329596866,-2.138473576075299,-0.8208403531937579,0.3651759951627237,-0.8516121489206967,-4.858384239564405,-6.674577033033765,0.8357000343384282,-0.2938780130594005,-4.022929529440153,-10.140208329781949,1.3867956678415307,-2.342684978847103
-5.728238418958561,-3.2674842125335037,-3.496928071140589,0.8153429138538245,-3.2546099900279577,-0.0265162212145649,-6.370505380607168,-10.054130327326051,-0.97296051467806,2.1052968905464358,-4.613304866768226,-9.52472708632308,4.41982284787759,-2.365231418911428
-5.301089112560609,1.2328127379585876,-3.860572002119408,1.8945202703908592,-5.261557574985844,0.2879129594830301,-7.749253670083727,-10.919528921111205,-2.5591881475286646,2.590106114539129,-5.787464517723368,-9.167413035702392,4.619614053088977,-2.3119961801058158
-2.907106339834268,7.576300796607233,-2.900592080124188,2.7117252199529607,-3.919923023182345,0.0069841167136511,-7.759058057622905,-8.727489728398576,-1.8610143806459256,0.7820390454878392,-7.481164901636034,-9.50291569367893,2.7728900633314773,-2.534342911096683
1.5459536599913992,11.738403420492965,0.0075519486494322,3.0091746885152464,-0.4161239296487488,-0.0570284215785864,-6.321510090780327,-6.317097748653122,-0.01356690575501,-0.6155938650105772,-7.652290566114133,-7.702774044466805,0.0776356508571254,-2.751081576399253
6.662841413442315,10.679484644376696,4.736926317267642,2.50294677502258,3.754276046347581,-0.1057336327003767,-4.403018925972617,-2.6811269027087974,2.44626957012079,-2.218968053957318,-6.296901778244132,-3.9293950460993625,-2.7130821847460997,-2.491623521205252
9.819349434586512,4.704428760652196,9.585133791124887,1.460705943068558,5.421627441947741,-0.1048938279893807,-3.118407265823404,-1.3359044540165994,4.397786143775937,-3.254914798535057,-5.825210697954276,-1.771129834510124,-5.277253067361823,-1.8068297259999648
8.828731618097414,-2.5522576747617194,11.828267686143525,-0.3107240043549245,3.155866709312031,0.0581692654467938,-2.941731186204649,-2.840957649926355,3.789448703480843,-3.253772337162185,-5.906807691330028,-0.9159034367458802,-7.255011036082806,-1.381934317162813
3.702901029408352,-6.774118816148302,9.566427399556323,-2.223778578635139,-0.3003044647751131,-0.6468922800923661,-3.580081878378792,-4.07708661993197,0.548049701132238,-4.935073948263052,-6.260171351643823,-0.2405467766546678,-8.099752886760204,-1.825095936305427
-3.062663969895283,-6.183674651726474,3.397243822893284,-4.266071183062712,-3.1761092308536454,-2.2615318729235034,-4.359467209579531,-5.983169514553574,-3.975730488449834,-8.12216991029388,-7.344331497978326,-0.4663118188681897,-7.491863201264149,-2.868697729559788
-8.070711285316701,-2.626721492088407,-3.681908430327063,-5.097365477272062,-3.645755855059276,-3.098610941721057,-4.663520816286301,-6.76085647353751,-6.597386107427018,-8.884693117049784,-7.439858837471542,-1.5915631656075406,-5.782201024630624,-3.4315342228706776
-9.304329140471127,0.378159280758279,-8.340337672823328,-4.416580406801423,-1.4902760843817753,-3.292184020667129,-4.184478021239766,-5.910582199858063,-5.094217875061443,-7.459200768690185,-6.537337889508882,-3.6978174174006,-3.817410690526941,-2.6394946346774475
-7.366140489607822,0.8055688051653718,-9.37583137349202,-2.968859938927128,0.4023325661604291,-2.133700564181764,-3.0207625418704644,-5.936323451253369,-0.7218674808981177,-4.16221881367089,-6.5812443583452485,-6.438087218724109,-2.206668020353358,-0.8377856271957604
-4.782602246557463,-0.3969830770885707,-8.495367390829305,-0.2823647707969327,1.050730011632603,0.845048596833577,-1.6417385213493425,-6.349227658271451,4.04048939886397,1.950275137165984,-7.304766733710602,-9.855866797184405,-0.8223613764607869,0.497863787836188
-4.000742659849728,-0.7899772990456739,-8.685486411543511,1.0601067143817378,0.6874928490898939,2.300446789714399,-0.6230445239707265,-5.45370577508177,5.64689316099989,3.612084765464596,-7.908331929443583,-11.086642570549952,0.813963997605434,0.0102001231836155
-5.651622481777419,0.6814585320141546,-11.529802306801844,0.866470192690819,-0.2735711269874092,2.348114439424656,-0.1854437578286969,-3.4763945282913458,2.6941428945109025,0.5139550805716225,-8.702917428442069,-9.76671021514841,2.5827296931171624,-2.248910118638438
-8.335219821051897,2.318026749586039,-15.790054525047236,-1.9081041452839267,-0.3298450321819597,1.3360101817898669,0.112541516205372,-0.1438155769773678,-1.3268680074185994,-2.707047281589243,-8.272748867275338,-9.624555934456552,3.344228437095921,-4.721767378500289
-9.93073984596106,1.2396992871323889,-18.476252557622203,-8.1840925978141,0.4047927002720276,-1.5512419767148906,1.12566349114104,4.94142141632129,-3.838188167353787,-7.746454187902287,-6.412717342053865,-10.034356038839842,1.7481572388767788,-5.5812479622199085
-9.282633870282414,-3.5615540932613925,-17.43190333446185,-10.752715205479758,0.715118555383093,-2.407538832800488,3.3634368507570045,7.779280914480317,-3.346790761318662,-8.663950341977518,-5.153995218461887,-8.416842620418592,-2.303617847321796,-4.204850429287376
-6.932524410606924,-9.698230915810369,-13.149738673780684,-9.69909617748955,0.6414523790697786,-1.1928523250511398,6.343488403223223,8.25102788131557,0.0961112744106226,-4.527544812144651,-4.205520668612586,-5.1795876981878175,-6.986631577679674,-1.5989944432041057
-4.448677824828593,-13.051911576194884,-8.296733645286587,-4.3710681787140695,0.5934520381098584,0.2692779945432575,8.72462815102083,8.055741917928803,3.0349964548294395,-1.6093551314709753,-3.549893778028193,0.495036597041329,-9.550022841704642,0.5177201107914122
-3.072053398214329,-11.27458959503062,-5.514447574083462,7.231366222153881,0.7147646531382535,2.8730560444036315,9.236472365003278,6.195921559136917,4.365000608194328,1.5662278887888483,-3.5801084295353247,9.211618018305677,-8.290171288487656,1.0723191812612995
-2.877256683962589,-5.9569311937531175,-5.514723253984894,10.747139992524462,1.0531467483319754,3.240360904150846,7.653648805994932,4.39071501686926,3.620844315077192,2.697790251804543,-3.481305477528052,11.482295332801668,-3.810004756452823,0.2538142032876855
-3.067846344038873,-1.4310005992524957,-7.006608045320901,6.017882414232595,1.1010238707763815,1.023380664460014,4.958144005513107,2.7196988296710165,1.1996744002442643,0.6720985669921005,-3.375473985146756,6.88607398694306,1.499980069091972,-0.9952295453825748
-2.954614804923448,-1.2275518216281611,-8.179530180220057,-1.4473494551835542,0.2771908928957389,-0.7818325267763677,2.5482653669867084,0.8799003956617205,-0.6444065800022313,-0.1703978466635791,-3.594399298699193,1.5811329251311932,5.169525409398091,-1.9493326630216643
-2.606051244088881,-5.312934924890547,-8.1496221787381,-15.111484641218418,-0.9562879735558918,-2.972483971032211,1.2145235458830346,-0.6777399139884258,-2.728000658982759,-0.596054111656172,-4.03112487744003,-6.674532232756405,5.973036986509253,-2.563451057904796
-2.599020961023591,-10.435655284437292,-7.141117524486521,-18.832233916520664,-1.725088030908732,-3.761655003284388,0.7711750166734515,-0.9410101107873244,-3.807572933395496,-1.0840567307613789,-4.106207351442716,-8.783511033247997,3.954656089462084,-3.1024440857222157
-3.2405989743661987,-13.036683717811448,-5.645418612880626,-11.383767588828585,-1.782312677218887,-2.5949892629078115,0.5522198281457804,0.3700698346099602,-2.8492603746540164,-0.9534975706635128,-3.797758325770386,-3.378629240014718,-0.279422489418609,-3.505808608573832
-4.11847244033584,-11.974012076421795,-3.751563732039591,-5.249388771063765,-1.47154623995281,-2.051373112677017,0.1585768879621234,1.32889742472617,-2.100516393685426,-0.919642762586544,-3.588891140798828,0.726097860874197,-5.826325702746232,-3.285718625974839
-4.423345234800859,-8.780312299493604,-1.3710573389691536,3.3575263097365697,-1.4698156635958408,-1.61510756654696,-0.2906009408608057,2.2017535251249534,-0.026136400366641,-0.8375483943544358,-3.349259395784836,5.854008247491231,-11.056390566428565,-2.111919716990501
-3.6724368988415774,-5.680516696582415,1.1167809537524054,5.746965523226319,-1.3823057235705571,-0.9594988126192948,-0.5099297435755084,3.7482662911500406,2.2660653254591896,0.3282293623577119,-2.290731399658625,8.833630910263695,-13.508831563614793,-0.4048155886438138
-2.106722495424031,-3.5998014320335185,2.78537535711064,-0.2640279055085611,-0.716530247373395,-0.4552839879650037,-0.4476822273195937,5.670507642752921,2.176731525580527,2.5974578595391598,-0.3924629041615082,8.252081568353525,-11.093071362973689,0.837184447708073
-0.4398531991354248,-2.022237233643816,2.930396739433137,-2.13196295120985,0.0917532730814339,0.0342149942461057,-0.2223014670090695,7.940091388833552,1.7799828276982108,4.150358027696488,2.322645813120016,9.5899895819012,-4.046170053390565,0.942406726542738
0.7140605241795797,-0.4096830392080308,1.9138382616646208,-2.076141005780123,1.7903666554775155,0.4270597326653568,0.2567247027600059,10.60968097891064,0.7691434785922495,5.108244489851608,6.0913781997028975,11.822199237599325,4.2588076794129,0.294554322756646
1.2008744512070764,0.7091904244568266,1.1208121842117589,-0.5820118715619723,2.8334857169538847,1.1152834322937484,1.3824024862487927,10.521322332886896,-0.957221518342824,5.534859515808531,8.497083964979264,12.770258282801692,9.014220163610627,0.0365561993678742
1.287443774940006,0.3079596853558746,1.9529611565932037,4.455701875796366,2.049820732000449,2.1138229198006533,3.383008092460659,7.358324516513226,-1.259986295962389,4.995986742557681,9.42058903001758,13.098869367864388,7.324572235177277,0.9428243312490724
1.4443863430840012,-1.5835911398434952,4.763262490494536,6.207484164581881,1.582414095276147,4.009068516654876,5.7587553255093145,4.472598391354246,-0.7941055950863352,4.670720959188985,10.40703612678042,11.670368618481987,0.5477309297767607,2.602181200430175
2.190045651706676,-3.229154013516328,8.678233347456727,4.93270085291886,0.4817921774828813,6.976185655012261,7.344624316899595,1.144414732123241,-1.1628721464362584,4.456255432388353,10.879952861825142,8.088030426177053,-6.471082086079455,3.825949162593245
3.9666728528080464,-2.422535522464902,12.369611074750182,4.566579263765688,-0.7657222773206621,7.844319413035864,7.122309415073537,0.1689878905559547,-1.3553797844407898,4.112865878400949,11.986811281305124,6.132549731721077,-8.820202241729149,3.924700389809001
6.892168012886927,1.4657638054449829,14.9825739435701,3.84165885387768,-0.8133219976955683,6.552299245476279,5.081327748184684,2.349980482371786,-1.1276224000094952,3.868282751104311,13.945235479231776,5.678007202863657,-4.898328267466652,3.513565307073834
10.449472309375126,6.69351245825055,16.418114683620363,4.936362019018187,-1.25003379926113,5.729603139537911,2.3098847619238585,4.022476350960482,-1.0928140273628089,4.423427385361801,15.120138478714464,6.505150663497836,2.846045108264628,3.9225357244104
13.44892302038186,10.481223564363557,16.894293239888615,8.468731102234807,-1.3441450882769497,4.729885864260287,0.2283597174245595,6.019203641765569,0.7610168853305929,5.908300620872311,15.762954829814316,9.562721858931717,10.11106739121454,5.739292525937824
14.53002421111576,11.233628879388734,16.385072178363078,10.022691151561146,-0.3045712504801794,4.645812325908209,-0.3301263568427641,6.939571436984197,2.84141063314838,6.476135616029866,14.855003402661444,9.302098341630153,13.822681074115426,7.983541434976872
13.01998372367768,9.574865706672824,14.554566515717156,10.049436003415892,0.7390632395697233,5.9565939590687975,0.5447604132385875,6.122443858637466,2.957093043514787,6.2182347646997,11.985815116067943,5.625906703973822,13.673455110436349,8.841620214845191
9.550248311048373,7.40837086484537,11.25563048186228,8.85755605766144,1.2436551364713988,4.78351333616113,2.1636533618919467,5.853040172535024,2.804794866605281,5.628925436774953,9.52523497202509,0.05517535966107,11.359003171271636,7.32915870406171
5.88282449110784,6.176466127035993,7.098810250713499,5.52482696471156,1.3604681324113126,1.2776562138451972,3.738099199779624,5.634623866859596,1.5317358609494862,4.29868939643591,7.208676702594388,-8.823121999530219,8.731054475936682,4.29220160339475
3.9289724771026178,6.05355920059919,3.485761191226578,3.657510341518821,0.4769408043349668,-0.96947096232414,4.652833519691971,4.5280432405144975,-0.2692818473116263,3.610266157165249,5.108598495845417,-12.178152478593256,6.604544877804939,1.7659871497728543
4.550734830643185,6.526764216427938,1.903641535113964,3.208216319037577,-0.6343284409499339,-2.568869583426967,4.544237006431144,2.7644545242366423,-0.51494190463751,3.615396528612008,3.727974171329626,-9.484313429773913,4.868587329099573,1.2679348787718547
6.94669458755401,7.286694748632537,2.8966890943113155,3.159055850013686,-0.1287192295843666,-2.865902107096314,3.396238876416759,-0.1674109240139037,-0.8220627242323298,1.3201557571507412,0.5509983305130277,-6.7628675128017885,3.220520461896416,2.568797641880792
9.076815885420476,8.285876609711313,5.501172791790364,4.348211133208439,0.5330825332374858,-1.1264468547258142,1.6369155470923795,-4.474845818999063,-1.5751353219060975,-3.1847696820987785,-4.386251471602419,-1.9196952975029085,1.5962622805588058,3.991478721255501
8.912760096303986,9.12051749692462,7.71749495280082,4.228126086900931,0.487907838537277,-1.5221678278900646,0.0098191725148755,-6.106153183986964,-1.6043229064380549,-5.088305826645056,-5.36089998931593,0.0399564985641646,0.1400645278973815,3.888405482420017
5.748514724143111,8.855789056185625,7.837220857083544,2.726682457061896,-0.3218682707623409,-3.908092963086231,-0.8385441062457542,-4.895409718591616,-1.590619706256969,-4.681640901690489,-2.446445844604123,-1.8709682948932316,-0.8314572540301786,1.975784300226838
0.718938301880268,6.835871754762802,5.683539920512026,0.071598450091861,-2.829651823415224,-5.990940943308054,-0.7646651789823551,-3.1090318474564467,-1.893448821565592,-1.518324645520822,1.7343242741317155,-1.2950396209089077,-0.7195410908743991,-0.5438462112108091
-3.8665997376603976,3.631881914662936,2.7404907122325,-4.431450796720966,-4.859318555228472,-8.5893428315395,-0.1758471327647992,0.242245801681697,-1.5417109603226553,5.63633304092289,8.477797825310102,0.5503511116857354,1.1207773887106391,-2.0341885770127366
-6.0010354822144665,0.8473680532052796,0.9618635047087948,-5.608560440400316,-3.983078662305896,-8.511880360977749,0.3008541456202316,1.0704868308031628,-0.9510802397962524,6.935222261653991,9.679970891813534,1.4192362518493251,4.484171239586507,-1.6970331645403238
-5.293165342848886,-0.3131519520998527,1.1751143271944675,-3.262558008780554,-0.9699029937832674,-5.246474327007666,0.2184170985221829,-1.1095063902665878,-0.4155012363372709,2.180889567095096,4.506368705088246,2.12546779809245,7.506813358116119,-0.0826087467348699
