AF3,F7,F3,FC5,T7,P7,O1,O2,P8,T8,FC6,F4,F8,AF4
5.105722684683913,10.560353694998003,1.0964134608859275,9.043704634257258,9.179870165105854,-2.8202696878811606,-4.250349165544623,-9.83905771116077,-0.1563724619031157,-4.372062674929119,0.7704035758045307,-4.913703885548513,2.037941084235252,-14.531137482759702
9.721980230236015,11.8491135264361,4.759128273812887,9.215394491876395,6.827081168801054,-1.4934370457949742,-4.588550434128696,-9.688225463754485,1.797956429611021,-2.8386004945378134,1.692865478305038,-2.458952007784511,3.425026746409508,-2.027237823386677
15.91458773304394,11.958853047750573,10.29285145582879,8.14683237142636,3.431351911334237,-0.1172347201812911,-5.028477272350652,-9.115360764002231,3.996495905703204,-4.122306622244309,4.016463139390424,-0.0619143788494147,3.086998210215322,11.603783118985106
20.561465614282877,11.942472078797064,11.678818640733429,6.423401349586087,2.14411448491638,0.8929671505887926,-6.146009948476339,-8.925476454241835,4.325790127986617,-7.3942339931485215,3.890510503604271,0.9928901267925848,0.8442850385152053,17.603918870876164
21.08799008635936,12.229484908313683,8.350640617048944,3.744058739831604,4.548131064373634,1.3451946468547602,-8.225649739275118,-9.199204954171282,2.006572079661239,-10.025562750194982,1.7467682556761666,0.5254945035551268,-0.6208913997739736,7.317258029751425
16.962697005598905,11.8945627357891,5.647614401694782,2.215523285442162,4.219898733471609,1.448120589402336,-9.06780311862489,-9.265919067526184,-0.0586685145402482,-9.685605934391717,-1.2787131068776982,-0.7487921814128304,-2.0091927349551915,0.8276986785355809
9.948412175867665,9.453586902155555,2.151000507273257,2.036666353115318,2.154547632285528,1.5267845783643894,-8.758732585713389,-9.418943049524591,-2.568899637034488,-6.307103691370161,-5.616501989279067,-1.9532147592753937,-3.4447345168038965,-5.329576198068876
3.022155775453519,4.529816933077549,0.6021363446309321,1.4544652974410643,1.2935745042685491,1.5220981214456986,-7.354194351705142,-8.739343856010823,-2.6625024680019096,-2.235809166839635,-7.157927053605323,-2.675963199665276,-3.39609616506222,-10.202397099901498
-1.3062044039996872,-1.2340879441719146,1.946913876657631,0.9794844139474088,0.7768098037377932,0.9156515751828174,-4.304709061865544,-7.479969913649064,0.3354145544994795,-0.3413382001134222,-4.437363643010076,-3.078021048761453,-2.446699373981667,-4.413066000238684
-2.237320938083143,-5.038174529278668,2.566479889051497,-0.5723703275587666,2.005554931220958,-0.6255840886539175,-1.4403519109890657,-6.504512084273101,4.848253589553113,-1.6291737119663896,-2.020331769628501,-3.5310786660108366,-1.6394052785042152,-0.8111935621188539
-0.8086675762463811,-4.952258332161087,3.332142234497607,-3.514775314153569,5.505023333728581,-2.463252553901959,1.3442701097239624,-4.648484943712295,11.869851218218187,-4.383954610412886,1.6197869087182686,-4.1527066777295065,0.4432663860336557,3.412057729565171
1.017548621959624,-1.411124131549148,3.8687413446704784,-3.674716634583762,5.704783012768405,-3.055800507250982,3.927281937007937,-2.6855190501543937,17.145750126725325,-5.578368648995594,3.7690661978204254,-4.608453238454025,1.907296016334331,8.05016639288515
1.6070739243509884,3.048692511836193,3.6621678574615215,-1.1104909065310664,2.6848347583558483,-1.1694349406179785,5.867757034633364,-0.8841698012990877,20.393288664527287,-3.317368568549277,1.039123117327565,-4.303186493275618,0.940709522662037,4.487559053289163
0.4643793223135732,5.509971330384268,2.8318143119642687,1.250412495960909,-1.1495359655468524,2.757014800386329,8.455911151540235,1.9560604536559416,22.99116526713276,1.763197253192364,-0.2016043087131075,-2.803021971710228,0.0476251701873265,0.3854559997706314
-1.7615213761439366,4.434573801643595,1.03151609609911,4.230498014933909,-7.044780277873103,6.550607828139444,11.543706607194563,4.741008035769158,23.77141978158737,7.210505743838979,-1.7014711276353711,-0.192198603928384,-1.9229350658109,-4.890080775190974
-3.902337818754488,0.2575992221031216,-0.1468121334987907,3.9007222874251934,-8.956997387589544,7.938637819972962,12.460469508400935,6.652808129731291,23.25109305430968,10.764464397734208,-2.325666847746807,2.8689315769463546,-2.6651502993269247,-8.072309031596564
-5.068655573751535,-5.263382567422046,-0.7268726927765313,-0.4987672221786046,-6.296042862568966,6.556153110244733,11.188799276073077,8.48292379294669,21.191325727898946,11.851717795719388,2.1703291834988674,5.424288064879239,0.9095427189021024,-2.636187580802396
-5.192199992005413,-10.167417631179834,-0.0844947133409245,-2.9139374721102542,-5.136004128270352,4.396374058322959,10.169911680518302,9.877114248756204,19.42405998349597,11.450149618560062,6.252919218708747,6.677468274224598,5.401383256885572,3.373723842586019
-5.081218393858779,-13.156788891172107,2.262033684745551,-4.220193241199128,-4.126116916622221,4.075758250674209,8.88859800322548,10.519018967757686,18.09305639318943,10.771072178461992,11.77395832022514,6.355619354554864,11.662408821124638,9.74513810680938
-5.98767422034894,-14.040769289406448,0.9829109867783568,-6.177893613230837,-3.3302827420888588,6.375946579528902,8.455958258202962,11.16543536286486,13.883547406972133,10.121508436914404,14.165497517165806,4.7673591460699125,13.958083974349352,11.639361090591844
-8.911498092813984,-13.8447968285506,-4.021594451079356,-7.8028788314923325,-3.66275858861142,9.355697153888476,9.377054456685515,10.839788372205083,7.039634013176093,8.872429916667459,8.159846114764767,2.5292659426740887,7.958285761267314,4.894266940044564
-14.026335143382164,-14.481916402743472,-10.2898799217896,-11.690203895984835,-0.3517006362334495,9.974897560632048,7.912177675132463,9.33681091523201,-3.028828249777065,6.303595739505079,1.037487148201648,0.155320931022127,0.5418286671634623,-0.3746578300819665
-20.563219110125143,-17.811553548794095,-19.099554631985303,-18.08014679932811,6.616829050740688,6.846132448663796,4.252673138789811,7.621532534810313,-17.16732471482094,2.375639717774897,-9.902581650895575,-2.2021387578688016,-9.947185198732914,-5.894560835695343
-27.204458631603764,-24.378872126089863,-22.716785604554364,-21.01416292891606,7.356363576471643,1.6192729538817017,2.0587520778394794,5.6620312177791225,-23.60329591309356,-2.263199331776496,-17.28981046956654,-4.69337205276835,-16.162381088458254,-8.957004219764098
-32.70298495713681,-32.71438369295031,-20.387709124728445,-20.699221362522167,2.154793247362187,-2.295921431133354,0.789660032023179,3.980007347888277,-21.76162876908191,-6.90912934764256,-14.340208029029574,-7.480326623088446,-12.374456807152404,-6.138364754347602
-36.34364697309329,-39.94698981063051,-18.66759449268094,-21.268793323456634,-5.160029698273183,-2.5628839746164505,0.3464947686053021,2.3730535617451207,-19.9991131338603,-11.362119386355989,-12.673554540073482,-10.47056096619819,-9.979348430550951,-7.107148953081192
-38.05006972676175,-43.47690204086295,-15.688841117452954,-21.604662597740408,-16.80474590459125,0.1893121894470772,1.4470189460987952,0.1401963822899815,-15.5818375845776,-15.81974357325698,-9.502974596912576,-13.278982888525244,-6.861903020415687,-7.720993439253009
-38.19815270767832,-42.466343735173645,-13.188466417992522,-20.974146930123407,-20.007394270661127,3.034632823990236,1.1710456474757014,-0.3136035600360282,-13.540790272338503,-20.163531394693425,-3.927657035837105,-15.40250538426944,-2.399546822847639,-4.420357431304092
-37.28865520115713,-37.993638420839446,-12.085728589014629,-19.834007130793932,-13.629704350403808,3.3039726800258347,-0.4252807120359611,1.6122429692026006,-15.15417027182241,-23.32062907084868,-1.0882343408093598,-16.428934090153362,-0.6658666656129774,-0.6747459558223402
-35.59752672361276,-31.90594210819265,-8.587717901638163,-15.150086037517784,-8.668250904333695,0.7383181070468949,-1.4135752202051537,4.13716058110715,-13.447446952118996,-23.43463913923778,3.966376182476048,-16.121080369472352,3.6677342449430848,4.304046481776577
-32.941189102166405,-25.52343332767305,-3.2300403264058817,-6.61345116705407,-2.122158093005688,-2.561568345700048,-2.3501081513754176,8.731632391904169,-9.718337081088924,-18.969285368858117,11.652492046738008,-14.375721277852188,10.976357209840124,8.507045159587022
-28.760700803919637,-19.283521020277817,0.2102047462036265,-1.4520782010240412,0.7484783688919873,-4.15075476676087,-3.5218796732001905,10.18476678791565,-8.378560654110329,-10.037842644846377,13.77822381048775,-11.191159909353376,13.409290780617756,7.565547721239634
-22.624973613235557,-13.3014025199528,2.0612793359242825,0.5970253741347528,-1.92104025207632,-3.292839648055732,-4.731741783054657,6.535217662341353,-8.723152580573075,1.0865151518086789,10.276760349795683,-6.768225074348546,9.804769083934918,3.533375641031096
-14.88170354428526,-7.903033164299189,4.899033635332953,2.752480461116725,-1.605997052258715,-1.2741662836681504,-6.765911699499082,3.1548560391788776,-8.455903434500208,10.821623987854656,8.579184115550575,-1.7195430441247728,5.948049451008558,2.946014029329312
-6.867873528078959,-3.4235112136456225,8.090818796811797,3.480639778213,0.1689158572167962,0.0651921502938139,-9.699035527252384,-3.0679088239781573,-8.23661738571167,16.04604691067646,4.946536189711019,2.8222766638510444,-1.2859949013847245,3.1992954471817727
-0.2905291741596123,0.3897934726075949,9.230321119207368,5.181036868406261,1.3312834645060336,0.0157050042085964,-10.960899947381336,-6.807159125642724,-8.723013324421972,15.683226309021446,1.250305141701177,5.46328320013306,-6.789779923733427,2.65453404762479
3.8955926129177874,4.433762182704884,8.447267182461772,8.141648306000135,3.105620660665721,-0.6756984006849465,-10.541172429449505,-5.142506658440162,-9.68204348050758,11.147001069419453,-0.0852177400097892,5.235022051314643,-6.084417650143766,0.7249794849943993
6.188159767777904,9.403592338613944,5.893986907006294,9.797242792281745,3.7020622548432898,-0.9295096737464555,-9.825218883620517,-5.2605536753023285,-12.068884733357262,5.466143700100594,-5.266853672873514,2.365931881158017,-4.895900346152443,-3.769785962361885
8.106837386842308,14.806897861814107,0.955507737723992,10.651105978376592,2.9828196579950705,-0.5649561554823997,-8.231627857054697,-3.1002432640641087,-16.063936088709713,1.6638051469087198,-11.802273368784986,-1.4861138893807837,-1.5815945881809657,-7.57029092277001
10.904473790437912,18.982129110228183,0.6090986859721857,11.40879545743386,2.499935040833121,-0.3240245391410565,-5.687670208743527,-0.923456507644731,-16.38072038951857,1.2823440036927778,-12.773189013411391,-3.9457984447395367,1.972284573051649,-7.248451749415161
14.5562708356754,20.36853874658461,5.270933133261237,11.72307133445856,1.8884262441811857,-0.7481075352087232,-2.2427077083144096,-1.459930869120064,-12.835411971452702,3.789688463684184,-7.509064975863655,-3.283689216811645,2.1575920135539928,-2.454434461376854
17.99101483962061,18.961100853920303,8.661543802791984,11.71211885580269,2.2380340768686104,-1.2199155316552517,2.95149951517258,0.824038439792893,-10.549130846447165,7.140463813942095,-0.0517823665179291,0.5003656757494399,0.6698535994430869,1.991519894281232
20.364472578691373,16.533839237700438,12.302411096570651,11.411286852678389,3.882140773287728,-0.32408402195676,10.001272037770384,2.8306462657223297,-8.468356543858386,9.151413526344063,10.17204772658358,5.724859951364344,-1.0704475456976554,5.503372923906868
22.0874937633111,15.282866176953284,12.88186960238736,11.019827546048893,4.634372417372806,2.717297654285852,13.455433649961265,3.503438912227668,-7.416284792892374,8.834313066256207,14.290282371875024,10.195365794824394,-2.262799394465175,5.753506394102114
24.44701133748617,16.03753840479625,9.183070125035671,10.59561658554327,4.748960827063537,6.955235768223966,13.049385163598396,4.594207055010617,-8.306014774447076,6.810146464648472,7.860612778476387,12.572140837972263,-1.2366698181188762,1.8484007616853249
28.02342989632093,17.64675923292981,7.437117490871566,10.045546484988172,1.9794559100531504,10.148779557654226,12.52479102247004,4.202941991873356,-6.955604406712693,4.581855275268422,1.785221884028456,12.90323077398354,1.126209230274386,-0.0006318814242486
31.46611742373114,18.097013292777657,6.731665751374467,9.450605153778728,-4.35883302059479,10.46176821273286,10.590429064352357,3.425925613912224,-3.638008922932499,3.3392617466126984,-5.612742754892828,12.085973256481363,2.2614809564192377,-1.8192972085266756
32.10983773893361,16.350005914452595,5.784714601170454,8.68992962027146,-6.757490255669514,7.933014953819454,9.248144189980012,4.182859485836017,-1.209684372592582,3.2970523410874684,-9.467198550591815,10.94709406690827,2.349117683151644,-2.8909270425249427
28.249926949461862,13.27131474810829,5.637281644364488,7.773793068910609,-5.453128556224058,4.3949447575941285,9.005808920342506,5.631312291790079,1.011691312116242,3.973300251484398,-4.91037815031849,9.810470829650551,1.0032986330294873,-1.3732242771835554
21.107195039065477,10.886017214370945,3.8979760645803703,6.155049619322757,-2.662151522347328,1.9098366095707893,6.861239734973027,7.306344516398156,2.965581153222681,4.89624689241292,-3.2850765754815803,8.767907934795337,-1.602540520722226,-2.434253434445551
14.447127767259405,10.681939492880074,0.5125041967761251,3.7530348009815593,3.328737627472859,1.114641701599462,3.297666335931366,9.66756754886894,4.220440349116909,5.932783031490992,-2.995690108240137,8.118318527200442,-3.22318084473132,-3.402567317494406
11.814809750119126,12.432377143993566,-0.2395215888974141,2.148988124328722,4.779473745671059,0.915621383902407,0.9921331229835878,9.361486801714983,5.503848950816145,7.0077333487396825,-1.830095205886132,8.358015581993126,-3.2691873547453043,-2.5794625528421813
13.674953668258889,14.455219933008472,1.427978855417173,1.3065326415419425,1.2374028262541117,-0.2658969370790587,-0.3236630414623669,6.030604118359844,6.658965629213026,7.7100981132298,-2.207463552164415,9.695541513129488,-1.847048305580104,-1.5793112492696877
17.08850502632277,14.986716119906497,3.026980118368157,0.2603422596889019,-0.3947300945878164,-2.892574489157101,-2.131297281053023,2.398915597152578,7.496183239732717,7.348481330155549,1.0667650619960165,11.639728171847675,0.5617692960057901,1.0445523831882035
18.34984078583163,13.519497639686705,5.37832185397134,-0.6694930453418385,-1.7586775047659358,-5.842264746934465,-3.962522598135352,-3.72295048214609,8.090939858987657,5.43997288460452,6.571654326829449,13.164891212222637,2.559450399149963,3.994185137862448
16.227163457423757,11.11511452418017,5.542590667561489,-1.3539700427592152,-1.6105681756015249,-7.478637872178125,-5.058683720583999,-7.571164880334701,8.369352835019013,2.142507087511078,7.945357435953491,13.367160001230182,3.1727147183087734,5.258628062363093
12.817011838782864,9.556238378757945,2.9770630485584157,-1.8699269593621128,1.1583088681182043,-7.210871781472735,-5.502907046454604,-7.13725645667796,8.306397977699389,-1.7360940318960716,5.156066474610015,12.02674680176585,2.3896365372919006,4.647764672705661
11.268179026664525,10.02023506858393,2.2460849117133024,-0.6142410051457219,0.4898514249817869,-6.025231623556027,-5.091286857511777,-8.037862349144602,7.573522212217704,-5.077460655599767,0.968003790570252,9.590691484012254,1.0248214281540555,2.737979894992601
12.624500582095234,12.202156040349914,2.7224992370127428,2.5852162049366623,-3.3334975717818134,-5.471868351617845,-3.615723731425101,-6.8955149079523,6.105363641549809,-6.87098725097163,-4.071896528360421,6.66715311354317,-0.1693019731659125,0.0057331284952439
14.82796218621445,14.449740346047122,2.5011135624251715,4.56631705927924,-4.251688007086923,-6.124745520768701,-4.228831701805033,-5.359160859393997,5.791072227330015,-6.584385746949479,-5.71772492550874,3.579809535465227,-1.1217936821991796,-2.31555037841064
14.754354443167236,14.808400399241068,2.284543596563747,5.548268376114592,-3.1295865804832603,-7.079778419396408,-7.083008313179566,-6.324229773023457,6.694435329283071,-4.458571741790859,-2.610753868087373,0.4071964657012294,-1.5896769883819173,-2.395950724395461
11.208875379739276,12.321137314488606,0.1924688410177215,5.947606247268103,0.4063929057221294,-7.023425858845275,-9.569598216191316,-4.9332645489529545,7.437393247547205,-1.5545927888154942,-0.7091962421533936,-2.617151818955371,-0.9842667972383063,-0.7601866095233756
5.998295319036434,7.783517573328748,-4.13163430874931,5.052422861382354,7.615705479382435,-5.784544263257111,-12.382483882298652,-3.011518596171009,8.44182497839236,0.6939105060257464,1.0841850964941684,-4.857953525651947,-0.0969436850933958,0.9029446347439792
2.21147505396984,3.47926328685251,-4.361013644239013,5.558514408681592,9.928760048334023,-4.7374067952415295,-13.468966445379229,-2.1243773494968607,8.345480906856029,1.342852254003978,3.206342004261094,-5.526254276726027,1.23897296499365,1.6222044079261082
1.5506839669417518,2.0167187848030164,-0.5433365421136247,7.464358674180525,7.24687953651348,-5.555608692882227,-12.288170908001115,0.188118461766857,6.864818186604923,0.6392871288108343,2.962367790214162,-4.2225042337453695,2.353309863506679,-0.0642565001540482
3.2688839374026184,4.894733759419814,4.474811472955869,9.411771903114465,5.143188160427839,-8.497208398074363,-12.006417793179535,2.5203498466217247,6.20940918254151,-0.0705718977177047,2.5035673781446253,-1.2565945389058344,0.6802639433868494,-4.023226370030872
5.450965244293791,11.572457781820123,12.13298429766956,11.984143758094982,1.7872042048547518,-11.910293221685954,-12.096795669614792,4.396218156890114,6.081949354207261,0.733419758458874,0.7901731194595139,2.53080565274227,-1.9984451580297755,-6.779820904241292
7.015429011612474,19.5434822316686,14.094114448372196,12.072864806896252,1.1505332019112458,-13.467921486670244,-11.150735825979352,5.639116308530479,5.884000314027412,3.660398982984666,-2.886990632199051,6.198653023215554,-4.182686533026946,-5.84606778100925
8.29211089014428,25.397531976147576,9.519750092917509,9.30932728682828,4.158028655677829,-11.99248487527844,-9.586755313258328,4.786439567988048,5.9916636001189145,7.965043879055873,-4.854728309959809,8.938181369513398,-4.7967732783267945,-2.45968100161305
9.733928532517806,26.35262827769808,4.846790551353867,6.273440280050975,5.534505147319848,-8.24909933216934,-5.9037803466595085,2.7550236202809426,4.660894303200917,11.993243781823642,-1.9545872046052837,9.99611299632114,-0.6927671664601022,2.592133641384624
10.400047854217412,21.50330645884805,-2.0146919916973443,2.174667640614764,6.295222548997877,-4.155474879491857,0.2336758890209254,-0.2366873911783187,1.7449994965329343,14.093198204857242,3.6450490159487874,8.64219585387592,4.440664314793344,6.557372115478236
8.156076721750267,12.182580573034674,-5.229945371524484,-0.1338913501636358,6.172747431306803,-1.292775792148265,4.081872179568634,-2.4795186188114737,-0.7730100605550193,13.362366217786324,7.201027745473792,4.53620056641995,6.444392139536135,5.422845336866095
1.7416932923061124,1.302832392897521,-3.621847725236925,-0.1021158557058446,4.2802005042777465,-0.0254186765597572,5.7460201731421705,-3.40300499380528,-3.2449984471575903,9.894514828452197,5.531094003868519,-1.6848005120866336,4.758172818170885,2.13001523581952
-7.257159201443986,-7.95682028451367,-2.7323329684937163,-0.350272805730644,1.647025828970428,0.2634905383056081,6.877327887049024,-5.093602037587005,-4.713486639867362,4.587774953746934,-2.588013905669952,-8.257127645057416,-1.0799690781937688,0.9593952960447828
-14.764749358951116,-13.490748025824308,-0.918604338621003,-0.0697167691363351,-2.155006881691756,0.3604661318890954,6.389458432522474,-6.429589178275724,-4.730646076335699,-1.2568738028060071,-11.9767529288273,-13.04066677084403,-5.96497998088702,0.8165228898189707
-17.117455632248873,-15.070831163727624,-0.9746445254051304,-1.2024255477570915,-3.303380376991869,0.6670014114741099,6.993124432369351,-7.739362510132514,-5.883800291885236,-6.376225278665721,-13.904662265484522,-14.81395251451607,-5.733732701063049,1.8797561871651467
-14.209043261775587,-14.28768444155452,-3.752770693770394,-4.197388827128713,-1.400666231728327,1.2245598052087436,8.816162170772618,-9.46840201047968,-7.931242431514327,-9.943389275004376,-6.356432882861361,-14.10028161961486,-1.4234467755603817,3.678740726917275
-9.986708959965732,-13.606087978628528,-7.0138860658991184,-8.635197562083919,2.2954895155194266,2.0248620851214407,10.441606147580345,-10.122848771109728,-10.740673941525142,-11.842392867155064,3.5398634323312104,-12.73891387802956,2.701158744015756,-0.722085065791128
-9.512551269456534,-14.897460286049268,-11.722422820742056,-15.236739206292032,8.935719457275987,3.177418309999851,12.50753674817352,-10.750503585993847,-14.86637700168246,-12.682605734747913,11.593815057127532,-12.44296658089639,2.8016368952954123,-7.111287039804072
-14.850929724359537,-18.219560083698205,-13.708186570837729,-17.93638843066066,11.214246949596497,4.801546481073691,12.521614267007449,-11.689727966844268,-16.10697973423186,-13.44362945749602,12.253696960429393,-13.50747843272678,0.141550408839449,-7.860726202930613
-23.245681074953374,-21.70116789300122,-12.502593337418157,-16.423857880281442,8.700537189044374,6.814834701702715,10.199304807018532,-11.809767838546753,-14.297894662792697,-14.837129725988934,4.513547309283001,-14.758311959664535,-2.2124214589593936,-5.316247351985106
-29.188563784358987,-22.805898503614955,-10.463163334419066,-12.805236787603318,6.561736196551591,8.844281766402695,7.121623485661284,-11.83583609079772,-12.325543224127872,-16.751452400803803,-0.8465745404124296,-14.755499998185494,-1.2641294602922468,0.3878972728708289
-28.65313794343213,-20.203571687949424,-6.4389533385650175,-5.450665827074504,3.086096576643216,10.349937199393992,2.618691147071015,-11.816028519306574,-9.239182447312729,-18.23597215925537,-3.401739656172832,-13.135414553384692,3.747782217989088,6.7917855891923455
-21.975785371804733,-14.84716542328261,-4.549276531443006,-2.801895929648463,0.7175447239290859,10.889240855829,0.3915978351097189,-10.64935681767296,-7.370757610601251,-18.163203420338892,-3.4180240440460143,-10.869823297473236,6.935766455338883,6.756142066218224
-13.188728277427094,-9.379630554257504,-5.202003634123024,-5.375267183061903,0.1621680014632177,10.354370476713491,0.8700064640116008,-9.229678535120076,-7.220808993455058,-16.136677465150026,-0.2722598887348906,-9.264782054710036,4.170564579673507,0.8065694159349412
-6.735165447040284,-6.357365768250661,-5.036254599538913,-7.79841687588729,-3.2034126099122133,9.007368652838824,0.4339145453882424,-7.875864383172921,-5.039339846635815,-12.91187671307028,-0.5474414669572036,-8.736802606159205,-0.5339205306995096,-2.386088643036186
-4.518748443937017,-6.729830289035919,-5.042204875649339,-12.107770494083413,-8.845027267286794,7.26167929895499,-0.0360265875154805,-5.256693420293182,-1.3367574772417588,-9.946941893336586,-1.7130417294201523,-8.581704907257496,-6.078758841786078,-4.276024225729039
-5.473991506916805,-9.642477391014932,-4.14997725560166,-13.200149479674538,-11.419986330362248,5.378548528681591,-0.9781694884115082,-2.7433882265884595,2.586184824503281,-8.437449537076425,-1.1138923988027265,-7.895137141462205,-7.914836572937666,-4.409151771030392
-7.325799533386743,-13.370879520750265,-1.8894213493909813,-10.227255768129275,-11.339170400626976,3.382051933101674,-2.9318684005528373,-1.0480990146336198,7.334228561075987,-8.5977412802554,-0.4756157051220842,-6.578069562666038,-3.019764931607703,0.5494091282152602
-8.474716791149183,-16.35920071628393,-0.5172273648046285,-7.675069630195947,-10.153431924889023,1.3309162726623187,-4.379607013343915,1.6853684349715283,11.22993959044484,-9.63608937169641,0.9635733028212058,-5.275456427642747,0.6924571477146617,3.206802319557468
-8.447133093224068,-17.64555033413944,0.2572667758684321,-4.182560007851003,-6.732287008953124,-0.3156131978381937,-5.555347679490679,4.33208097523864,14.056914810531463,-10.237930655687258,0.797128825961558,-4.308748268649004,2.9266395063636184,6.022610007682564
-7.185534524046689,-16.825272311170266,-0.1049703327542283,-2.6206045259045028,-5.869715917991069,-0.7419277495385748,-6.638131358368419,5.20977768005504,15.577547298849325,-9.12946505500345,-1.6659199892191858,-2.8952354878862137,2.848220116427881,7.634429083651117
-4.5556434877201255,-14.045355659681483,-2.105553783484154,-3.7288178465215096,-7.868697713202032,0.5617075869768495,-7.378613183695404,5.986709775373813,15.200860950778855,-5.573710501247671,-3.3925579341713297,0.2122853919999094,-1.1098070146685668,2.6649977502955173
-0.7985874294523596,-10.09257219634182,-2.9173633745260226,-4.691739818269316,-7.630096911142965,3.0023500397793903,-7.475024317824987,6.273971823240984,15.837402527090166,0.1339325632228802,-2.108745642924898,5.078403853371336,-1.1741360468243731,-0.8785693424699212
2.7825273210731707,-6.190291534885198,-2.673441787107768,-6.384747111143584,-6.095688664799977,4.837033426954688,-6.815119079914449,4.653875394663273,17.373046522051634,6.379758327486735,1.531653760116463,9.6855857522782,0.3297534979629611,-5.355600133388579
4.123505208854025,-3.3519534983844386,-2.135609033922503,-6.30104951192919,-3.946887991242237,4.286130061270903,-5.545460278492668,5.5526305029242025,19.68500528526398,10.715590814003956,4.439021201532144,11.099747348108956,0.9911512603774544,-7.69290992540244
1.8900050818316785,-1.7702658074052815,-0.6875605154315315,-3.9254984596401,-0.3733883938346331,1.1126494567170089,-3.520929332218863,8.402838527042983,23.48545923241514,11.304713584636048,4.448469366303791,8.007213269854413,2.661730389753163,-2.758301243359968
-3.0853308841160065,-0.887706671763004,-1.3446331024319127,-2.0560899924724203,1.0271846965171438,-2.7411298096490144,-0.6193138141924694,9.961024944055538,25.26058651472861,8.473385645455348,1.6917669741157837,2.3115986483928195,1.1913282561076612,-1.1594105779599675
-7.939883479344231,-0.1709301907390852,-4.285690916421813,-0.023542343862841,0.1120477706345311,-4.315578042223533,3.218749632176373,13.952633646707666,25.01516357478132,4.913464403322253,-0.5479717585569216,-1.9564532381916395,0.3098282974365648,0.5491784913386721
-9.715782263985792,0.1566924171896531,-5.106481158612149,0.7408776409246993,-1.0179421215495652,-1.9139193383552997,5.625704395683091,15.496412312446417,23.87556136674697,3.931431929015513,-0.2459474732349658,-1.7473641747691708,1.382333644524646,2.515384379648876
-7.630924725780697,-0.7749193804808723,-4.273841506007567,-0.2902387673277197,-3.200681570543964,3.3472275693133398,6.432696064779548,12.438042817381552,21.006749131122373,6.928149419161336,1.6205436775132895,2.5376882275890797,1.48978288390877,1.4095951647234122
-3.767845770494822,-3.519040745113149,-2.4482857996652485,0.1255193866523486,-4.311478164113984,8.155565229432,6.438229946847654,10.865952281542334,18.291867269752125,12.246904994456925,2.329302861692963,7.429543999863162,1.6398971559130522,3.0891417099044127
-1.512120594744049,-7.359082400490637,1.264147452597831,1.6500793872711137,-4.026297236246327,9.440491795508557,4.966267811331157,6.608915611347316,15.764936607484303,16.475863419612402,-0.9070666260498446,9.28784285279577,-1.0327570943885542,3.39813386124053
-2.9578306914577013,-10.352090056721668,1.4963986816187878,1.817421196855743,-3.04080446929725,6.670676030604987,3.988979051370605,2.361150687858761,10.615248393007128,17.097028444976345,-5.055649920555508,7.131194891970995,-4.016542438631072,1.187495386913994
-7.365036063445281,-10.556865131685974,-2.001020033256308,1.0668985075986883,-0.68386497332837,2.1200260797954757,3.5401965172694387,2.4684777986829247,3.063148151791667,14.172724769859023,-6.177506342916372,3.001492527036775,-3.8668646321807385,-1.0046103394127082
-11.862629785710542,-7.564713318210961,-4.8288017143463176,-1.8114986524667187,1.4299450387033728,-1.0605822817384212,3.598879070281859,0.3906957868660164,-5.799693835529961,9.764372700553864,-4.185374184898819,-0.1708165985041585,-3.4077450150920368,-4.424254833223136
-13.717871500840529,-3.031014129992597,-8.142011865794977,-7.399591109433237,3.336812811268714,-1.283668561722065,4.704716925039207,-1.5540277347999796,-16.52274060528976,5.9450160130498055,0.6563726005688515,-1.0176348098236143,-1.12337050741977,-5.962945190228034
-12.250170439079168,0.4073558378190327,-7.252113242511798,-7.753089829148905,3.99267588380931,0.5309064436428361,5.528418054180976,-0.5161360526358978,-20.29856291191509,3.416709166444193,4.270423430507122,-0.323048310761818,1.0739341618533962,-3.9726761020183616
-8.890727964722911,1.0993487869941534,-1.111714769962133,-2.705591311342901,2.888309639691052,2.1135345310552958,6.23660890150703,-0.624807764545144,-16.217369412283364,1.8085121110543545,3.3997502643431723,0.4038718855974954,0.4644507136428706,-1.240072471728558
-5.561455074634056,-0.3582609964105137,4.158582123396056,3.03443598112283,1.4044576186732756,1.909243589502882,5.573600362277472,0.5001848053896778,-13.051974867308802,0.8528093348723256,0.7646508427633439,0.6200852225864413,0.7650515268293294,1.765848715846985
-2.9679398420155554,-1.656788004824394,9.789241952870167,11.280727468056725,-0.8986265047826819,0.243591881705548,3.15682146550774,4.515827275402148,-8.739211950420415,0.8495723116743026,-0.5274497476192095,0.9922485398237236,1.4685992653550843,4.976976534623293
-0.3285478228412835,-0.6708535578362556,12.475104064064292,14.43379963234462,-1.851866290532683,-1.246934348837339,2.187208723464697,5.070477749898068,-7.97628449982277,1.8941479391579368,0.0492274272089734,2.2115844573233474,1.5130725622859325,5.0806360537705375
3.374543035753817,2.9206838717927104,10.90764819860335,11.431680070424978,-1.1185980434938825,-1.2081248869070205,2.4311948449652507,4.073174878283576,-12.490979855237082,2.981244860943857,1.4954664664206798,3.897971807409144,1.8779527471155029,2.7177851799440846
7.966490109164676,7.606892532543235,10.96140235245744,10.61838356312921,0.2128003588297654,0.2682264302385633,3.529446193997414,4.726986580843322,-12.976631233419504,2.417343280883085,1.8643808160183664,4.860846538538043,1.1194838607540676,0.6487220714009168
11.920580499610123,11.420429128647427,11.62347392087287,10.197081716950567,2.811019228864202,1.7979901430161345,6.192782918866413,2.200471295509805,-10.684469383378875,-0.4848486775040062,-1.4554034115187102,4.399878035181169,-0.4502322575601963,-3.512935103984564
13.649092475907745,13.340499648443622,12.52830724425522,10.41039733971139,5.244240882038292,1.8553032779343412,5.301617056907697,0.4956395919221237,-10.579221174082308,-4.142676459920656,-4.866897669565732,3.173637373098459,-1.3668733849577468,-6.368437775510069
13.03277130003272,13.60821584380848,14.649585230554942,12.552123308171025,7.456402651792087,-0.1342948890284248,0.6227641780307684,0.0781019865942185,-11.352298657210005,-5.55626221079992,-4.30465933364306,2.64412333963344,-1.7172903649699212,-5.046468182683782
11.748408581319934,13.086271621257689,15.148085242454105,12.229758047947067,8.824110103444648,-3.557915499201668,-4.42981635495914,-3.748420755125356,-13.312212173261605,-2.9618319335644827,-1.3892610839981463,3.6339051201574266,-1.2756026104078757,-2.8146838680513606
12.043026824263247,12.585256527009816,14.13766775838977,9.71452612760264,8.88001978427506,-7.197666698297217,-11.042265390983578,-6.43163619544096,-17.195717814121746,2.100669223547066,3.667829182210289,5.471869585330508,-1.0599385525633611,1.7271705810309002
14.957968062416356,12.69272077175902,12.367883224514246,8.771092186326237,6.939512186688045,-9.99644255488078,-14.29408544835128,-7.232864846958039,-17.40525162110046,5.582491174028817,6.355669328014099,6.595205645489274,-0.6872015139540172,5.891406218901044
19.44281120975353,13.798007379131027,9.228541456536528,8.768030795723517,2.487989225660321,-11.452696983582412,-13.407604769666792,-7.973914932042923,-13.811258927188458,4.328369878043526,3.660657836487372,6.007881146465903,0.8258602947861786,5.994114383593863
23.034414732880453,15.843766266713606,6.6427957371362485,8.793380357494694,-0.7135850844694501,-11.589502734345569,-13.74366414814257,-6.477567295012827,-10.936307515453436,-0.8438703602734012,0.7453815132963845,4.179934788466184,2.238449075766165,5.0717609292947605
23.543537880505237,17.966131523377527,4.676250475566764,9.462499709884677,-2.785276190452186,-10.784559435526992,-14.083735607801287,-4.079807238504822,-7.634478973937669,-5.40736963580135,-1.2001031744618618,2.5671692653415814,5.202196867959756,4.119862595372354
20.47970177810072,18.66038472566846,2.010560051125506,7.665241224063356,-3.032943381341405,-9.655075085115854,-13.871867395712584,-3.328437795504032,-6.085526246808068,-4.860884858335131,-1.1791781143907891,2.266408836682656,6.331600848945724,2.237375471483465
15.225145401213924,16.69759916172543,-0.9407299745540632,3.147366648460979,-0.4214506765816325,-8.908728547619258,-13.825072912978465,-1.988006089827208,-7.123945019062234,1.2395779870188477,1.0577013375270312,3.0699409988978896,2.742608443801045,0.9152163652572144
9.938370931035797,12.150186321392988,-6.39960850487331,-1.4401401719477405,0.0224101421340952,-9.008843376994562,-12.108975439408932,0.2126894152802797,-6.752706774821681,8.627950634739229,1.2781924132404483,3.721255969630762,-0.1488331152454732,-0.3434064715977324
6.081821676929383,6.587668244343902,-14.72601801832496,-6.814232089644933,-1.4390570114469357,-9.763604266302348,-8.731568474746034,1.6259405518300434,-5.595553383424797,11.778786479596471,-0.1332976951851348,3.049019633066602,-4.612985059951393,-3.891954688181655
3.673285195457199,2.15900641241986,-17.06236172093151,-8.854077183838328,-2.460719152704013,-10.220837644108109,-5.641827282260923,3.942853012437943,-4.072027118998052,8.47205279564091,-1.8690993874943165,0.9439706498786896,-7.30122449648071,-5.482062550177044
1.7321973978740963,0.2261949434660639,-13.306968977518135,-6.811883821480342,-4.015169939461495,-9.154716249120732,-2.56292986667592,5.734690631091838,-1.4973319671481156,1.4957836935621622,-3.594952065441537,-1.6015138810704457,-4.158924756122636,-4.187267071590528
-0.564560592728478,0.5578619231977306,-7.825880320921485,-5.044001189919372,-4.168630415410635,-5.947059794495944,2.1933783736071915,6.186604842863421,-0.2800019070333528,-3.84897611356056,-3.85671285953345,-3.312003126406375,-3.450562961859436,-5.11450429324517
-3.019935832220013,1.610597867736853,1.4595712789820832,-2.4484608904380507,-2.606328126435033,-1.2107197146961526,8.411238573738379,7.686643961215391,-0.4238617428594665,-4.06203779938715,-4.746377688575724,-3.545307253331865,-2.6035181128829263,-5.4089373661987885
-4.531287260808517,1.6278110727516966,5.006537226988857,-1.2236644996022148,-2.9235515238962537,3.449244375923378,12.751007340720982,8.555378858519259,-0.1313194830490765,0.1483050143108437,-4.89353612447184,-2.572940415197658,-0.9040052816915182,-4.683663409118133
-4.032942419945172,-0.2199254789811324,1.797264836168713,-2.1559909644456554,-4.812702994117644,6.501903687352874,15.23250552798969,8.591584031293056,0.1358121093400621,5.051087677562899,-2.3264854294122435,-1.1127289385854469,-0.9768088078711396,-3.6519234817545794
-1.4937605209234062,-3.383936521631324,1.2011643958535465,-1.4919560501009126,-6.988013370369173,7.605939699306293,17.148600103593235,9.16749732074588,1.9737792646788443,7.126985892731716,-0.0425181373294399,0.3499044912094844,1.5132846356898253,1.910125656925033
1.7761482305874243,-6.416388021596015,1.0187883859050828,0.1398155248251269,-10.136548785010795,7.820785774448451,17.696186482309095,8.48828692710552,5.787970770864559,5.406591978942627,4.707200781879144,1.7858036738795082,4.714032439942342,9.558129513961063
3.7300710094012137,-7.988968020050967,1.0027604700496882,0.5353980902850226,-8.763414068283378,8.63696570275964,17.989468960333895,7.118256017876843,7.01951894666859,1.3343656871229572,8.324406529179875,3.233316520182165,5.911341444408617,12.411455034335791
2.763688984361891,-7.701191555341048,2.456709191956689,0.1269754399641088,-2.3197574736974214,10.587979603094327,18.0489625528884,5.489426954243082,5.85725881933017,-3.0115668822898627,6.548602456243326,4.3084699730571305,5.13616330949279,8.80008548036774
-1.1847360116732997,-6.1340427467065,1.047495974716331,-1.0192178675665786,5.480517468767948,12.679386783112385,16.30349060582108,2.791900419328966,2.5565429051799726,-6.4047782302707645,5.764657007718007,4.287406738997223,2.3819386064705896,1.677698980041876
-6.29836603983647,-4.24605974881595,-3.098015331140596,-3.297512384611337,16.079168110582454,13.235101932305945,12.87888370687643,-0.3724557885170894,-4.009833944262719,-8.600328682352762,3.527893712635144,2.838159105751778,-0.6661402796123445,-6.992287725767678
-9.69549483405085,-2.715361922666699,-5.129713966273194,-3.797605255698463,19.66998888754564,11.476725030065344,9.908014122845229,-2.255773935771753,-6.156984567153288,-9.614450970119371,0.3638376483415997,0.6679343128592965,-2.1893095989243463,-10.081756337491154
-9.116342449872018,-1.7318134575037742,-5.632514716167609,-2.406359516640681,15.048517139771544,8.392431093038919,7.242045620576325,-1.4373886784681655,-3.656401445531938,-9.287507474539083,0.4064342930571886,-0.7761277551503856,-1.8391491007607093,-4.994778499441335
-4.479420929410741,-1.2082205362191232,-5.076660141635339,-0.5262075244402772,9.888991804628578,6.00797143929762,4.939549598593423,-0.0569964671719454,-0.6472842773201853,-7.5904596158105075,-1.4781459656875764,-0.5431486117378608,0.1832762016967106,1.0751046217252784
1.8414394406175705,-1.0298730284357376,-2.4767154659933697,2.561907928055638,1.6077604595440722,5.6258711432014845,3.5262297419074256,2.0568133921746163,4.680206975514835,-5.141134999239842,-3.750755676322912,0.7420418656890462,1.5447139983527507,6.489141426905502
6.365771993752007,-1.126413190423296,-1.422486518118549,3.3993930558768906,-2.9729949362673667,6.605736413042299,1.5384601479534443,3.231714069278521,5.620344394775414,-3.167264177718984,-3.338571689307817,1.1472154657332716,1.1106986105540877,7.456168124053232
6.60462866570203,-1.4771802389533448,-1.880371286586168,1.651843543829856,-2.5255737790257893,6.834352594009587,-0.8649896387204958,0.012909255213312,1.3636002126180855,-2.7972332291066597,-3.0211143517130266,-0.9538987774059252,-0.2445213899252774,2.39544261689664
2.4576292406615856,-2.1536815380722167,-3.495945983305599,-1.8380986113505728,-3.2433986227262124,4.531582678569261,-5.312893857873074,-3.655800071067917,-1.957541659348301,-4.289990713894024,-3.409925258338769,-5.314262556848036,-3.2014619293709337,-1.822595935993205
-3.928182194423485,-3.240823460712356,-7.176020533122712,-8.112293975395948,-3.210356217857646,-0.1662815365488157,-12.269062397931386,-7.333190548936362,-5.972838588295431,-6.879018656695187,-4.999209944825762,-9.796941818819397,-5.925745800683169,-5.321423542954877
-9.489228411695771,-4.495189931752954,-8.294367213229236,-10.78956689353431,-2.634040329079872,-5.213344723826189,-15.850148032944528,-10.569467325833504,-6.592581779825549,-9.312173265509507,-6.72936147636,-12.002296672458126,-5.9426525383552375,-6.149084296001694
-11.766254375139304,-5.050672187736453,-6.790940119208202,-9.586124069729564,-2.120635174486311,-8.23412701384784,-16.165046405331978,-9.5439537602153,-2.640948580963157,-10.575940537650888,-5.541615016401183,-11.07013735740733,-3.45384520762886,-1.972420030787372
-9.890016577155729,-3.7716522104269288,-4.139405141966591,-5.772644320146522,-3.234385321735234,-8.335845814618448,-15.23847780925776,-7.649138560511439,-0.2379435770452163,-10.254866325851754,0.4833025462517875,-8.070740172623392,1.4363579942012976,2.09016993912408
-4.893000508486956,-0.3432976155982139,0.7998299935384822,2.42543264626922,-6.452165169022439,-6.667978930134424,-11.710627710526769,-6.113346189022639,1.7302597045300916,-8.441716598691947,10.995976604077692,-4.843493942468236,8.309969743978959,8.520960972618541
0.5977421909979981,3.787788705608477,1.749473153101702,5.064644534855423,-8.208277476182987,-5.333247162370512,-10.506238025929251,-5.494723520210939,2.6369572290503487,-5.52692731237083,16.19723246548993,-2.6071977842810625,11.013868359615442,11.75617104338868
3.3578608029671173,5.818871974832412,-1.6976077423325164,1.789916190582867,-8.874700344457297,-5.610906164326721,-11.93009264302126,-8.382550290506757,1.388879155819649,-2.144145707991484,10.60574203459018,-1.6488977861439371,6.420795745452702,4.969019628688932
1.1697097822258335,3.516813349438369,-5.171088394485131,-4.214126182702116,-5.113475667565634,-6.970071069818001,-10.473558535276997,-12.217688356726178,2.6675281269273525,0.8259944264759476,0.2372460713446222,-2.0212939456016663,-1.3133191227256569,-5.188621954710514
-5.6450809857703454,-2.7162956150804263,-10.163162700487444,-15.532047674809077,4.185907483170826,-7.653977410253024,-7.063450215341877,-16.271879194818183,6.206548415724736,2.487827290595068,-14.04780330744086,-4.048466170870228,-12.33696149676728,-21.756931906247104
-13.857575632560224,-9.518877250807163,-10.4787180093714,-18.02541117970916,7.863645957994696,-6.29632718368563,-3.5501780630306032,-18.107905107473783,7.80610597653681,2.438531481163615,-20.049202301297655,-7.812294074545406,-17.66975395156163,-30.346232007869727
-18.766114432580185,-12.609346279771705,-5.122952753116397,-10.835285107943175,6.324377752308177,-3.172089134845997,0.8796479863736628,-16.358013847517455,8.145967386591643,1.170795114188742,-10.55761747001523,-12.198486798076535,-11.080801517424865,-18.19791989606734
-16.876506849715494,-9.799567363855235,0.0688470732353713,-2.202198672267467,2.2937459593731018,-0.0004289547941596,3.23598909542028,-14.098896444756546,6.165226769354393,-0.0821877225924652,-0.5909562884900583,-14.861791254507438,-1.8428554776552688,-1.0868190291080388
-8.231303272403363,-2.649858198743331,6.733961568917185,11.36578535230668,-6.798785183701494,1.531198693003102,3.112869968516189,-10.047391131486528,0.95108214927759,-0.0855225998288169,9.281422635571444,-13.649295584316654,9.636513546321794,23.294776519591075
3.2252852827565768,4.569413455719811,9.195064024782535,15.647615237411268,-9.06972213880482,1.2224189270467,3.651161322583432,-6.800215246415447,-0.1290269300845546,1.5740391287323805,13.622942341423796,-8.414705647945912,16.20288584332241,36.52027680097361
11.737510376339936,7.84032832425482,6.209162980104953,8.89716628190039,-3.978142567889264,0.4997701927159426,4.140622699034932,-4.9932220798757925,2.89607541244211,4.190124076412705,6.670240002414538,-1.4989991097171789,11.536079252332208,22.708691344884976
13.167678268187466,6.056303760848909,3.393067232901376,4.201937964866725,0.2290393964777111,1.10760640256688,6.072551021054381,-1.2006432285437123,7.280856459487247,6.381186717927591,3.5705259188270366,3.759088682147691,6.915400115618736,8.278808437209605
7.57865722883807,1.4585932527817356,-0.902507534577199,-1.9185502211907897,6.229335380609823,3.509596820510758,10.058452965217723,2.0615464411543343,14.75258751356288,6.969056362378865,3.803938163135889,5.313642034593155,3.5256207397894266,-8.514202321604154
-0.8934370940034206,-2.3248718613089334,-2.8338357163836534,-3.6717720082783374,7.157627796743181,6.402519827588719,10.635339007735888,4.527633000344454,16.74957678097837,5.730569666449945,2.964597284561402,3.6004677690982163,0.4510633757524679,-18.33820709740917
-6.95215156938389,-3.027747530816168,-1.426258590863278,1.1472761656032768,1.544034469320685,7.740623995157833,7.9756467119258385,6.368873796968356,12.603582136028908,3.5675736563053206,2.86243450117549,0.7767423646450666,0.809651550504886,-7.899965904025219
-7.771109215096255,-1.179303582807055,-0.7348439827214787,2.316242111648456,-0.6401279061275175,6.359824836771463,4.085966865645743,6.390895623307205,8.270914336696613,1.9690238952980952,-1.7146044498779325,-1.0723197823595392,-1.2010419040086413,-2.296193446364633
-4.542660843460915,0.7560659946112018,0.3820967254233626,1.5065751492096815,-1.0109351809121034,2.858164432762395,-2.23433773796916,6.081708016914417,1.6594291051256171,2.0522370941864185,-9.836760864494297,-1.109846845508823,-7.626559261648031,-0.2489388253737708
-0.7577020222307933,0.6776041042553302,1.953709355837655,1.7240962903988222,0.8197595868349842,-0.8851080602094825,-5.272400301315001,6.363733830036964,0.4050847898912552,3.8054879824780734,-12.351973223592331,0.4471819512457102,-10.158879549841656,1.7610451663654372
1.154027871225458,-1.3684880214548611,3.5405697398488125,1.4631356506517277,6.70189485611154,-3.0419739175253278,-4.55369665343739,7.0544203548517945,5.74205138213696,6.140185174138888,-7.485242343722824,3.201726113636848,-7.557769936016685,-3.2210142728328
1.725711550906885,-3.3571429969395434,6.561764705231106,2.9539925683494936,8.90591557835299,-2.9645626272760017,-5.795220408398928,7.761782835330707,9.718994106088552,7.805899074167084,-1.2314485606901082,6.981630200976185,-5.268386544388737,-3.17516273520697
3.226797714847968,-3.140685988223772,10.973444926372792,6.488229200551618,7.725915031199002,-1.39883906539574,-7.766218678920245,8.08114255302139,14.268803397608874,8.433324971551398,6.3218055169720095,11.480914636866563,-0.3095323266055892,0.4527828909975202
6.720456023854626,-0.3096955413533306,13.075288244051183,7.419332150973821,6.118031358680577,0.1669002051550938,-9.508839212639634,7.685657335819509,14.916451664442093,8.71440559231424,8.643929806358761,15.864608158503907,2.4032583453351624,1.1435140647261992
10.514220370493636,3.536271624652564,12.839580696011234,5.992179512010456,2.469412649816588,0.4485307968762324,-11.805684462702542,6.817745486610858,10.128259286426996,9.472170283348882,2.7666635524322025,19.03766272201397,-0.6016446745079989,1.5010151175170732
11.662474561287766,6.225883891840689,11.606963576746432,4.282978164183553,0.492342048317054,-0.9775436156439136,-12.786595357713535,5.625825951350752,6.883707054587672,10.535866322707731,-0.7304075783690377,20.33600145347028,1.3983082572465593,0.8667755744567066
9.027601526243298,6.78011495568953,8.458796253546403,1.354068117792003,0.4924888086360462,-3.578645216909526,-12.379899805021507,3.91217964867352,3.8591095380672966,10.681969025078764,-3.5193050417104565,19.80187578009524,4.917941471790789,1.2415721746464083
4.7773628151391065,5.956374933956575,6.720203568854167,-0.1136568207788369,-0.3392628129118606,-6.254494787399828,-12.29117030656912,1.6500247777795083,0.8837459325494245,8.867313155473573,-4.2567665556266086,17.750570550768842,5.463585292526994,2.699564256543646
2.733932924451638,5.252854835753283,6.584605197432272,0.2151025891837389,-1.149747917089233,-7.929276117516627,-12.16606687342021,-1.5510666704717408,-0.926059552584863,5.529429394890563,0.1714456016562839,14.306532935359758,5.623018582503604,2.39641857797371
5.077829625132708,5.441605706351474,6.082577990402178,1.0880576865336076,-2.8272052252155704,-8.030148507165968,-10.591057668074797,-5.652694678086105,-3.776687726821712,2.464367165108655,1.658377565544516,9.651306155154828,1.2811456980898652,0.4303615222818423
10.431267870778395,5.979966843181863,6.012942746346552,3.277030207002457,-5.751031924432408,-6.644994966007367,-7.694071703128462,-10.3072950531193,-7.367385175299302,1.1757444238266643,3.804624239647892,4.6763839591206064,-4.268893744751928,-4.700214089666393
14.934365949598453,5.693173968152138,5.121557104389923,4.062995866490056,-5.722325100473805,-4.347270709426393,-4.690760107555333,-12.75013831791014,-9.130311862754658,1.2582452529622827,6.254956467397123,0.9179520735237504,-5.01529364712951,-7.497022506099831
15.1882910333874,3.943463019817152,3.190934618807851,3.270138830984008,-2.7353825853043685,-1.845337887316635,-1.3660856350775954,-12.229317799919295,-9.197684876416991,0.526757914528762,4.396513192009818,-0.6773598229823392,-2.239636704698678,-3.4490866446978243
10.55399619527125,1.19342727916694,0.948456611453656,0.7713256610335776,1.2581928380067406,0.3285887936737808,1.4370123873881506,-10.745946329484788,-10.837583668905658,-3.032380096937274,1.890548732696208,-1.0144961376780302,0.3223492474081514,0.751556068650252
3.268713698613979,-1.427886168078416,-1.9703825437646785,-4.274625851789548,7.222100483725556,1.9458683468552136,3.4072506922537635,-7.133816771645438,-13.727085887854546,-9.20918921612428,-4.87497497950242,-2.450891553254678,0.2418018069186002,5.899596853767332
-3.193436205019232,-3.0208967245509086,-3.843098964735548,-6.205636191568667,8.70857304255716,3.017339681021319,5.800650950178937,-3.876273321198524,-14.85455052668206,-15.298631982442757,-10.688502398871686,-6.572195279733307,-1.1670211571008826,7.71876589391135
-6.077910240381776,-3.453807490194336,-4.506087086101792,-4.962431460788744,5.055939975239144,3.647434777898937,8.34221101607918,-1.1996497564454949,-14.64935936083677,-17.913180477014684,-8.259193649576035,-12.15279992064096,-1.7465289304143916,2.1611852517570185
-4.608651597913379,-3.2086463392671334,-4.11354244403843,-1.745572203102137,1.5523052795659469,3.9435533260569287,12.268571573161228,3.605697675377368,-11.600386979017236,-15.420193998968657,-2.727994133155873,-15.627387531393277,0.4142260224224127,-0.5499997529259613
-0.3461821709465482,-2.87841210799661,-2.1212319870996845,4.906023886026664,-3.401177707721582,4.034514843060975,17.888469829678467,8.564929770827076,-4.936652757439913,-9.146121967620005,7.426101371218849,-14.116999598463837,6.805734780908642,-2.1649115010124054
3.350458890451172,-2.870478368245017,-2.051642947526559,5.329210524189326,-6.107599899592549,4.114406979444823,20.40979336464992,12.886690590678402,-1.8543054485029815,-2.566410785669732,14.362987435373377,-8.34056088419436,10.402116850872048,-2.1691604129020607
2.88025849957382,-3.490982914133255,-3.992718394025272,-0.9716641629490004,-5.644186627456127,4.375758072357613,19.849884679323576,15.576356094157834,-2.24986480650451,0.8517380337203306,9.454495589532362,-2.4960629108556702,6.746670028389965,2.0334431798272288
-3.338835283000272,-5.082924808981339,-7.960437108942037,-8.894767399427737,-7.563078616915716,4.823073894442388,17.715735705355335,17.052586950662864,-2.528359712924644,-0.2656722148422048,2.462097602996332,-0.9203345245719348,0.9168387377035696,1.6243504884801343
-13.224872432412935,-7.8172004676003155,-14.97045287761772,-20.84322427112291,-10.945170838251071,5.1639593659309,12.84124050936101,18.48265773237647,-4.245485062658631,-4.426030186666594,-5.966466250408714,-4.432562996014134,-8.179000088143239,0.7988771270647947
-21.658960400835404,-11.192911357916074,-17.540508059818375,-24.393715320522272,-12.174636040356868,4.996827142637713,11.090294668830342,19.008955940778,-4.159312303750487,-8.256329044776663,-11.923094463973673,-9.665873255219964,-13.61523244887481,0.2589540665737889
-23.6643323858458,-13.824717029999364,-15.488234805487972,-18.228606058865928,-11.871330795764036,4.232102823095772,12.82527280225524,20.254378110188597,-1.809413108801916,-8.69933955466255,-8.575315796475653,-11.968930375050448,-9.327082377257987,-3.2161387446532856
-18.102035500061746,-14.055668431072633,-11.131289966653949,-12.1743491752294,-8.99007973463742,3.3444507166120943,13.857561836103894,21.229563267131727,0.3706610662221752,-5.073707624843671,-4.631230904600462,-9.253865823663515,-4.287705671978136,-3.0074478696134457
-8.839660760304895,-11.219559180994764,-2.550408282337354,-3.113783566451532,-2.719456268288185,3.0885932029576963,15.555258122653,20.047930381704045,3.2315807378944386,0.4271481855855086,-1.99508840030357,-3.4655883553785145,2.5944659709600395,-4.9735326322465045
-2.084609412126873,-6.573660279206393,1.0204615605388283,0.9627355177645984,-0.4450019815398575,3.8109293554646513,14.722345689121124,18.56413866523676,4.130924561811681,4.274531129877687,1.1463094661537745,1.3613786152399214,8.032419241339168,-6.673829438933615
-1.8249269518969984,-2.881196361820052,-0.9167837080582196,-1.6874535069718877,-2.199233996355922,4.984903882594935,10.650901455933855,14.710609048695584,2.6198652366639177,4.160576729675938,1.587075867087134,2.503267365998454,5.573973275856443,-2.483991526487193
-7.0814377630567975,-2.596586549441483,-2.5960045315145024,-1.744424926385696,-4.333233434006606,5.502079920457675,6.4706008946929945,8.31725870159439,-0.5458270169684162,0.6558353591266126,1.2659638380330596,0.4596323589912572,2.3546486494047167,-0.291420047980653
-13.12586985385358,-5.877822946919011,-6.211778586781515,-1.342548498037733,-8.526014811729022,4.555186742335465,1.2655318865018026,2.0189753348298427,-6.247031052939667,-3.3394347701001834,3.1058215127917688,-1.947977693196861,-1.7493644794187022,5.664337785030812
-15.342784611896208,-10.063642932216368,-6.002936739021965,0.0525527282437578,-8.294233833397481,2.333222501569182,-1.9896854505781532,-3.283326826623718,-8.29202211006242,-4.912165748446185,3.2716613067191465,-2.125941172820447,-5.698992537936617,9.363748890388017
-12.315051704696046,-11.283733360443756,-1.0322663740350804,3.8148523637743432,-2.905262523950379,-0.1147721455114947,-2.665197639183606,-5.356497289697809,-6.3543456303128805,-3.3344267295633614,1.984088543645376,0.3799008285256491,-3.624016302029242,3.764135856751609
-5.883502044401425,-7.197008969575748,3.361208624642378,6.913736985726446,1.5881859043896946,-1.7115435716714271,-3.6867891684262086,-5.798563943137857,-3.749687705310734,-0.3734679704005685,4.288666452422721,3.954887947528377,1.5720013177681331,2.202705323750024
1.0493091861933337,1.1502753793054623,8.678871426859166,9.872720842894548,6.7238082701767015,-2.1089594631707342,-4.203439930468108,-6.234142852365404,1.0645670373291185,1.4518848376071816,5.713835692696068,6.4771525485561625,7.45315412819656,-1.0979387187677236
6.462524516334256,9.805145379985111,10.110234657521548,11.150302254066132,8.929845403969404,-1.7510433231460638,-5.693929410016636,-6.69758289616283,2.1614031357587824,1.1165135748870227,5.3544538393928685,6.851255532055816,10.331607452095662,-3.417858124056044
9.437871511578209,14.475867883754404,6.560694681634248,10.098791924005235,7.050139875143565,-1.33613571968489,-8.617503823658815,-8.529306373050359,-1.105265157714005,-0.0976001986596557,4.4931591858628455,5.423855090334591,6.067503326535647,1.3715954891942843
9.448762508210804,13.383549270915914,2.492214939545065,7.454957252441021,7.644317214155499,-1.2791106351240131,-11.24889243115909,-10.303667683367271,-3.132870965150369,0.1022205620191769,-1.767759619778815,3.346308305284396,-1.6656089905873748,-1.5434180448940245
6.334406434260032,8.377732087487004,-3.5416271140127664,2.516563791210977,9.796189532489654,-1.6100254049430376,-14.048432616416129,-10.781252107295904,-5.306180603307888,2.7563821255611742,-8.1737014064848,1.6812505764241763,-8.81713074460158,-5.147604252706118
1.217835922789817,3.547600226350696,-5.423196936276028,0.8665360643273067,10.14985772428762,-2.2119990148366355,-15.311039301328924,-11.499684474629154,-6.462393376440108,6.413729843396816,-9.00179351800113,0.9104375765723988,-10.083065434714946,-4.578200950627639
-3.056148172008271,2.3501033461201786,-2.1454603880673746,2.85606827605139,9.62569795540457,-3.019041016217159,-14.660531863889,-12.527499075838785,-5.7284792995269775,8.062440578922377,-6.337325372998355,0.9355504834481394,-4.205289363538953,-4.21680927494077
-3.240931041297173,5.320061651564792,1.2888657598487028,6.013316858844542,6.875864656925128,-3.987802118089277,-13.513005132383515,-12.893035308738568,-7.95620355775989,5.5449949985031495,-1.6085041825822437,1.3190903848408055,1.1835634880891035,4.026047977275107
1.878091532447556,9.978662086263377,6.590090468483284,11.8191708428969,1.3022784121381004,-4.99306743055822,-11.342169390865507,-13.677531714884635,-12.88430777993537,-0.5090808334363857,1.192555922862111,1.5513935817917428,3.602164416187665,12.378726226248226
10.09274921182532,12.919208233941514,7.878705958921911,13.59269700525965,-1.1419865833095866,-5.855349970387024,-10.094894900565528,-14.45141627919358,-15.18856128264126,-6.848159286587414,0.0666717619057825,1.277150939790495,1.9759224335278716,11.997675899587714
16.91839283722902,12.41292192378451,4.1668551284180895,10.813037683737752,-0.5213265980514902,-6.478433405003047,-10.051659191251874,-14.078862467578352,-15.49383180129922,-9.799732510347864,-1.6342557837892762,0.430786170829446,-2.2784380830546307,6.276558848758408
18.528890934024044,9.513028216796052,0.5648702871732332,7.009695005867568,-1.3928235916085576,-6.8965317440046,-8.38548566459177,-13.789217280842854,-13.311221585936616,-7.834655595400241,-1.1747734488982005,-0.7917468398576197,-1.6766701692021275,-3.4775083498333728
14.175008846187268,6.878964162871824,-4.536553779371395,0.4414498736980083,-2.6185448981292945,-7.135365998055926,-5.487701106538494,-13.485557087627363,-7.440072180413213,-2.566042083445393,3.5019925052491527,-2.1037356021862355,2.608334676790915,-11.531889205819972
6.358595467898896,6.418342372313268,-6.295295474664998,-2.9679547736003014,-4.031629754026926,-7.047758909545739,-2.865363304571566,-11.890623683322652,-3.5813439445441544,2.5269770229770074,7.758395407731601,-3.2772977443610847,5.655476787478374,-11.542383937476195
-1.0147195219472005,7.763942528063558,-3.74157798832404,-2.634957110338576,-6.248199057455904,-6.367116087962321,-0.116051997922813,-9.727131425256616,-1.5285631393972217,4.665379864425581,6.679592838249294,-4.1389098177516,5.337602194172084,-6.093581544278092
-4.893241838024627,8.767009337531727,-2.13756610261156,-3.051834666603886,-6.398273612415659,-5.009099308149803,1.2065498678202886,-7.315405060027107,1.179155783256075,3.722811451337673,2.753887938237714,-4.486464739332796,-0.0597845398162204,-1.0777624539112105
-4.342997868869299,7.38455361184576,-0.1864796171416972,-2.7652513516321964,-4.438647518204069,-3.3401131280351386,0.7309473407192443,-3.588601731690813,3.3676429960435037,2.12664045015924,-4.483531759301115,-4.127452483423259,-6.829233850006415,1.3681206060601276
-0.5341655374214831,3.2321025619852435,0.7297712193253029,-3.1314863273644398,-1.694234543417052,-2.064405326171652,1.2891790036854631,-0.1636979795814538,6.328810136371469,2.775123741674633,-9.108943711898094,-3.085880232281916,-8.525638338527717,0.8318402724985174
4.071483542605897,-2.383096588600086,-0.2241254809067456,-4.695555538294919,2.5005949732546098,-1.6854554585641992,2.543212478598378,2.336341755503406,10.226323418372118,6.5616364536119605,-6.247700999191501,-1.751956560852264,-4.050598700998174,-1.0105067334111648
6.856844158797465,-7.622239001711726,0.1242782294158832,-4.710586051323374,6.667444944621925,-1.941475012421705,4.440883310499018,5.750156459688584,13.09975823901887,11.503465918345292,-2.06515951334159,-0.7092360400480757,1.627678956535484,-1.377672850210244
6.232267388931859,-11.212037177441973,1.2968220484088766,-3.518580747034385,10.66380963493119,-1.7761089706134214,7.561995919035739,8.968903975341696,15.149342877253174,14.293044234426972,2.194703980040666,-0.2760517019844286,5.45810327709573,0.2200625153587792
2.4714418196146823,-12.659346533649,2.2145830288827915,-2.700647340007029,10.944039173987068,-0.04928613008083,8.66923976434603,11.053377014415034,16.37969100882018,13.07660237831027,4.040843701656138,-0.1385257976455136,5.238636242469944,2.454709510963639
-2.359100468278456,-11.87488383875592,3.3459895864473226,-1.8685133193114687,6.67747968355518,3.463692521103951,7.729881309150474,13.148439958746147,16.362642312646933,9.086024448373252,1.6483504481217155,0.5428145376787086,1.2553270090983444,4.355606754324199
-5.575102993318438,-9.004462279334604,4.8319516265587295,-0.9754012958191172,2.957812282711918,7.615430748494589,6.696364879002593,14.587657877711273,18.178989578034336,5.630904968673207,1.211925361643508,2.545814174298826,-0.8053491098626413,6.505802771404072
-5.519451871390302,-4.727694955241304,6.629246057749112,-0.2546569239783718,-1.166357018754023,10.481987128364594,4.868832711061474,14.770253837861466,21.91215517675672,5.296718512740313,4.741062913633425,5.927688831427844,-0.2488624218925516,8.52465146599217
-2.5338568069871457,-0.4869104316815651,7.732523101917019,0.2327728211861323,-2.47093797220634,10.669131723420264,4.061116359333039,15.257643011827142,23.59888646660917,7.86163957903301,7.98758896386397,9.80272880511231,0.8838112148675469,7.0530013284939885
1.4360148018811143,1.96614117153284,8.07475521529544,0.3785224996097509,0.225085112632605,8.32923198758499,4.607378812960075,15.217661854815772,23.724010800037373,10.756765070595122,7.65077671033097,12.764416262995296,1.5226469183151408,1.561175993152933
4.213947788590048,1.5889565295599226,7.791537354860474,-0.0046623987711027,2.0750629866021053,5.0543367813613855,4.02984329932058,13.732215559947036,20.92735127558114,11.475355076527336,1.7825784631142412,13.700594372771462,0.2232349178287353,-3.9596073065200175
4.650345935935718,-1.1703003278251458,6.574372912745497,-1.0257045415149628,4.115047216478913,2.7187657713821807,2.7410660219351377,12.262345588390009,14.23662784935424,9.589270196993894,-10.152307069523385,12.46199423381573,-2.2815478328637875,-10.783971667315187
2.957275732780545,-4.529038478356171,6.005470892860508,-0.6514684009969417,5.711681864773992,2.2107637813392103,1.612349393511552,9.653045369143374,10.91324838645699,6.654167925038351,-17.386330826391433,9.927998778103216,-3.4413506354719585,-11.901790565103656
0.2041492102587483,-6.400216249549118,6.106727666937805,1.2076436961564077,6.084369659161109,3.0466978836823277,0.2884440482545766,5.527468860720831,10.79056925969082,4.479140834437629,-12.587407177629306,7.414237303859238,-2.2031648303007767,-4.215076906262503
-2.3738661189071024,-5.564721191334826,5.476321745209841,3.975741271389501,5.114012894811334,4.065479731826144,-1.5090517576119458,1.1810399165008287,10.298507837154652,3.655604442543989,-2.0628702742106837,5.821550217892536,-0.1561039885076263,0.4793885035728615
-3.791754041159095,-2.242256635892346,4.412441050308598,8.210410315499127,2.213005316850331,4.488368103163992,-3.747821664732865,-4.655214264579357,10.968357416218227,3.570577494431916,12.071197456040773,5.102401724586684,2.034349248683031,6.678789102991732
-3.5185955871603483,2.171353857179895,1.997593293715679,8.91638036077041,-0.8195329633434641,4.401719648277407,-5.634034786251725,-9.55148984419195,9.256432618781096,3.400606799311447,18.56613895979526,4.3851038325337015,3.0053078519224625,9.2122419878846
-1.6994339454596457,5.908043575054535,-2.085127702678179,5.73993910755614,-4.202889560618567,4.336138201062482,-7.162048585728794,-11.925059284360316,4.661409361818424,2.766293486899542,10.34329723142189,2.628336140695467,1.9608267778363504,2.585406842737613
0.7003287509139966,7.689691871400669,-6.26747574231018,1.7300331234164334,-5.132387969348575,4.462856341727758,-7.688241404524154,-14.5260182649084,1.3182005513209856,1.5038508841088571,-0.4215654397367949,-0.6642717947022732,0.619831373503567,1.089762207105658
2.2014147182721047,7.26364296032591,-10.812626886560173,-4.377939227825106,-2.9663587943794454,4.243846684207625,-6.9188031646102495,-16.070667284659724,-1.557901176838166,-0.7954109838895818,-10.201170537714118,-5.126669652853195,-0.5338899299893757,-2.144071634175776
1.6681636570095293,5.41937843500088,-12.869915848957312,-6.565496830617915,-1.6012669522201903,2.901262108031972,-5.845843037437609,-16.2603328032244,-3.0407520814762745,-4.643723060366085,-12.677749456516752,-9.75738389483945,-1.1638910034762666,-5.620544035558444
-0.8151140104759236,3.4940724760270143,-11.870332829604706,-4.094715936770785,-0.2949313062818954,0.2821643051467788,-4.2229637505238165,-15.824000174762377,-2.344811655748673,-9.957753564723332,-4.633570976210257,-13.48893329251618,-0.9907860275377603,-2.229525546291056
-3.852948685460007,2.597749008067183,-10.896741498013974,-3.086006132433832,-0.951079008108392,-2.704644596017744,-2.014109153325972,-13.566866819685403,-2.8034786088285197,-15.627446076239494,1.000599491892436,-15.719576994729834,-1.084468017723789,-3.7934720484975775
-5.703643008132531,2.978675508643022,-9.153763887699382,-2.1170588705993434,-4.406732087930384,-4.548490684808797,0.6599556433331939,-9.669240480546788,-4.0879402109763365,-19.957403776459017,2.503654694532082,-16.498734597986015,-2.376878863124748,-3.2130982964541324
-5.630445325899302,3.933305105734803,-7.886321662575205,-2.408348079355455,-4.84735689632874,-4.186697250290877,2.1781320050129187,-6.999870638710192,-5.760583130940847,-21.70210561983805,0.9801975798765238,-16.305297688749505,-3.27658720031128,0.533400091990571
-4.515481072561698,4.347959232367174,-7.608220762389121,-4.9585808074450375,-2.6521393879861,-1.81974041977756,2.3261380533238616,-6.583670608471587,-8.488498652745331,-20.850930152224493,-3.212011336802082,-15.630490144630985,-2.3846014442405066,-0.198564128439008
-4.144206573640815,3.50345464152565,-6.381069825947699,-5.025994407349329,1.1275382097402422,1.1481556485026942,2.329437392530052,-5.981617420745019,-9.928192270882702,-18.580874466833905,-2.037754427675281,-14.681246749571557,-0.2292113827130039,1.7674780091354023
-5.6675281493190255,1.5474602015023606,-4.611293989702731,-2.9693117227706924,7.761035881768877,2.981382896443705,1.7313017439248255,-5.81907726117521,-10.080929782117542,-16.48668648465059,2.7666391474379406,-13.37164719160404,4.457802037504834,1.0791752478140737
-8.463797542703645,-0.7008980161592149,-3.351904952828584,-1.5300675902638508,8.962929884817987,2.63534980238839,1.261352127338453,-4.468122077889708,-8.573118764535467,-15.643728288023851,5.972827783919176,-11.500465647892582,7.81228668509088,-1.8997430957237809
-10.355116613700927,-2.384209452245017,-2.4225484011821274,0.0901964758364794,4.29174425608382,0.244533290932793,1.068376398193619,-0.2921169767479065,-4.739811020990783,-16.00713011080967,6.680129434692478,-8.896964085388078,6.0634003839048685,0.2923064041447649
-9.109271352802024,-3.086160467058832,-0.4601531915578527,1.0031352357998389,-1.99080210234334,-3.1233218063217407,0.4722779840428225,3.918359826934736,-0.332519682020398,-16.376488406778634,3.50436556390626,-5.469202144985431,2.287357747570768,2.754662443280737
-4.184597744545712,-2.786383145116204,2.4641323273112445,0.7865499214574184,-11.965453837477874,-6.144006914800414,-0.3282669118344281,8.778491633652209,4.952533694137754,-14.952842161249436,0.2211156615125187,-1.2987555034629708,-4.021481130085872,9.016377586387948
2.5542258278610888,-1.513317288915502,3.629668084131431,-0.0878691316149254,-16.87255577327442,-7.898162408472842,-0.958618069294842,11.445526448835976,5.685739151773594,-10.376723681170589,-0.925048141748492,3.132223164694466,-8.25326147996897,13.04592667808746
7.760618460566434,0.742750205365283,3.106794998986833,-2.0250248410280243,-15.821073275640652,-8.241414764360513,-1.4509845789528903,10.195614675373385,1.0203496038889532,-2.8700900349829794,-1.6430164088971275,6.799001194939379,-5.926715255453462,6.331556837289213
8.664362628219614,3.624974452528029,1.1699983588922849,-5.023836546359504,-13.289357177039072,-7.795472952571046,-2.3001747577907383,8.593694697232928,-4.099614215191695,5.24163172381791,0.2176560683268432,8.438013823059677,-0.6963810239812067,-1.0910507823102154
4.906624606015527,5.965026018534616,-2.879403832674398,-9.202123489581268,-6.866753144858499,-7.550769711283806,-3.461175955508496,4.730791393777231,-11.15849479907826,10.341683588058608,0.3034405258589542,7.317061101112493,6.204539708956844,-12.856815578567357
-1.1534176028883358,6.019976651320093,-3.549689438335103,-10.77840497066397,-3.643034628242245,-8.184097185586666,-3.8208686211295286,1.5225163003801128,-16.1144287685487,9.629637419385045,-2.0792157007841467,3.933668574448895,8.736045091773917,-19.703062881420852
-5.934972208268519,2.566906156175196,-0.5937752838361121,-9.44896595527368,-4.1893309991404495,-9.438197748072376,-3.379397358948528,0.689098329915565,-18.04893919921918,3.2811027237930115,-2.9077085881848577,-0.0405694650918504,3.3670203295821506,-10.972229506954864
-6.880718391530831,-3.8774867080043975,2.0446252804485643,-7.004438046796405,-6.369707431216182,-10.075692260173664,-2.5010113599127277,-2.149674341619425,-21.49562646949848,-5.155823987115845,-5.951242789820493,-2.6958847999687663,-4.099296667154295,-3.12303820388098
-3.833064283590595,-10.802474710585637,5.610081258317361,-2.3997389618620315,-12.169503236178103,-8.659726236753912,-0.9087231127122914,-4.654979756664584,-25.33088872531904,-10.941484994344869,-7.841713698414018,-3.047836075269217,-12.280965689175916,8.238726025260652
1.3335973386815994,-14.87944044853458,7.019051319211288,0.4071730265907859,-12.78706829945688,-4.750810471368297,-0.6445398290527589,-5.215681674142239,-25.672510494710743,-11.554471525593756,-5.4789321000578415,-1.5454858867175432,-14.113107320552643,15.42665698369675
6.259083002194345,-13.912478052918289,5.568186459476279,1.116221449724619,-7.8753795761731,0.4122481245445613,-1.8629375427389003,-4.536435547670469,-22.71055465548221,-8.533747126949606,-1.2374047413661131,0.4115455713885865,-5.643457843767404,7.188065461004785
9.430702651410243,-8.238062544326112,5.461844243229589,1.7958956553247305,-1.2325289125860548,4.45732930604197,-3.339135666706562,-1.939597497315839,-19.591366265774244,-5.913619593540574,3.003727382775368,1.4944873959335323,1.421318031295149,0.9290744432649422
10.433382340392145,-0.5777339711652019,5.923233270747031,1.424899545081848,9.328068465721383,5.421456653485706,-5.595690834136885,2.238580052481253,-15.605641157,-6.355558562494167,6.53087594402956,1.2418828126392611,8.271187145231089,-7.461585906602745
9.47057723104234,5.603539808111179,5.568510732573224,2.1424935793330424,13.775665626868845,3.173558603649269,-6.275563899797632,3.697471026743673,-13.658838030456923,-8.406217139126255,7.372947887195357,0.1859049371569483,12.03379960714204,-11.900824717166852
7.0868782782918345,8.173260294852525,4.960163933941303,4.1532908952852905,11.274568391147634,-0.415837098812176,-5.097439196341784,1.3696763565847396,-14.537513988265315,-7.594809286676252,4.772362210794373,-0.6156849462803962,7.317582222136039,-2.362209246977286
4.376512237144482,7.472823046902761,3.136130976140345,6.769049379591155,10.108156405143404,-2.7420235367642363,-3.5928039213145078,-1.152241058828506,-12.36916666611827,-0.6681826255044143,3.8692612558108728,-0.2866489214995908,6.012776007830202,4.333988147970636
2.973543983338118,5.74556622875275,-0.1060357440014375,10.589211377490702,7.9370232432323,-2.2294588953781727,-1.121185957646925,-5.3326606365823,-7.780967292240622,10.763488691118596,3.784708240090099,1.2720757571925674,5.406547761616855,12.43898530242389
4.117718110314797,5.233979686767498,-2.4448147355518826,11.094138323662984,7.922585145963775,0.7113236445123334,0.2862083604272006,-7.78909584682005,-5.938904849982604,20.604236067663862,2.6592693033284265,3.1697122811763165,2.178845821499404,15.822521943519533
7.255826109768463,6.338067470472993,-4.000921286833027,7.976697112840402,11.343006980292046,4.163167099464886,0.3685841296763379,-6.724359110325064,-6.119980856164469,22.632065404055368,1.5654975052060789,3.874976226609988,0.5967027705721905,5.384348303787951
9.659809629856682,7.306594315375719,-6.597824678324213,3.349236734570264,12.59049424506092,6.15025438590277,0.2606175762809677,-6.551854167999027,-7.731210979007291,15.292938963492873,-1.0946220178483446,2.077468518628393,-2.848767049189137,-0.7109541282790774
8.029357557409298,5.818865467165097,-9.849644471868055,-3.987232048847959,12.596716552253978,5.94289412041303,-0.6104071496290007,-5.154898667899103,-11.778334716577012,2.9931964382212755,-5.157503809559203,-2.359311211538511,-7.458620100132167,-8.965554123159162
1.1934625115095514,1.2229812844897197,-11.008791876964152,-6.959654548914196,10.679592566931763,4.346997001262821,0.5944927475086956,-2.973802394602658,-11.573118423611184,-7.069768254136989,-7.027377537849379,-7.99055628680901,-8.311473135372488,-14.546396262516105
-8.376961423654848,-4.530800804241721,-10.089838525910247,-4.944930764832263,5.784765591847031,2.9250959688912417,4.147446489916758,-0.7327725064506359,-6.8010089561209845,-9.872471517963618,-5.753212175333589,-12.32916636335699,-5.958101492764097,-7.576719265636676
-15.87739532195178,-8.241530080854886,-7.361524850644159,-2.2163760744670555,-0.2953107143084549,2.836402712749305,9.13939040280235,3.792576740305381,-2.980314624571106,-5.462283316868138,-4.19019940847226,-13.107874517067671,-4.163452392533376,-6.483539549676843
-17.551106959163462,-8.054665498018835,-2.0707272970505817,3.072028804745002,-8.126098337851905,4.138692915061142,16.402615583046803,8.949213897721952,1.3317170356145949,2.088839721573777,-1.4915795342428764,-9.503331129720436,-1.1345666840549002,-2.3797345935444425
-13.437967773961873,-5.025096863186718,0.8319198525948514,4.659802674763801,-10.67342293728147,5.950009676019249,20.000630600650027,12.849268002642962,4.877321514672454,8.296646664723994,1.1658973972345654,-2.5552608723915,1.5475047878881094,4.458885720605987
-7.171829160037078,-2.210481084380717,1.1902563935684167,1.7843821583897626,-7.081043355597128,7.21311670814066,19.554378209295077,15.1880105703337,6.815169307492749,11.302971971502076,1.2305056135307657,5.438652447598543,1.4590201375315934,2.562511707013277
-3.0214228958400327,-2.130173168201054,1.2276372298120195,-1.9584200477435167,-3.304895721601432,7.424074190952183,17.862670505396938,16.730710958717648,10.922947129021418,12.170251737201395,2.321391638111366,12.10304019334228,2.5481571971901995,5.381298157954767
-2.7383345957726988,-4.9502244034299565,-0.2713224711505302,-8.306018524233679,2.4790399064648443,6.8208409796861815,13.36910646075203,17.858395963759744,16.822927604484263,12.854950231679368,4.312983753509306,15.998789540311009,3.4922156442816483,5.7092109125099855
-4.808531863308758,-8.973292066183149,-0.4520474358961837,-10.161825647611176,3.672514052712364,6.013329340728205,10.267270937227211,18.64340341229513,20.4474045076962,14.13126635774472,3.529834088981197,16.977886017189803,2.204476139221598,0.4935585726845177
-6.407207680119655,-12.652184142009672,0.903105096291302,-6.81188986398249,-0.9959973630443856,5.454148365364517,8.869438103396407,19.021820090455765,22.18408172213435,15.320579652623792,1.4600733103475,15.894948026715385,1.0310588130138898,0.2328767335736293
-5.956180517482835,-15.8409218230006,2.898680340527949,-2.8359612749093475,-3.583246384682337,5.167673042885326,7.786144641473286,18.391071513991843,23.63925569643936,15.631719775758825,-0.3670496860544221,14.034466242754434,0.4597575268582438,-1.0348294829403202
-3.945369976160237,-18.9739108766654,6.312109276746698,3.614092168222091,-5.765272192664843,4.834582451257745,8.158164580785805,16.67411247080002,24.0400604231371,15.351696593260158,-4.174201476984464,12.58692444716172,-0.7792208460553536,-1.439457055909823
-1.6773056085480107,-21.33044108912037,8.324037616131422,5.133060313272546,-6.859377403975457,4.026603469589361,8.014366741397584,15.40864249620705,25.319924177194164,15.550746209111196,-5.558176383559225,12.285714826499202,-1.1324190063169306,0.4548763777783742
0.3227709731767163,-20.79159885806393,8.846285251269435,0.7599082040355393,-5.579730389365222,2.390824537019057,7.426773754085498,14.87302076778588,27.70584539180534,16.767023518667315,-2.6373129120381877,13.205734478725844,-0.5681692259936317,-0.7236470276863207
2.440409893446258,-15.975985610011548,9.020697395854487,-2.48632743736983,-4.338200262205743,-0.2027931105988045,3.841670456113917,14.128760768292148,27.319274916951603,18.278555370080767,-1.702763643320512,14.792268423926544,-1.9288224751728624,-1.4059997291302466
4.739535707300888,-8.770244299472438,8.158783082127306,-6.425167342921911,-2.535132728341656,-3.454115571142097,-3.463614632239965,13.565978703264994,24.39768254578038,18.8173435744651,0.6635104122485433,16.211018679189465,-2.8058175350381025,-0.7966479748351161
6.106805013801704,-4.17461661862319,9.039405225404147,-7.047161040713409,-0.4424666147163533,-6.4741470509897,-6.746809001330559,11.81226977709439,21.467945259632828,17.874928131560637,3.5770931984127627,16.89937330603209,-1.3623249071642047,0.7963447570023741
5.102117188462785,-6.612926184726348,11.872427338012423,-3.051057841870342,1.6358608699079211,-7.989231949175632,-6.336757718215939,9.297643511206468,17.847190858348043,16.090842778594947,3.0914142631269983,16.924271254627797,0.9536425745742814,3.261697814734096
1.820667753734824,-15.517858082132989,14.635236406659406,-0.0473078642297369,0.58505062788026,-7.056082586802745,-2.807485994528579,6.829881458815274,16.64818368798598,14.34785867288656,4.821851867358279,16.797343794545213,4.465554393918102,2.1806291033047414
-1.314757795293076,-24.41032201776329,17.987788604878507,3.1706398194827394,-4.13761236353127,-3.897889637831099,5.734657045343854,3.127238641000087,18.522168230885004,12.729905669840493,6.535416253657162,16.85339201196325,8.310678693923796,-0.5195007527110256
-1.0719117277432133,-25.05751500381893,18.019913563027824,6.063200092287215,-5.997341413148528,-0.1146393741129259,6.20893515699288,-0.4774557312464901,17.011976743715948,10.596428200137892,4.931562852603708,16.746100822803555,7.82613184263546,-2.7700310021557963
3.818356602781705,-13.757763322904225,14.14736098924457,7.747773907310924,-5.5194451308235015,2.149126618492687,-1.827335863493489,-5.259210243639579,12.66684064411711,7.607786833962109,2.598474556458969,15.543009007770252,2.770787248301499,-3.493656199858391
11.12473319374476,5.435845487132156,9.521618136098216,8.975394874006732,-0.4106263797810738,1.6169087384287195,-10.224897622748436,-11.906223496979688,5.038952874923413,4.347506327212955,-1.550414053832231,12.342007198917033,-1.1845039586036794,0.5461469005324909
16.394402369215754,23.41779117882072,3.0664897062287104,9.224013450701287,11.075147778940943,-1.2193380219570145,-21.982530379738776,-18.025319053285717,-7.387333745450178,1.6815402887168602,-7.326586329959731,6.869103658162885,-5.897053575245885,3.745789056982289
16.189572901494728,32.571014524218526,-1.0934822208538533,8.308050461844601,15.177353193722643,-4.4923760785743525,-25.185894592744177,-22.853062845244366,-13.826014867459186,-0.4258970179449761,-9.057973062615318,-0.3717525311200234,-8.136655130884796,3.1717324528640645
10.686584223671275,31.87070590146726,-2.289683473691149,6.080904008128135,12.095064366187072,-6.357256440001663,-18.051510726868287,-25.19437286092798,-14.13174521805486,-3.16910931491509,-6.183588057824796,-8.336002675379689,-4.996803477455301,0.8747651169028832
3.536271147280786,26.628344599707702,-4.387143328105551,6.100250039171427,7.18397323083654,-6.239010408172192,-13.166163372836705,-25.485202314750044,-15.00083182024987,-7.760533298366965,-3.1495800936876583,-15.739512008802365,-4.786706402405991,-3.6706361085531625
-0.8829981352577647,23.530426098655767,-6.293962228478757,8.57256054773888,-2.6738612626095803,-4.941731143030893,-7.6014185969208,-25.09356017453474,-14.08134653292473,-14.02144967773654,1.3387668795314582,-21.30479541539421,-4.228571347225499,-5.104056656754469
-0.6260389284072971,25.349691539666026,-7.666948433254007,9.568111806144588,-5.114704034473737,-3.677402262591841,-5.210087708763636,-24.308602120025714,-14.66865446007702,-20.19025586296408,4.350052450080463,-24.105175802308963,-1.4622926369125504,-1.8835403981272048
2.6686193245361096,29.50883059997,-8.90232476497893,9.792191323437184,0.8684879227627708,-3.0009117183900003,-8.17008015194562,-22.68933913453652,-17.633775060765558,-24.173683901674,3.591103998632048,-24.026084604418088,0.8936372488420936,1.9850874157555085
5.380648462850502,31.092304711510398,-9.56798356565324,7.43171299297614,4.40445065128271,-2.5903943830003584,-7.059030391732443,-19.844188623625246,-16.241266888831444,-25.014992580327203,2.4970648590015645,-21.97336902207698,3.6440548316158368,3.966375960404406
4.836444659709798,27.28041337959172,-9.69885272303482,1.6085868997709414,8.276051663747017,-1.906317488744236,-3.0961263549396407,-15.58527910936116,-11.111548921681926,-23.26049017828612,0.699952916195904,-19.42015162328596,5.5391441375544375,2.933453666057356
1.2162484782006686,19.495217086214357,-9.14630977997904,-0.4512970467955111,6.849907997729523,-0.9347847817747096,-1.162611924072309,-11.533337465046914,-7.3600496462146845,-20.12478700061428,-0.8266315029153534,-17.443328729362577,4.917217792783039,0.3626885531871487
-2.9129932759706207,11.937528952828814,-7.8118956866916704,1.0184748698002113,-1.872296720527649,-0.2499769570191006,0.0887440347046724,-9.253024864653153,-4.016342973820628,-16.474604868213476,-0.4339988514179476,-16.013479708782967,1.973286784157995,-1.5979538803468598
-4.805312076792475,8.223141436858171,-5.631228220457726,1.78387059580506,-8.561954327641681,-0.4002901941983481,-0.0774893544387941,-6.791120665441416,-1.52288800474018,-12.572514605430811,0.8815682545506807,-14.212874005673754,0.705095773193864,-1.5252522289517685
-3.5615135090723555,8.963941833548276,-2.501409075721806,3.26402412981671,-14.85204112371253,-1.3007336869607116,-2.395061659466857,-4.305584846597853,-0.8363831179705573,-8.556847861248514,1.5840369047869818,-11.23024214830724,-0.138759715392126,-1.6332109928153398
-0.4623332196686078,11.856064958945751,-1.3922632654980376,1.9314120408410032,-15.36344617922113,-2.257290989053274,-2.5959724646663243,-2.504427025219831,0.2070335860115638,-4.924751673108645,0.8435419137219595,-7.229078503707136,-1.1246123123524967,-2.592529746792887
2.3245110468230408,13.672255798736796,-2.528189496655832,-2.9670678300283546,-7.946881667108967,-2.5774329786423884,-0.8038804687602124,-0.0539705252876949,1.2048807376755633,-2.4634794895108847,-1.9440364416995888,-3.303968127805156,-1.7666379080393813,-3.3615072221717077
3.345589470499009,12.385857218394046,-2.3201818756947,-5.522314097252334,0.1652821069584692,-2.1488396721170657,0.0247675982345792,1.7661159450182904,2.4155648668931184,-1.72411659144931,-2.4966162849339537,-0.6144258526297701,-2.1238668784503045,-2.268986027690647
2.537182100368094,8.074702378386096,-1.355802478401654,-6.480633715218244,10.889406254835228,-1.4341282668815047,0.6795600755894452,2.356656821934532,4.19960025079315,-2.5211800667256643,0.1183196752187384,0.4683063368407438,-1.3662925517550346,2.347065954738808
0.8039437397656712,2.446698753702009,-1.225770170396447,-5.936087624176691,15.600587531596338,-0.9285395140205992,0.4811497664797348,3.0003057538638056,4.454460889806423,-3.837066345990373,2.1121803374131045,0.4662039680129837,-0.8332537803851997,6.034010916397001
-0.7941411172963555,-2.3301998272233533,-1.431687245289111,-2.6997497116972564,12.572500548507866,-0.65126911095075,-1.025728966858091,2.1451309983301,3.2233735284191227,-4.234441354135107,2.947907783606608,0.1886557729403293,0.0963876150797962,5.641942424193942
-1.573064301158993,-4.723644979928977,-3.287865005602633,-0.5552441195626198,7.745553587300241,-0.1898266307119911,-2.1325926902915504,-0.0951192613492846,1.464281121006557,-2.6676527983362206,0.2019418505915736,0.0801402302397207,1.0537517459823642,2.1552404559896963
-1.3804591061323492,-4.428018394961228,-7.118933894254085,0.7253224335478633,-1.5865418167284877,0.7522653795912504,-3.0776333661228805,-2.3868924453973324,-1.2732300749706986,0.650820074725317,-5.196347215094994,0.0870977859438681,2.2949492709573227,-3.906774994562499
-0.6077462188144835,-2.3449657816290994,-8.050757341113554,1.3611306003315395,-6.671521962468956,1.891029133435936,-3.0075585374294707,-4.229653953879343,-2.292443220744334,3.955429417673926,-7.0943407548081625,-0.0054349931215966,3.891839004786733,-7.389340895913802
-0.093177973714404,-0.0515320765653655,-6.11282809376137,0.497209348897835,-6.563716893533616,2.529649186073698,-1.5116966876797886,-3.888339331375396,-1.3017500832436557,4.783491380501545,-3.672410744295944,-0.2656977977980972,3.883311904638728,-5.162294668897967
-0.7145019734644507,0.9745137880767912,-5.101786877965612,0.2390025262059396,-4.166024624593342,2.2756446662242524,-0.4348518833623957,-2.3842917663801897,-2.465889501230996,1.7914568786172822,0.6009596846841729,-0.6722871972234827,1.5452116752833889,-1.5576246416379134
-2.6911489242766606,-0.0027001348490784,-4.071838403551656,0.3876233129908588,3.094683076976309,1.5913536506576804,0.4958995409084692,-1.0260217032643106,-5.310885524915498,-3.755342390995111,4.043498599592599,-1.3583475333222452,-2.9371251843762725,1.4088520868400514
-5.122435640741287,-2.75796145307487,-4.153324246285915,-0.2137794182871418,6.210362972982347,1.4999549547229378,0.3644863660187349,0.6269226877370346,-6.691540128301631,-8.376651512797793,4.797109535061211,-2.6111986841669648,-6.237665080916242,3.267446118192836
-6.387835842340053,-6.337128598349921,-5.990382179320484,-1.2459698281574687,4.9498982265371945,2.5662816800104906,-1.2667375670048349,2.394405459627957,-7.169565078954185,-8.906456351284447,1.769746576665635,-4.510057856318639,-5.754104094454801,3.2171437807183687
-5.383135630107034,-9.537812662656307,-6.105196690462551,-2.7920047520132982,1.6906990467749798,4.101897668994837,-2.436457116534376,4.260493801493717,-5.50312215700488,-5.347174462515255,0.9152027677864926,-6.606739211501804,-2.7459653323862754,3.662383939316324
-2.668617226868889,-11.401352118173236,-4.780984340318932,-5.01228055144285,-5.864850597119246,4.508422448635656,-3.4370143797531427,7.133661961754198,-0.9799783587226532,-1.426260388521257,3.3017639851864358,-8.138488999964181,1.0954673196501563,7.056537676292272
-0.4034568519766708,-11.565256773909796,-4.916418875323603,-6.572415104894458,-7.528735813740345,2.652669716727644,-2.6867315483818386,9.879371118056255,0.6926673168236227,-1.8755234144567796,5.123903821761731,-8.720740047601197,3.2747575711936525,8.170895388460687
-0.8399190288842533,-10.386427660722688,-6.024677163499858,-7.435169929876781,-2.905903374659321,-0.9164684170904708,0.3409423916489503,10.783969629152187,-0.3436364301446855,-8.412717789345436,5.0576728549707,-8.840920083993211,2.7435657889119804,4.771667787833732
-4.469849463813773,-8.772906376466238,-7.714695921975784,-8.421756155548614,1.583168902169985,-4.114265567443965,3.791303630044732,11.592158167405406,-1.2398818182425324,-17.91239980688448,0.49859560824236,-9.512158985850874,0.4010457415548142,0.1935200055819116
-9.4258950562309,-7.764363504641693,-10.49535958222214,-9.22823382389009,8.257369871844567,-4.837230965908617,8.204339406930925,12.40896619299584,-3.191536592632286,-24.59627142109946,-7.927715968236462,-11.243878201270746,-0.7273919585999422,-8.226260931246571
-12.803494638018291,-8.063362139827007,-10.448684161099273,-9.484306654389547,8.796489646785654,-2.558624009388865,11.290099052521873,12.03737842474842,-2.889448411760802,-24.52974228060077,-11.76785999974484,-13.272174226755226,-0.2029998402053012,-12.484647669779669
-12.897883837005368,-9.767299247261718,-7.329440083484084,-9.207342614614536,1.8823722576984403,1.3861722702224597,12.624387377201986,11.859416557164792,0.1315127248345814,-18.563287468557263,-7.967708150239582,-13.893138531081432,0.2908952146011021,-8.084125223309625
-10.463524440952996,-12.392597236473051,-4.637477403397909,-9.248023001804231,-2.783164778590584,4.98367962942072,14.314163529306876,11.47486070874776,2.2778170479042816,-11.218974306192225,-1.1460440217637968,-11.7517951788019,1.499176382540222,-5.262975282769729
-7.919377738066203,-15.100125138522486,-1.5166701455184295,-9.585878673276174,-7.182395466353554,7.019812388206844,15.716336593921676,9.50040112224022,4.318860885985512,-6.683340840460431,7.343163317336568,-7.005710667507287,0.7057119632611424,-0.6903034991488918
-7.261280174867608,-17.018594420264208,0.0434151823354399,-8.805472505729364,-7.941596599005554,7.548805917144762,15.233444334066196,7.403099877737437,4.906238380842151,-5.580547312117233,10.199439900481508,-1.3465493726341435,-1.222844807848651,2.7961615119907
-8.573287485283373,-17.635324414301323,-0.6449849454560411,-6.98905254324875,-3.1810533495235447,7.193806728886358,12.906266718585842,5.055527798897485,3.3525330723621685,-5.256911945991959,3.6304805140605305,3.129487714979291,-1.6416459038657472,0.2069717270177782
-10.357701651859005,-17.12842711944961,-0.2357307368914464,-4.248122226881451,-1.1287590941744297,6.275422279120789,9.498935256358056,1.4405875053409076,2.8158631644576206,-2.926902606524294,-0.9943877716431816,5.239328388568225,-1.6284463038572714,2.134628252686837
-11.11620550345745,-16.30047525534971,0.7041867772265323,-0.2427625956381479,-0.7036311895968502,4.744153832753739,4.63531478979377,-2.3575480661948016,2.886089173354464,1.5181828795633692,-3.804654874243874,5.213438616010308,-0.1811170521892884,5.462347042309311
-10.513899425464755,-15.884581071211072,1.3863619539201606,0.3469434714112533,-1.264929179418076,2.8184173145809552,1.6738427994735476,-4.086417396918013,2.992335553263947,5.644466073834394,-4.8442471090453045,4.186566015680256,1.1004399925873227,5.574784605114302
-9.111390467757914,-15.627876626484364,2.3140121882167466,-2.801951303368983,-4.3535458997741765,1.353059795931216,0.9620806401993586,-3.2278458728470523,3.696899646533657,7.188702119909294,-0.4521730182715616,3.309162674178779,0.91952975338702,5.559262881800218
-7.267545568128796,-14.123867965380256,3.37786427715614,-4.29669458448903,-6.162476657922324,1.2739381116418258,-0.3910425337828925,-1.4035238269686414,4.125291973499492,6.556330571735359,0.9510333630757696,3.22096459938912,1.539345863907714,2.074129289897172
-4.6317465299215,-9.972976407068131,4.606256993722645,-5.064618669178344,-6.949074340064442,2.561134760812223,-1.5593530649354002,2.270284498947462,4.329065295148626,6.639349307642817,0.795601687011624,4.091047477720878,2.883340740776676,-2.925619208523652
-0.8297245719183621,-3.4994483115468995,5.966709485369871,-3.125811950021425,-6.729770520728059,3.9417419371560527,-2.524659967078312,4.392157134107382,4.706479585907007,10.109526381483915,1.857067534013623,5.88032747251917,4.03088318720946,-4.340397802991784
3.524966207052543,2.729517518389727,7.464512174632488,2.693713726817916,-4.655153442466456,3.838468786619643,-3.609534927004123,3.0735108934537485,5.108296118893269,16.730339341538652,1.3795979215680514,8.427424089787166,4.0045371803458725,-3.0723106080607634
6.822236652507257,5.574039961335799,7.527563638082307,4.836232829084181,-2.013513849896168,1.794937051481483,-4.962584159942834,2.69179577963788,3.714312040556588,23.2079874291301,1.223660546469774,11.32523629109231,1.405533564262822,-0.1120994471819332
7.704209446751008,4.018595999796375,5.989247502603368,3.706555578417493,1.530538928876997,-1.023076974784658,-6.739966271535232,1.513201440765368,0.36623252100309,25.77552022164302,0.1554840640507981,13.87637987986507,-2.953188157793603,2.714672990218918
6.3874868069612205,0.318389020351006,6.22834285089663,3.256215500829078,3.89985673781454,-2.833680419131994,-7.74472536884791,0.8834945199044353,-0.6806606861633949,23.252395944206675,-1.665476528649743,15.35769549311422,-6.010877832949051,2.7205796154998687
4.650846288484736,-1.8570375130845989,8.056504395807746,2.055108590523249,4.749324143930768,-2.8418867979265343,-7.99927676592606,3.479924137200888,0.4034936843791341,17.936830207555396,-2.081367803540817,15.472861884385054,-5.888386892751605,0.3240640694584134
4.356156784170658,-0.8173094868243638,11.180455119099754,3.349486853234473,4.913130872343398,-1.886618070763042,-6.865698293548095,5.390260108257832,3.733331707086382,13.65229495422708,-1.4149317023779522,14.610676130713898,-3.7562112017578366,-2.974312970916083
5.84951379800026,1.5017585195621166,16.403466719952398,7.785813174301821,3.7126094987693823,-1.502320799193651,-3.962267238292142,7.610192822515763,10.410944134789204,12.73852488891256,0.7379864822957154,13.635476357656422,-2.145535689899187,-5.355815858235661
7.764983656155927,1.515296261962991,17.70572726985193,8.84257418513219,2.627359616666005,-2.353742649058642,-3.626934962811012,8.428967919162115,11.243749633289635,14.545288400342663,2.7729102739462705,13.32711695586702,-1.2955300297505168,-4.781251045956162
8.423469321653219,-2.075841276549504,14.834743766772508,7.062752991486681,1.6409234757447535,-3.6333812847819527,-5.91044794026413,4.775439100713801,5.938456856760513,16.47294499535854,2.5811149941550635,13.882587838295086,-0.6137185419731493,-1.5121677906569206
7.486541999852752,-6.253271071136002,11.556211017736606,5.7564584314172365,1.9521921773595812,-4.011973425798324,-7.940047366672061,0.5442088721759881,0.2002016555519074,16.322902321274004,1.3636875128458228,14.810156380322836,0.0708565396077264,1.5671640682677723
6.272779296922947,-5.862962087304256,6.460708518663259,3.773003520337881,4.059340243208336,-3.1246684278854904,-10.6492357040288,-5.17416535580683,-8.08103867987849,13.784657818088109,-0.1245019752247969,15.20634213555617,4.4948642829956205,3.98236928168359
6.424276411801746,1.694358966557549,3.601640298788648,3.861499775774632,3.752419462130133,-2.027217285125535,-9.965334958181892,-9.54301373622529,-12.045273282148765,9.998519494953303,-1.703272475558642,14.1673566907947,8.225452605912595,4.194049100415783
8.203438302833293,13.572161240612106,3.6379395567524657,6.602884738636777,1.218033130993517,-2.1378227385006063,-5.197394702058524,-9.394126345441457,-10.60166623124292,6.036954094463537,-2.2674310327484646,11.151227016861064,6.352491706111726,1.4972515714894017
10.085351192791684,23.242972907993583,2.0318989713838707,6.280740960842776,-4.172924217433501,-3.756595563073762,-1.283097288786218,-9.653898783728373,-11.937413921543072,1.9724734404343849,-2.460367830572024,6.274599559816089,3.228584832346448,-0.2036619929053541
10.095406869521586,25.53372315107852,-0.2346423942178671,3.3568382586953023,-13.537746921380306,-5.686819598358049,2.763789962771732,-8.985633653851131,-14.4443156340417,-2.679047891113488,-4.503392142120673,0.4881175422033799,-4.191909589581806,-1.8329061224903935
7.655840202065146,20.525597614450884,-1.4134865344457004,1.2983803487232306,-15.325157323785705,-6.345744096099395,4.372613276999943,-8.687174305508636,-16.840899793919743,-7.853725561625499,-5.58827390611513,-4.612284574770506,-9.70416774975337,-2.8829210353855874
4.161973415446184,12.98398926630226,-2.008297911149078,-0.8524635753647708,-9.151423488210549,-5.254361869652328,2.4868538149987383,-11.086241884981598,-20.32631035810326,-12.46803844808747,-3.1967272946761907,-7.519618737045263,-5.569943929378122,-1.621503259612543
1.6941368430700765,8.083069981390857,-1.6242083707016512,-0.7716191536341158,-1.6337484220994158,-3.4638839059571467,2.1647096769446708,-12.482190667659117,-21.848705367550767,-15.081173565219215,-1.125070109080043,-7.783395105302915,-1.7056438487041643,-1.9906441379951116
1.0999765431500563,7.414635317126198,0.0281158315689527,2.228459967563136,9.95706169367356,-2.568380971242036,2.6479543529768708,-13.937983182325953,-21.34413365956649,-14.997085022115703,3.842597088928851,-6.4243301910234365,3.34793786662891,-2.655811378478213
1.363584333228815,8.663185991354034,0.667269595857383,4.350716590647037,14.210614651403416,-3.294493939332554,2.742617574366069,-14.11930660511314,-20.78408157737598,-12.746006274360212,8.758664853524389,-5.2378457788722415,7.166698259149465,-0.8408837057955532
0.9479369223070933,8.690118334500397,0.3111259522223398,6.204834064829487,9.66893936194842,-4.94293828610369,3.264776130704434,-11.817346768696217,-19.53340422279684,-9.595169245640058,7.448132107836036,-5.380711231562124,2.916629202443208,2.045792046838132
-0.2293321013463085,6.716871427024749,0.8495179660095905,8.222101269776717,7.243164675258509,-6.059472621912988,2.608793879553849,-9.454162384432331,-17.14891726246715,-6.665613911265368,5.894948700719598,-6.438470778212192,0.1161940613204577,6.270795267745943
-0.3237012529906096,4.6495193080881165,1.860000654528772,9.760292601757154,4.147101997712604,-5.62737783715977,0.7047675480939624,-5.395160158015171,-13.773283322816718,-4.436598628490593,2.691628000818296,-6.885563580138104,-1.364521933372948,11.864302883331824
2.6502949064607435,4.686097007644918,1.804495823504272,9.917525538968777,2.9529427433945066,-3.780083630855074,-0.0769158116128269,-2.5156555556185105,-10.03498269913958,-2.8414160458129345,-1.70725778973158,-5.590601081050124,-2.6088776719472406,11.829249977945338
8.35366535573904,6.933731529722735,0.8151177750753084,8.383809100655375,5.332464922120732,-1.5893705974390997,0.0546437610708345,-1.4552655744976624,-5.926436726064957,-1.5724682152664116,-2.662809680000312,-2.988660352301409,-1.0170236258211482,4.584204387596253
13.514877630917644,9.376874156568633,-0.7833052377920113,5.888800759013388,5.885832407076268,-0.2374446868592343,-1.1865261429333176,0.9711354585711048,-1.4255402312700811,-0.2460283776009788,-2.2988154491192243,-0.8185717661309013,-0.0621900685101602,-1.7161686923618908
14.16976867249128,9.90615713988781,-3.333214587698016,2.0480743355531934,5.60464251524084,-0.2228441825692471,-3.492744610869362,1.9587011190789128,3.2913052787056265,1.4767443544902503,-2.960065468329237,-0.67467120209119,0.1274583252241204,-10.238924600182036
9.016307599019555,8.136329126289297,-4.812415855418161,-0.2992952799695184,4.708864176915879,-1.1056360521182995,-5.005565027032251,2.205027955400566,5.751246773095066,3.5731723640236908,-3.832637311204644,-2.7106177681713888,-0.4455771002866258,-14.448973119040058
0.8699099027636095,5.3145529051274,-5.110799098311492,-0.8897477201735735,2.347656344018896,-1.900900193464736,-6.009586243846885,1.907768438256341,5.60569654364479,5.335406334759625,-3.881026506241109,-5.60910407685779,-1.160157146487724,-8.658911759831398
-5.276366847762574,2.811393870785423,-5.6055264443376505,-0.7041201285189694,-0.7858888801936369,-1.8318843776831104,-5.267363036129474,-0.7609114424500985,5.532734088342942,5.615827654000256,-3.954599801670217,-7.703100681767481,-0.5277277039345107,-6.203442840829258
-6.075442493638491,0.9991775858856472,-5.823602600552181,1.086290938892618,-4.998326555257537,-0.918409770755801,-2.277954256544351,-3.833464316131716,4.906875071414867,3.819984159819697,-0.8621618308425664,-8.15811443011117,0.2983089567378502,-1.9881610183047
-2.301399583621688,-0.4812931992124021,-5.0320592439047696,2.495084266556475,-6.977146114722448,0.0452075074658893,-0.5766357456793784,-5.123290857520427,4.988865177072535,0.8552298181815843,3.5130312018744068,-7.261803772152959,1.3093617015083034,3.0481959672208307
2.091263640175228,-1.78173217915068,-3.26723919206824,3.527201581759565,-6.400787637136975,0.1436775576634374,0.092707712937621,-3.9481277489573,6.287537249704738,-1.143053133186427,4.339420301561585,-5.804578949584965,2.11140784430809,1.83132981983932
3.423291119137218,-2.5480329489106737,-1.311792868113554,2.1681312622940747,-6.580367735310948,-0.8631696122204175,0.4363759534218007,-1.9064711700149852,5.910828683553706,-0.4804471666571288,3.219847253603733,-4.2779033763845575,0.2987777205116003,3.827827445232292
1.2640007892771052,-2.5416642868745,0.960520864506343,-2.306197718699305,-6.757470782715908,-2.247611800420998,-0.2962934600763218,0.8731040656656001,4.17642298342727,2.4490722334606403,-0.0954972917734963,-2.571066747202124,-1.981938587221889,5.45811778893499
-1.5065687871229585,-2.2209851418933297,1.47786367591812,-4.998574695551511,-6.061784359240325,-2.7819874316229587,-0.3948149271015965,3.527481758984497,4.706138267306742,5.32111633703606,-3.136577181232086,-0.2731997279994971,-2.5831356015640337,3.405610857599444
-1.4055010100578542,-2.4000111724057547,-0.1224118333012204,-6.383201570405402,-4.885932467974777,-1.6134824194102535,0.0988115559186129,4.656675607454866,7.265460923367171,5.998820928738461,-1.904876971806796,2.78451785830395,-1.8942495422987116,2.606457806679943
2.580165274057819,-3.310695582538393,-0.5138307561264589,-3.771362123985039,-0.3790238655627092,1.113202760762995,0.9687009564915348,6.474992699504826,10.459814018246195,4.631870093968523,1.5560812296043158,6.162830288144839,1.4083430048310062,1.083752349981354
8.067068469423404,-4.204513579119684,-0.1366552010948353,4.184757475523591,7.807676237036318,4.306331312024483,2.614341308963781,9.08892909790448,15.043287008680114,3.5071973713020057,4.553659773148114,8.83103023277858,5.222076702745244,-0.4426753594348071
11.084213996603085,-4.058192525615475,-0.4427905629764276,5.859133278386333,10.600107857047652,6.564507068047732,3.2843288264677457,10.184188103033406,16.46895382988771,4.621710175178876,4.889660983085042,9.563220797242955,5.997625699377714,0.0042339348310931
9.019567543679637,-2.690584127122982,-0.915602035437602,1.5567886390541636,8.045444936261207,6.962769702596162,2.9636915307267464,10.85490098435196,14.296579890760974,7.41354541761936,2.090916018169456,7.571989424355536,3.6417179363672414,0.1687265747532437
2.409715359230041,-1.125194328550343,-4.084374040344571,-5.572312908650914,4.277440700596467,5.538243419135277,1.7810082090806916,11.470057843367016,12.210896635336422,9.081465843984889,-1.3786115266178849,3.10577101263722,-0.4143587364166582,-0.7192433437303736
-5.582344402357428,-0.8384804055552664,-10.342649115789492,-18.231813454142397,-2.7828750307409447,3.2437321014611484,-0.7323299719176146,10.35773643324956,9.098303535666082,7.280161961925799,-2.9197652129007428,-2.357144976819832,-4.249608250744884,-2.370559880025715
-11.328482250920892,-2.65108167877348,-12.520892122809872,-22.23174000422585,-5.919552815276082,1.41583249631217,0.381716037967572,10.82359492116842,8.1429966308305,2.4813027268725847,-1.9962711163469429,-6.583413584411531,-5.304082324571134,-3.5681820018770605
-12.842536585141495,-6.243287408129952,-10.79187697017512,-16.755136287978978,-4.412888464627855,1.0538684711315156,5.401629404524254,12.76735761468754,10.051790720158849,-2.363304025345577,-0.9848677613792396,-7.633284430518742,-3.5394138357936766,-2.8287199701947
-10.543119533987582,-10.51381983776821,-6.553681684813753,-11.960762335452248,-5.2701207485861365,2.331588733270795,11.50080893074062,13.500308417889656,11.42215971536026,-4.415287830438846,-2.401354860328829,-4.949570861249963,-2.0682522996376984,-0.8326503486050257
-6.572681292432396,-14.230138644750674,1.9458884413111792,-4.569076781721123,-6.871904214725335,4.634474335403745,19.917477715826024,15.793965575180852,13.149687285509147,-3.162081798312201,-6.508069090684808,0.2155807774748339,-2.417243758117611,2.859563568541095
-3.4530783563833225,-16.428411326218143,5.775885357993024,-2.078310361701701,-7.433318341618178,7.045321691329928,22.667169627064613,16.618922471611178,14.380022770265994,-0.2841069504577902,-8.875847635333837,5.416312518138572,-2.905897278488592,5.716394219728239
-2.891893591578974,-16.567891663302298,4.615930066905529,-6.204180428892799,-7.78114630066348,8.863975421646742,18.853514286034347,14.789841762643164,14.613311373416712,2.22622406789538,-6.11988660076024,8.377749548407056,-1.974391339236436,5.131200948739073
-5.109405243017305,-14.721355953337394,2.4479591793849163,-7.973243214534109,-5.578715682640171,9.77787351420204,15.55263840825617,14.108663595300923,15.190108631347549,3.558210165341628,0.3480803963417012,8.259332474588897,0.4440143421373041,2.544912265834243
-8.77148697348668,-11.786538731992596,-2.927515873185789,-9.39453889375094,-0.481470533389721,9.688987843888013,10.797104406612265,11.592416602482508,15.764666670078556,3.982944262570335,9.419920624369537,5.983407826384314,5.34248748413266,-2.340664192633222
-11.615552112320938,-9.335484988378903,-4.096282774112785,-9.36046774340349,1.841249913929806,8.55009649262881,7.772986945010927,9.095289637918905,15.265686085711826,3.890209367448911,13.400545166182164,3.4462732626319355,7.875592266678071,-6.500246998092791
-11.721516023035448,-8.870660431639863,-0.4464932287697699,-6.462604211252183,1.6203584242787723,6.475414599992992,7.631425318149311,8.810341519803782,13.739053105472184,3.315945373875989,8.934797065290788,2.2286929571578096,5.101875134008948,-6.069869249580761
-8.862530589205106,-10.847666802124737,3.606162945103269,-2.5941188768557173,0.9785354064907325,3.966159385452893,5.007521368863758,6.842567675443454,12.604514145807444,2.2317746809817285,3.952516845053157,2.7332345923692447,2.392176953379759,-2.549241560357709
-4.931873276761356,-14.20301519274546,9.93638496919027,3.0719193894214203,-1.3097661691667006,1.838158293420759,0.8095326141218555,5.193991008749415,11.717720096991616,0.7813985516852411,-0.8454784625029965,4.244484277998436,-1.1583547365075435,2.142770798892476
-2.81585029794204,-16.844831160182924,11.36623870178427,5.59087580494691,-2.1307654070726403,0.7070676176314079,-1.6114750404800502,4.180742313107983,11.318510002213255,-1.021293171087923,-2.35902352203997,5.646126001703243,-2.639421617958789,5.414414995055282
-4.277959721485769,-16.851013625402768,7.014595955299704,4.45872549138104,-1.2563924674753848,0.4333767450117785,-2.8457267203791146,1.4798277492057477,11.749927700487136,-3.541135961772888,1.278076317389547,6.130750823313003,0.5354556841720606,4.576012356338339
-8.444604809947297,-13.596676159239882,3.1474457092631973,-0.0536826235476387,-1.1319438662366317,0.1333715122685976,-4.679181897211841,-0.711784100185326,10.734197984789402,-6.982446972567102,1.212900364602169,5.476157214693062,0.8823063793800647,0.919678262542257
-12.230631091903046,-8.08181360748968,-2.0216451026325752,-9.556026980278336,-1.0612684859735464,-1.0847438946611003,-6.649753986441444,-2.5870111317938664,8.293206528786643,-10.476212168451218,-2.6963158844067685,3.967099567190029,-0.243509824394703,-1.2309960269436788
-12.524677724039911,-2.2669885005343,-3.069814315995425,-11.796974035283034,-1.0035546123388936,-3.2280403359038985,-8.090142875379632,-5.3013179740478185,6.872513700634918,-12.10381741688749,-7.07666763626434,2.23748495505682,-2.2205668429880543,-1.931028840128158
-8.452968277705697,2.1322646081591774,1.260812839463632,-6.380676819082682,-1.2335536574375263,-5.20999669011127,-9.196651688005918,-7.389587974070176,6.112654606715872,-10.391260591666578,-10.619798869704118,1.0838479012484044,-6.217510128777051,-2.284340815577962
-1.9401955715458268,4.575450597712006,3.462209893252155,1.305334254226436,-0.232117626017148,-5.6340218231247015,-7.530206982552592,-9.195941895571352,6.696385344750611,-6.015124191777556,-8.85500638493462,1.089303031998755,-6.151868708424632,-1.440725082139369
3.794954738379495,5.707812626130476,4.919185493131093,14.297615415248526,2.04390216536761,-3.9718230480591874,-2.7431186313157,-11.576106561709029,9.176530543408312,-1.803224083402132,-3.160152639551342,2.0905631127552446,-4.386153237322359,-3.723230433861489
6.504580588438628,6.495494957153296,4.055809128894654,18.248704012075937,3.895580607052976,-1.1036089993431304,-1.455038233814229,-13.035659377031278,9.510526749270282,-0.6333965963923909,2.828004949043073,2.92871769611655,-1.284774394642923,-5.2929335609464605
6.159233303519748,7.289621570592196,-0.5502367919751125,11.919380820123433,5.586494021021291,1.302837518793364,-3.473332823991544,-13.440569421250856,7.772699429395874,-3.0658785796086434,5.804342011376878,1.9581702358359472,3.022750815709393,-2.5393360295979828
4.422985731172638,7.752378195983621,-3.695265467413432,6.02264614076519,6.564406239744019,2.0624832242913484,-6.499473245968909,-13.949050582610177,4.843460912571321,-7.028440779842484,2.875586555833661,-1.8007641831293562,2.58994338523659,-0.6295012025851489
3.089180106138574,7.76684448084573,-6.0335665230166535,-2.9337219492890543,6.447837395790799,1.2831415273985023,-12.02938057729072,-13.476573829113434,-0.2536372346045337,-9.923783645809769,-0.3962013067295034,-7.697797402914016,2.112450883305085,3.219247639388544
2.8625647144465383,8.33073431729716,-7.589493956588097,-4.983366110909727,6.839962258694011,0.0335673514977088,-14.14663248616644,-13.217060569849815,-4.376733551331292,-11.100447223892456,-2.026815212060876,-13.583916263383385,0.8052565349041697,4.594821512183283
3.287106490254469,11.185355156101965,-7.343284948697616,1.8583509623237071,7.545319713806552,-0.7397030222360712,-12.441276219810709,-14.647668681305955,-7.508750388026136,-12.255425630681192,-0.7362338468207525,-17.142639413680083,-1.1857939812222291,1.2395938434771543
3.5141362452992877,17.101378323695904,-7.51893450043122,6.397478508755425,7.452224399754754,-0.983076262207664,-11.075111409835053,-15.684422905888091,-9.54333424529344,-15.431961949003318,7.7583992143131475,-17.50777768327941,4.868988416158176,3.496718912548144
3.0307637306840505,24.355112612387185,-7.800691774712678,11.250977820903902,6.76729083632115,-1.319439282264792,-8.650571784746806,-16.756199501697978,-9.62268291262675,-20.688721118452435,14.117882078509792,-15.92841939144708,10.54337562946605,7.955452062834326
1.809276389703875,29.23686083374217,-7.788967520682066,13.179083163556385,4.700765720337691,-2.203816441127572,-7.723361048390867,-18.48882620940829,-14.238415079867003,-25.799221823576943,12.98898827472626,-14.937605709409514,11.486837977591865,11.030280343854006
0.0623794308517844,28.745742638100776,-7.839993337177973,10.289614762883737,0.9681169343641006,-3.413026202279106,-8.90897023813391,-19.452285398150515,-23.538847046544223,-28.25069006565512,7.602670479814551,-16.61320730694294,10.227974900056918,12.449585071940152
-1.901268623387061,23.349666784082395,-8.485742232799936,8.799709399312164,-1.0153690937884694,-4.379783169678184,-9.407870189116602,-20.398007955563056,-36.06245047792535,-27.510728662584576,-5.182297466051002,-21.16375029595121,-2.3722217393779266,1.1482002363222927
-3.5607516146821467,17.1554333383416,-9.857438173926862,7.480997088771477,-1.2726373607770514,-4.898213095602788,-9.936124462056595,-22.13756920962561,-53.5263462183212,-25.32644012677431,-17.041966437315736,-26.76733158068244,-15.311171587326587,-16.110485641901217
-4.130588004839236,14.91341765599062,-9.508622934066736,6.694502459237205,-0.582764552529686,-5.309426474756805,-8.644692133168945,-20.898567111963477,-58.0077396668161,-23.840750837430928,-17.094987941317623,-30.661189048557198,-16.556324587011815,-23.676219885578483
-2.916942369420699,18.21773713017204,-7.428050653541304,7.435136586033624,1.9066749583775076,-5.901995319580319,-4.994028927144378,-15.924152376646898,-48.237661348800536,-23.454256681668696,-10.017193795046548,-30.67118918857758,-12.032239936357698,-19.67335166457628
0.0545865623945367,24.20301927235185,-2.966684418926284,9.067936015485946,1.8586711097419928,-6.236998781661498,-0.4506400401400551,-10.235522785219366,-37.29209711217132,-22.494775113106936,-1.511165300308877,-26.235915042025823,-2.894653568448729,-4.821521355111769
3.709255447532304,27.90319358302812,4.629467202225228,12.139820879930756,-0.9067944523600934,-5.303748939981823,5.62839718714516,-1.5637470441450705,-20.84066655087613,-18.86216618999589,5.770050839631169,-18.477900020774463,2.559707370816427,12.519899027915246
6.325234843726168,26.153518230060115,7.881180071454344,12.191939299276536,-1.072890411323033,-2.546935925030187,7.974635082809542,4.654305918767703,-13.223451752883191,-11.904500974855688,5.743505517055948,-9.511147800639788,-0.6601211886430436,18.152203745119387
6.501414628070524,19.62041777385835,6.631357687669488,8.94477087201493,0.6266414057404944,1.2294295962541604,6.0255835996505445,5.0411779159517005,-17.059259864919287,-2.764849730382025,-0.8418310692776844,-1.4834021051893416,-6.451992211112239,8.84493818497309
4.0369559163956446,11.45951868651672,4.258940582292273,2.925291331820896,4.900429158235295,4.123115005265998,2.7146121536528054,6.538033547837162,-14.41237416827811,6.838881633098374,-1.3905145214643335,4.233890405714057,-5.255546188410128,-2.172655723131373
0.1256974201662668,4.283055054209278,-1.0428687981710445,-7.1982759983252205,12.887277958386331,4.518052613845752,-3.4266152812489663,6.064374515428888,-8.756808115420116,15.890263515165255,1.7754919851483788,7.498144792077378,4.8643797346778905,-8.1767777916261
-3.2427478359388324,-1.5647013037168254,-2.74836200208986,-11.63600151169718,13.836177490320445,2.39392558165868,-6.805414278931647,5.167045755574638,-5.784736179537766,24.105865766614507,3.1407587341227967,9.352285210825078,12.974669570077207,-8.429754022711764
-4.309600481536615,-7.122930205803042,-0.274952482222306,-10.004666563921882,7.45519324037089,-0.6656159774237995,-6.885935817296129,7.998149345091852,-3.1486808077802837,30.982707639664557,5.900928950816673,11.38362856786889,15.118700200671716,-0.0287845565335818
-2.4693265180574464,-12.791431354851555,1.5935962281641711,-7.157742697092475,-0.1305498927442209,-2.8118837537533,-6.771728923945889,8.529276971986,-4.216641301657671,35.23487699121788,5.527858280826564,14.643496480990766,12.853050662040385,9.132494078326896
1.3420141557858043,-17.5796539448253,4.44603733726834,-0.6891243692666199,-11.422888059044318,-3.404534744227288,-4.974113015065976,8.147483825425127,-9.754247041992922,35.48457913104344,4.425983177959373,18.74538682799918,7.617003549680463,13.61996298054839
5.014418231359621,-20.32085633586453,5.519146411483958,1.2436841198712023,-16.031890976886064,-3.298746473560244,-3.373331535947925,9.399514227891968,-10.202255004076347,31.61106484958369,5.615985882352217,21.93114278982548,4.547727886579823,13.631496428134405
6.325121540006796,-21.221179561708905,4.118446072054788,-2.171613312561231,-12.608876717876754,-3.763038321758621,-2.160504208372678,8.708779006478439,-5.850914357145648,25.38365410475521,4.652821022899962,22.32855645115217,4.056484617626492,8.244046832094565
4.2588609394402495,-21.77145764395224,2.5508239672940625,-5.493920016864291,-10.768597250621792,-5.1179177295424845,-1.3345670739090827,7.898379788507333,-3.948085259494739,19.66711958073582,0.8120692789577411,19.572490167328112,-0.9327151117100276,-1.5247200304090731
-0.159639036823493,-23.01222352664984,-0.0450041078824131,-10.805874551360516,-7.929778549210567,-6.383562705901392,-1.4637840188611368,8.330827994107041,-2.7569401182340725,16.790943084838513,-6.9575921324934455,15.385967050283838,-12.635997387931756,-11.243670714799883
-4.189354593419514,-24.137785418668223,-0.580819876593801,-12.224905781629008,-6.022726159989092,-6.206814888145955,-0.565297161775318,5.892580568018456,-2.7880118515960626,17.292661201142323,-13.175494864968236,12.393773971803697,-19.98258079201234,-14.5963439237423
-4.901167735370798,-23.166245270236328,1.385711867557877,-8.84316639833618,-6.411105738394704,-4.133066282473651,1.23239953690833,2.4391651761212607,-5.151363029530005,19.77645282663199,-12.6105033142042,11.98893398206399,-18.06783762824349,-11.927397921006444
-1.0769222634677236,-19.1268263789756,4.350749753656277,-4.437014953839356,-4.07726598933872,-1.04344406006016,3.3883826605760543,-0.432622935957047,-5.088316067873111,21.767627646056734,-9.076842093511884,13.098660048009204,-11.997972082091612,-8.135695120663563
5.820810254817512,-13.438917520753105,9.239132672478336,2.678262238609567,0.2943575757857145,1.562812614322349,6.304208103263203,-6.210886428499054,-2.805588947413517,20.98096669398823,-2.6084619676404337,13.08228095075922,0.1714562195717806,-6.224158774637825
12.445525432889587,-8.891085460704861,11.907794576959558,5.343707845818164,3.2104433993364547,2.6947043466223075,6.408427267755073,-8.114322099010481,0.5023223775566185,16.45031499225896,3.2235431317592957,10.124880681070492,9.029394246843143,-5.840189923997391
15.733642768821156,-7.135429257724191,12.055915531858972,2.7648909039267933,5.266966357454744,2.40834061526957,3.4046791028772425,-4.989999048741334,5.879435046736952,9.10195002211044,4.50084529166166,5.057697701523118,7.750283737530515,-4.24829298318784
14.927585185862457,-7.203950293157211,11.864554647306312,0.3508687134360545,7.086751786767092,1.445114168728722,2.293324006110906,-2.8248486699536675,10.3625213826856,1.4568661520771262,2.514757837696906,0.9396760056787388,4.575702932154202,0.4488611467076124
11.921857768135528,-6.53232898109963,10.26608125414018,-3.726962647667197,8.06162888120762,0.5008776749816133,2.4358714356387066,3.6121587383570906,13.897162964295577,-3.560613976879753,0.2429412865614619,0.6796695959535,0.877982710068786,11.245786954261476
9.649850534163315,-3.4383626972179213,8.736102266209777,-4.389652152545764,7.36269433272365,-0.1573552975427015,3.492974776057077,7.837459249189942,17.127204095708468,-4.178503355433057,-0.2698688530271984,4.6959149750425935,-1.135035935686359,18.11548851178355
9.793831609213797,1.376970525906798,7.416061963769715,-0.6753587570596086,4.760032074190609,-0.539067824240056,6.455698109495694,6.348851807493031,19.304021868656992,-0.7811879222327525,1.7544173846593347,10.53471770201943,2.0884627425086624,14.197009288141642
11.63196432104875,5.610833295852455,5.679798722670356,1.438528154117088,1.57923153723522,-0.6352050103827649,6.127134697118818,7.817996919534379,22.559583403601348,4.29810503296977,8.615002252548091,14.63254998689526,7.925264501012085,8.995586397361937
12.834495786262366,7.41973524543293,3.908675177146693,3.227042273882661,-2.435069555039877,-0.4044335141657438,2.41295848530674,7.08040116481628,26.864617574816524,8.058131997454339,15.64600973854285,14.648667456633731,12.21541477872871,-0.473691382087879
11.381502825331973,6.70128607156231,2.063470565567738,2.928372661140534,-4.757930574759232,-0.004046569450872,1.875366692505939,6.726813169362025,26.883054215965807,8.357286353208865,15.545598532473134,10.57160345564646,11.373706247636187,-7.463586850033783
6.984311046643086,4.634848580123648,0.1883722137110238,-0.5454530050782992,-4.91353338651806,0.1381373895797821,3.7226519085658256,10.548585975478233,22.61303141142222,4.831057119495907,7.627794169887508,4.122452465850348,4.512673646262473,-4.035083588497688
1.0685983195149733,2.3602318185035216,-2.4092825945458074,-3.3805790666087008,-5.99232828279118,-0.3466361467071781,7.173949765577366,12.04468595033682,18.19936783887913,-1.1327901014442894,-4.646495600571791,-2.5660799934562126,-4.544854541991791,-3.767535923493895
-4.299154070332027,0.2727892898814179,-5.769057112342549,-6.240897283326886,-7.343951499656876,-1.2983938375304795,13.535250213143742,14.527574596984577,12.56826344532501,-7.142546997449568,-18.83393188236896,-7.771229926473524,-13.122533754176514,-5.338008181778103
-7.505079918585898,-1.6207816321314148,-6.209062212603003,-6.84046685407745,-8.095493077557368,-1.9518048528238785,15.6706525612465,17.473360365543442,11.532547320878464,-10.839837274126594,-23.29491850242401,-10.235446971852872,-14.896890561240667,-4.586365193016109
-7.897345190145176,-3.099707585372885,-3.5653021565358576,-4.30199424106226,-8.63189044177301,-1.475260791447102,13.33486216328572,18.4458525815986,16.241630871928248,-10.848242702390056,-13.80747706262042,-9.133786158372176,-8.557646012866147,-5.202058213789448
-5.849990201831777,-3.7633423458577617,-0.4396713451906514,-0.9253622380511898,-9.31022062681523,0.2728110342539072,12.54970157421566,20.72794139793612,17.664117616801246,-7.339703214707388,-3.3651911456659924,-4.514146278022465,-3.822793753886805,-2.183484441183981
-2.672485470661812,-3.5977746787290155,4.025362396935318,4.164253749567286,-10.111807050974322,2.4719947770210453,11.85188174839971,22.42593564996926,17.108411956112715,-1.9890530379391669,9.1305855856183,2.1612466816262828,0.3373884553078638,4.98550095106962
-0.2695445301710517,-3.239038221251329,4.607188782536759,5.658445201885044,-8.706549445496268,3.887626864840645,11.83187978258526,22.500914453825946,16.851500715717947,2.766300427950018,15.251743399197323,8.288855829652487,2.290502031552434,8.078491931130682
-0.3267764787594576,-3.473119449645301,0.534415500250155,2.9044480346184893,-4.961906594865798,3.834419950263042,13.395167798686686,21.046390577198096,15.391423670416629,4.944457658800254,7.157964029241371,11.501326454004865,-0.4834109611352459,4.90207072631454
-3.293311444653906,-4.457665895036657,-2.373007305254663,-1.4854524530914304,-0.7916352597255597,2.739022674263051,12.018639146284292,17.76170888703951,16.992220427682433,4.158970761294772,1.7148966907348324,11.216855190143336,1.5483888171945202,0.9757804078693106
