AF3,F7,F3,FC5,T7,P7,O1,O2,P8,T8,FC6,F4,F8,AF4
2.794077189544937,8.979081565782737,6.7124037379997,7.645826654394976,2.9691865684656165,1.7528431910950169,1.620814404173221,1.2425772622978712,2.8246321974495,1.241298753430884,2.0318703291783424,1.0357113131734974,0.697221890289667,6.9879438582651
1.3289090272570838,6.814895586332131,3.879237896966949,5.103434184161225,3.639351024715502,-0.8454158925873394,-0.6855301478705295,1.9386852321118404,3.9333075017613233,-0.0369830121495784,-0.0813553422546582,-0.581936577486037,-2.558982547671991,3.1097263660285046
0.1193891580489173,4.271730427785599,0.3413080818888951,1.1284559729691908,4.127446066158623,-3.910170346431989,-1.931885264753304,1.176272160410324,3.746865599268336,-1.362022731544625,-3.2128180898093155,-2.2426348500926148,-5.634300804653777,-0.7681083165110403
0.4356106410284891,3.375301584675408,-0.7409396397195566,-0.2245320046689544,4.201139014408838,-4.765407900579278,-1.9192130593753405,-0.1359426549249178,2.4549794697010974,-2.6572795541484253,-5.592664404393021,-3.1594615978709912,-8.01256965138825,-3.025886922110157
1.661100093494258,5.14478359345879,2.0203273359227736,1.906949387163515,4.002001145128869,-2.2336519602706577,0.5502869540250207,-1.0659231581463189,0.7610301729670006,-3.5116350949440656,-6.706862767822484,-2.4963515059387773,-8.36182678486488,-1.06836996194611
0.8407410551472686,4.196551107499434,0.949308794168492,1.9213216511198712,3.95405673596596,0.461622467851329,0.7517437125705602,-1.4365356281902422,-0.6011876616930927,-5.354163786879766,-9.743663566343171,-5.428391992441471,-13.416528735197115,0.0194720691004059
-1.0473864651842828,1.0467307032509108,-3.1784525779445856,0.7882155757425435,4.311908232738524,3.314258509945104,-0.0421356599764367,-1.743510622093968,-1.3532298051125942,-8.110913226996885,-14.312460666459584,-11.865081570773912,-23.071534731605283,-0.0079575800860487
-3.0710771589226344,-0.0734739265469649,-5.055681055744003,0.0745032981992675,4.740050352815707,4.534109163685375,-0.5742578064655603,-2.3973975375143866,-1.7736345608879738,-10.278046198435549,-17.212525285383784,-14.365465161774752,-29.14289936112021,-0.6331056741073496
-4.567211675217564,0.1013329990479169,-5.784802018384243,-1.0384097769352354,4.416208168221637,2.723804909839581,-1.366363220751882,-3.13149534889871,-2.3302144226767965,-12.040873363511515,-18.763035473722766,-13.526389583966562,-32.55760194249766,-2.7567239729367725
-4.086368905541214,0.4766533757711003,-5.175264212409116,-2.1852471427172078,2.70471241595245,1.4045112348595046,0.2520041415344273,-3.2263019168746503,-3.218106127233021,-14.866772135158486,-21.29991619442273,-10.587565688016566,-35.84183868177053,-4.56442030687198
-3.966681757656755,1.7324505844493905,-2.3105880313795364,-3.3108021864200903,-0.1734099315821247,-0.1883113541587887,2.0520329679607143,-2.344477010953998,-4.287278116065192,-18.58688841026627,-24.32911951567613,-3.9238972930426206,-37.48196157099132,-6.362359070326171
-3.330328013447718,2.3627891687060703,-0.8240044647458028,-3.0763778862805724,-3.1566327400451755,-1.6030106293088795,2.458102976888559,-1.1008628327376009,-5.399673583799199,-19.530540716952803,-24.10676950543722,-0.6220056154432054,-36.863107483760565,-6.080524629031825
-1.14971330918284,2.259410219608716,-0.5640060195311033,-1.247803386651856,-5.106960136034896,-0.8570721938202367,2.290680368365755,-0.6995580756820523,-6.72183789416837,-17.644066447801517,-20.636190770010398,-0.8599669493851203,-33.810538216569114,-2.327037470462961
0.3714910891902875,4.359020809239379,1.0487759529405447,2.3475106477982206,-5.6238098745126415,-0.3817232844841718,-0.0459607512769814,-1.88277387610286,-8.486646375688593,-14.887531190330506,-14.630436585102926,-0.3170734294752148,-27.39222663292013,1.8463791969145968
4.54316186896303,8.51066586131065,3.3884308662646383,8.239243663147057,-5.1438404005298,0.2965017275162889,-2.2804262298147817,-4.165887423881681,-10.413014155679477,-10.393824166179211,-5.0910338026923,-0.5648621085387617,-17.170337008863857,7.796794714683775
7.511455016825833,9.608909939401904,4.289276192245495,9.95180004593984,-4.319276293375818,0.9512353164142384,-3.005723745924071,-6.1286564811458994,-11.531911582745895,-7.29255268596949,0.2545695516439433,0.5848698246433388,-9.886411355864585,10.16419260004953
5.724997489524832,7.86160616504942,3.902507117494527,7.179954598142007,-3.4277791936682758,-0.4374232807875624,-3.1245262458733585,-6.544188651623404,-10.88060077923488,-5.95910140148098,0.9801056749089327,3.665842233764661,-5.714963434953406,5.655765291777589
4.969597304658969,4.605774976355362,2.624824808290408,4.150675804628162,-2.4597725033714006,-2.289159254501913,-1.4126763865655156,-5.307590140560325,-8.551819649773837,-2.770625357439451,3.4275694181516627,6.117615582432124,-0.5392372906273131,2.1453061901963344
1.4404378860159812,-1.3426372540652929,-0.0534818815863065,-0.6685920679462187,-1.6621963301387588,-3.9562025805219423,0.1116275882966737,-3.3080512572076763,-5.957643341365468,1.5929815061537664,5.883198482151706,8.523053287228306,4.092530647759167,-3.2522023050331037
-2.6840230577745467,-4.748436541617701,-2.1204011821779023,-2.875832731808083,-1.7192324324503403,-3.7041087706790954,0.8619109987007798,-1.4262862790571802,-4.749838227733033,4.167305471920433,8.679987755153984,9.273772101687356,7.5469719940715265,-6.763313338157268
-1.935083395478142,-5.363151133813226,-3.541215737294603,-1.7193877090792618,-3.164403260543592,-0.7643020029938458,1.377147731532098,0.2876314858235229,-5.224247211805725,5.259242342984193,12.635612104624231,7.842390018553258,10.023574557710004,-3.579663271993955
-2.8702182107046323,-6.35156804157004,-4.861445037311204,-1.6944618643214548,-5.598531654986793,1.8816199071512507,-0.0625462213580816,2.403400624657252,-5.802464271374808,7.154455791889219,15.457311798702232,7.1011654070529,13.808804526182293,-2.226208747643871
-2.662332638059248,-6.482493949923371,-5.576043511481436,-1.6697534253204829,-7.662138945657128,3.966633606526552,-1.0068442824939567,5.12197657543509,-4.338050217656939,9.399754193683608,17.390086846738583,6.620242332846892,19.0027577581667,0.631337130647807
-0.0218712629584695,-5.721471269104591,-4.258421033704032,-0.7260507732116542,-7.971827228829977,3.3117198396318503,-1.0144281190906954,7.640254671806645,-0.1870245516895048,12.371112123220792,19.422249538970547,7.518155801354299,24.04432635784779,3.920830593229162
-0.5002354235589342,-4.239801233331753,-0.6252420721974353,0.6490936590807013,-6.176245176544682,0.2449214458717707,-0.564525435533814,8.686906866091457,4.969253413339541,16.504543109853063,21.189214121175038,10.446962364818996,29.48097969108455,2.222557949404642
-1.694667575951912,-2.9308899962098938,1.4133490214870712,1.7114849337073776,-3.121657497355681,0.0657460441316701,2.667116277901632,7.80626937261928,8.511117432291774,17.4412960084201,20.92628659496229,10.948887677511149,29.988919988764597,0.9486957536132096
-3.781205459223814,-1.91808744457392,2.040197430005893,2.4165500005341483,-0.042481783125357,0.4342764820485693,5.505511661830116,6.064366082305808,9.265268061817654,15.066093510297762,18.53261341771347,9.231214759834746,24.898746774565588,-2.1708053595562227
-5.969478655412405,-1.2146681374658956,2.3361109892056997,2.3688445383496437,2.335491737087553,0.8627631752867655,5.435793654971607,5.287790613035142,8.553363614977377,13.925076481940906,16.97582568730542,7.904210797561102,22.63166892203317,-5.9067640589109045
-4.543463321125131,-1.1510395969813718,1.4319388556702668,1.2708940419249877,3.944931124036312,1.9781180286962767,3.1011761114607435,6.377218469157361,8.775090052617239,13.216840246661416,15.991682852917934,6.133314230222987,22.2033177365392,-4.769100923490729
-0.1663780740348833,1.038550632445037,3.352581994857755,2.358318575908432,4.882696657101669,-1.110981477319974,-1.8285959916370147,8.258501722182073,10.856967110327416,13.690425373970712,16.11359129586556,6.629796672218542,23.94866102325063,-1.737253142185576
5.415449238983545,5.4409425091639445,8.328456016939775,5.681440200725008,5.05731522308069,-4.018424835720355,-6.581567888198661,8.57967504785314,13.140713371610197,16.236824302099745,18.0742301801045,9.939084909510942,29.67409888911746,3.436614044309737
7.930519340711722,5.864801035964221,8.577016872700217,5.756910842342145,4.424415308037552,-3.502774657918376,-7.089052539578109,5.686353525391807,12.94352504136483,15.00822556460237,16.86162783036288,9.511981225222238,29.414973475465047,7.827972626024622
5.954483899990896,2.4836165514749027,4.518560684709943,2.943691036372136,3.383765097889243,-2.1286883791529463,-3.729550404944701,0.1775798523453673,9.337852560581975,10.084285148970991,12.515356627924794,5.708201968984825,23.22461357096972,6.779017640754734
3.511862203088682,-2.272439688255361,0.310281120561829,-1.4264776785542297,2.6353941219383628,1.2058137831246087,0.3597765872193903,-5.372652735809833,4.363092609983669,5.420268383292955,6.936783675476319,0.7214223126060461,16.009944888925197,3.5145363378061383
1.915529050051036,-9.788411798346797,-5.554443755778845,-8.54884545677218,2.482479287545378,3.060801474029305,3.990823057914846,-8.366398891798326,1.3209309741503923,-0.1319751513422851,-1.0291458179845454,-6.830903627136269,5.592121712322178,-0.3173287266228364
1.6526855273919656,-12.625723988339509,-7.30154899097091,-11.190887750403984,2.3873063954899387,1.2944283023984475,4.622109597995343,-8.184969680941279,1.6722051045272637,-3.22275292116985,-6.370289496553992,-10.40763134489455,0.0166184732356753,-2.6896355398852108
2.2784419498333386,-10.118433160004876,-4.009572412454514,-8.899461371373796,1.473299983225724,-1.1496144940001352,2.0660257789025924,-6.56986498603371,3.510648189152627,-3.0480568025412715,-8.693904471265663,-9.49159327193354,0.2489013307451402,-0.7345729979512379
0.0640938754684474,-9.055322479424731,-5.302352266070747,-8.343777896967202,-0.3812282255781767,-2.43450171314356,0.0384923470015722,-6.091493612689352,3.163035792689157,-6.772212171903854,-12.539032146733712,-10.515812329654082,-3.0941668054907554,1.2367723154800392
-5.164061362438498,-7.730802484440522,-10.09326434285756,-7.976422335616599,-2.0349366995213054,-1.9059595325533207,-1.5896431030086238,-8.020536974930417,-1.4892085905706889,-13.786538959315353,-16.794935216085474,-12.074757564516922,-8.269346291786363,1.2163162116284028
-8.039844638124514,-7.410716756823466,-12.156754603552448,-7.937250307146956,-1.9113550335577645,0.1430482398828686,-2.380829102452968,-11.37472725362029,-8.997280864548593,-17.019792580931853,-18.720946325039595,-13.436326869917687,-11.997695042471063,0.1593635691451913
-6.750266520754559,-9.127825132412926,-12.891645026748266,-9.20955498380921,0.4522097460861234,2.485296161832034,-1.5428093636716396,-13.86795533353032,-15.437650692621192,-17.37126460177823,-18.65767797636879,-15.505731005201078,-15.537247214995656,-3.118399110708085
-3.827535808975884,-9.079826457351936,-9.522792136929532,-7.502538698832731,3.641941230896516,3.917803472110576,-0.983567273735453,-13.869498175022194,-17.545001152444904,-14.341596840113356,-16.966016598666137,-15.058445887361678,-15.05984567065694,-6.923641013917674
0.5416759596028722,-7.7412710903012,-0.7646221167669364,-2.9034289834425957,5.287687703334542,5.870963502966103,-0.3497398634479761,-11.67703270637887,-15.062699671606088,-6.379136941744215,-13.05687482822544,-12.008656439617027,-9.888246426716607,-10.208536148894003
2.8688995901830805,-6.65028694974429,2.563132039136193,-0.7012252431995918,3.9600089059137416,6.664055000846826,0.6624489473685947,-9.080114207536845,-10.403192222357973,-2.97039380009517,-10.32733230693118,-9.69078932747829,-6.615081895043628,-10.443590606059766
1.498411489191021,-5.215913907456989,0.7947194591519642,-0.3307333890257553,0.3411384171830862,4.589685165286155,0.7316648329108304,-7.709452638390958,-6.271403898500615,-4.108049325922979,-8.908061359420289,-7.535520466183106,-4.515857259912949,-6.000497471903006
1.2652675775192803,-3.187534096144407,0.2292557201179148,0.3096862493984844,-3.383044598458846,1.2040208246883737,0.1935568719532881,-7.676956801903282,-3.613009697556864,-2.650757126736167,-3.987517750640184,-4.067708225278078,-0.810235097579945,1.095163587653533
2.3653936508633038,-0.655943379840761,-1.2725945456950538,0.2698853372582794,-5.286492049319698,-5.476421356589365,-0.5915366613738935,-7.65340642335636,-1.6012356808679638,-0.4510971589312689,3.928448605337576,0.2570459760086075,3.381539859762339,11.485416728888744
2.691835433758257,1.2495429098769817,-0.4053831850571155,1.7401812197045563,-4.971234895761739,-10.498075567907348,-1.3402593661416056,-6.186145618338253,0.7761863079660989,2.6607735907152983,7.903192435378086,3.351628020938529,6.108209967958462,16.590457706094575
2.4538240784625645,2.4584403334058265,3.7347514666862063,5.020129310762284,-3.3200695154979325,-9.394466782803937,-0.6726293447673632,-2.995635846071991,3.4061748526065525,7.650915537887317,8.278971701147908,5.181677138457724,7.343882951205692,11.89991345780569
1.3683188001003086,3.0955717114892165,5.230390616877778,6.383769287159193,-1.2872973264626957,-6.865346560745861,1.6440958711865077,0.8614981030122744,5.293750602730869,10.079331295522383,6.73041396896777,5.935044582754436,8.499336512398221,5.948297844280028
-0.6651367445742697,2.812370186097462,4.817494480444134,6.189621637648374,0.8598207978656554,-2.091993626664797,4.446334049296289,3.949441778360046,5.825974035005951,10.002443542705503,1.654460829125222,5.0045844701577336,9.105698336195289,-2.833337411125653
-0.862772361816698,3.43294950452013,4.588105619994851,5.459610999313834,3.142905215437728,2.4951639789848072,5.370190920223069,5.542455743430214,5.48771539446564,9.114682925825305,0.1373144258181656,4.05257984372561,8.693806779493718,-8.446516884842392
0.668102500031113,4.978069130169009,3.5576520143914805,3.4711721143085894,5.029731081954685,2.4416943438320127,3.105633780580945,5.921874547491351,5.228536457710504,6.420613671752951,2.4799622089448903,2.95501255411941,7.34282124769994,-4.977104925161332
0.8070400555330933,5.966290090891469,2.927200891375497,2.238159738277222,5.392428869241587,2.1043843156399933,-0.789336606372061,5.852617175459338,5.304361969863205,3.603297860892307,2.5013410887771204,0.7377231625266237,2.4655426055439214,-2.4469535846381514
-0.0839496833521984,6.753024746673911,2.880010727169493,1.8591425805696704,3.5566182739439265,3.4833023463789883,-5.315434182833587,5.945731871078751,5.036994545346607,0.746527910510541,1.6524953671575302,-2.331558656125901,-6.312464651669603,-0.7080065221702938
-2.253071798683302,5.538224582982397,1.3653698820181022,-0.1277310786055192,0.3603820324138542,4.008556381328818,-6.925834519659095,6.484961329169898,3.8463195232853975,-1.9767328886774655,-1.0858399710675526,-4.70692356786188,-11.480167231343794,0.6109441147587331
-4.444631430283841,1.924373834769031,-1.4313943587465556,-3.3875239783554845,-2.0868200141915976,4.199518584138273,-4.008528998461042,7.591221821530151,2.3346931987530644,-4.07418655627226,-6.712398993927739,-6.3557396923028895,-13.200673382202728,-1.808388350138272
-3.425275580201916,-0.4447065279413558,-3.601425526768943,-6.7770805278347925,-2.0038913033702155,4.462885676236466,-0.6698432910812699,9.209526885660946,1.9690356704655916,-6.216361040051602,-9.602950125429766,-6.742298956335576,-13.024171567219248,-2.9988249756087693
-1.464143250002559,-1.909657358425348,-5.409821456244172,-10.67430311685054,0.4972491096317322,0.8791356131151052,2.8210326237077235,10.78878276590208,3.406618626010488,-8.139089620684745,-9.967589460834994,-5.346541964865086,-9.111861826727568,-1.6782692250540971
0.5261362138423344,-2.1482328983871053,-5.504838543751227,-11.154716116490723,3.3849728323065804,-3.3465531676237625,4.264234615974657,11.170196795767987,5.18722489154807,-8.389290197580607,-8.61818154327579,-3.775482067712373,-7.677219222939928,-0.1158394564972651
2.3347186429948845,-0.3168787014823709,-3.3541251128196667,-7.693566178307191,4.321810280313631,-4.035820378710211,2.0839898982292766,9.220853238538798,4.475972016277911,-6.832327084121159,-4.225138259928359,-1.7460312023738327,-8.753773559970293,1.7146577386600317
0.4259466763069275,-1.6695794318133468,-2.239253222937604,-5.574438955811393,2.4986530327653327,-3.973460980906976,0.2758197743806425,4.948468364623375,-0.4005388971455659,-6.893055433846582,-3.2679604823030326,-2.126164127846673,-10.750728753869458,2.1148789408175337
-0.2829504574434774,-6.191232326817235,-1.827094435567932,-3.9575417820780743,-0.8962261302184715,-1.0299632459433896,-1.2173880715865002,0.0439410532477455,-7.863685077197067,-8.427130165534633,-5.892868508619365,-5.476854109051241,-15.183222638212005,1.042787723120345
1.2159750225102082,-7.050012203445277,-0.8445028318532041,-2.705190221418521,-3.854646099500232,3.267968798676597,-1.8381763736260648,-2.96537376237446,-13.621823491319605,-8.775754849762741,-6.352590184233165,-6.018670836416953,-15.330629344420254,0.1884686864662058
1.6981684121404783,-4.97027165652738,0.1327971724984279,-2.783401802969487,-5.189969928627377,3.5187961254788567,-0.5789463542314789,-2.518105897878866,-13.765197993879507,-8.53821582710449,-5.896808857121644,-4.2687905930358605,-10.92026746988252,0.0217683141320209
4.144896490739453,-0.5125050593913469,1.7647570961314774,-1.368055264679492,-5.191616224306832,1.181492326058584,0.0833244577295054,0.7248229644426065,-7.921133198254546,-5.627786309722952,-2.2898094868954204,0.1455189024888133,-5.602458412688151,1.148958408947939
3.4549618871633347,7.771103082539646,4.1636932315987805,1.3578721838403358,-4.893407304843478,-1.8984676057422631,0.3547594338923646,4.361778224765851,0.2855959467532516,0.5815891050319206,5.592534609618021,8.564346941207802,2.2196053974655103,1.75892229037641
-0.6799302249503854,9.432379634506628,4.505455940181619,1.6044304688478288,-4.839036737373425,-4.132531018974359,0.497246415257537,6.119349642613408,5.953283547063378,2.929993570053125,7.1661255214671415,11.598489805334983,4.038101920034815,0.9406570438491164
-2.793088018516443,4.030944606503131,2.7221973903574077,-0.374449510611394,-4.567952370265864,-2.7807376713787946,-0.2437300450100765,5.472237555149109,6.523193683954926,1.595757182019528,2.5528117336572342,9.126648921100262,-1.124210811658478,-0.3526368228382682
-3.673003999403088,0.9532775518096804,2.231132793265196,0.2603491757449706,-3.2462325571797805,1.1166790685161692,-0.3581223741049051,3.666159034304754,3.2894084744224665,0.7416978868840689,-1.2547242957016596,7.924364842618771,-3.639953223341289,-1.2402679615198628
-1.308161310973263,-1.952193312281476,2.557632998333281,3.079358914182199,-0.7593421598627486,3.673050698793093,-0.2389572899487423,2.372768915118796,-0.2360933151233384,-1.083235548648987,-6.38684262048797,6.045635440787958,-5.390512019361863,-0.3873727130355066
2.5907034282970827,-1.4034609068822743,3.074244621119864,5.26256925104016,1.8295854934423967,3.203823002025034,-0.2975457770799027,2.423114188623006,-1.348083506398415,-0.7180955556326412,-5.926941461659806,6.220937279774788,-4.632744458878992,1.0633922413604888
3.197462750985597,4.325044249944401,4.401898709063473,7.644965249637146,2.952434278095923,0.471458020256057,0.3521941598505587,3.6884587634910897,0.1728786783012612,2.51175026131796,1.590599525236772,9.518007803186244,0.3975502776305238,1.2360611663881955
0.9337179393560616,5.340071306769241,4.157135448502558,5.240416807912894,1.7982553325705504,-2.5897519586827755,0.908479815535608,5.745407755171073,2.821990342118589,4.2441181355691056,6.431122155271964,9.33635203475941,1.5244794363007788,-0.2272499569200926
-2.82860592793183,2.429845625533769,2.250777841970029,-2.799518768326756,-0.9369309516744296,-3.4300680127345684,1.8363727373315597,8.176139139061615,5.206557293477435,5.235408624524315,10.272253691682858,6.282562348734634,-0.6845138932872743,-2.908865954969509
-4.946581861894508,0.4971085885849188,1.625222345510919,-5.822226058625065,-3.509532131425668,-1.61279842682629,2.4944263540930964,10.110248766429768,6.842522321018494,5.515736542507411,10.934248204942463,4.457716761473747,-1.1535904530755827,-3.7610933052358586
-2.727251562105856,-2.201952209713254,1.8919148624139912,-4.576484415763502,-4.458092372083215,0.6479282747548982,1.6419196299763554,9.929674382669743,7.396540695606497,4.326015405213552,6.484102476885452,2.8260281186846776,-1.25076450940769,-1.267395570915653
1.487630744970596,-2.410400183372966,1.7906896691927896,-1.619566558839888,-3.695480670704629,1.4284182559599246,0.3806121819273035,6.182428996604337,5.87011008551017,2.688204848939303,2.5904664041609857,1.7285797596879906,-0.719740818413664,2.065520917443968
5.445480531741088,0.6250839781250627,1.79216363743091,5.3097883166585484,-2.4423056616123797,0.8699166637660868,-1.8931014698592472,-0.7004385335379162,1.280247552438837,0.3178134386284592,-1.8003938526295005,1.7889575828846562,1.1367082323154625,5.565633443551096
5.991916434171121,0.7997945261330707,1.0435744593925815,6.6087272974289055,-2.0796793693213584,-0.3272159486377785,-3.705912817261829,-7.708680077452033,-5.609879170471011,-0.5660729447970492,-4.356403883785046,0.6980698833311563,0.8167489872864369,5.461392096296082
1.9218432543876136,-1.250870139489088,-0.6460923417104834,1.8261250615434776,-2.9298850803501635,-0.9033504879760056,-3.2198526341924607,-10.91309982961488,-11.656865880077156,0.3546868959724682,-3.936026368808664,-1.3780021058316454,-1.6333932264204325,0.4947208616713935
-2.697261832799618,-3.8391334193850537,-1.852022838648807,-1.766226738044921,-3.9954572627509752,0.1959130407740644,-2.2316630778516635,-8.538833297207852,-13.16593603192428,1.9910567019886865,-3.110678469793174,-2.6420187740516,-2.569870611000735,-3.7219537830557066
-7.202114394442802,-8.108035799321984,-2.754252852629311,-6.2689663603919925,-3.810968489328944,1.3973110453726003,-0.3716134210798878,-2.7172159726282006,-8.893373379203622,5.022276188670635,-0.8877595197046079,-3.433824840135384,-2.5422689479218947,-8.623964089463238
-8.179328800008545,-7.326335852383413,-2.809882486154738,-5.671097771699151,-1.6202539600569237,1.5559355419035636,1.5568219062824489,2.011330780261232,-1.316303986501263,6.839252294491425,1.343224549779864,-2.8981101134669,-1.283528731321398,-9.736574119108113
-3.724499891076732,-0.9500434829086388,-1.674501530059646,1.4687343393936163,2.0775151243861743,0.6801298326488572,1.6934928544778165,2.4182439471675847,5.308274937980123,7.269723453812471,3.335985617518004,-0.6284722875922761,1.9454755643032071,-3.887165732648276
0.6332380355997776,6.664875650381856,0.8169488589106869,7.917706782455665,5.910680978919628,-1.098411778822134,0.993527781469404,-0.7646136199067719,8.390904090581895,8.76866933688754,6.626400314512968,2.727386390707312,4.876897829818531,0.2904547561501796
6.325974995689056,17.2174290774924,5.022016509207879,15.344256842633133,8.477106877994032,-2.6196293897625518,0.1374801642910302,-3.755218741662105,8.677123183393594,10.789318399037793,10.887668633894188,7.559064597208631,7.748545025034631,6.931709099155329
9.270855309662933,19.96495227015749,6.698432412420457,17.216400245720273,8.986297611428771,-2.4012501552867365,-0.5947598816561771,-3.3753163971543625,8.642943327436397,10.806446580769236,12.32391922529732,9.083927092050592,9.050644974878194,11.323716822755964
5.181180550031414,13.572836484519284,5.675635603519292,11.849147623170552,7.436821623946426,-0.3895486935396161,-0.2959697728077348,-0.0032856352141896,9.466842760690154,8.929562726991518,10.777898316000917,6.86875266568241,8.160758805536139,6.74967273786913
1.0130532598134352,6.570215199593407,2.357245362924893,6.540607534807696,4.487962599490404,2.0997738811752384,1.2368281432256905,2.9424801714093083,9.79707925402408,4.457094572146865,6.39810658363546,1.9063863524893088,5.659464551843721,3.639374474410309
-5.107702356707978,-3.8638587322683247,-4.486977746098392,-0.6760310715500765,1.2249693309086718,4.7205005187071,2.439898838673284,2.3810566630778527,7.510621964772574,-3.354786688245252,-1.9705260382705791,-7.272790811074345,0.8386171440952478,-2.5954577835812347
-9.000514661985301,-7.505496888669858,-7.373558811425052,-3.529116457426889,-1.182248794577764,4.964969650628228,2.4261923570050383,-1.5531947188781414,2.4452437506818443,-7.517912930826309,-6.606940355747601,-11.725240535311052,-1.8571945942614887,-8.346549908657117
-5.063909345901181,-2.5781805082864957,-6.128394344617025,-0.523507340832889,-1.966580236337629,2.1218693372491195,1.26140162164135,-5.890871013559615,-2.9063143680589434,-7.929130505025304,-7.340715107898412,-11.109764721700984,-2.2400044347724046,-5.0865077546718815
-1.127998469525849,-0.0711414911042339,-3.786332024412969,1.0383354116932342,-1.2067368584091516,-0.7235583965064024,-0.957132591779962,-7.900521957150981,-5.53843520622406,-7.297810246557325,-6.463549522297383,-8.422640685696704,-1.203360084413278,-2.7155651812411614
3.366712176517727,2.6381334099217724,1.4838292253502032,2.927688447245392,0.1444179376732486,-3.889927751954632,-2.90658196712158,-7.6348153008632735,-4.707389666113085,-3.9163895298502256,-1.9996931178256867,-1.3345176253371185,2.483146463700615,1.1878681114968532
5.878613661522525,2.835831016881851,2.937192555705194,3.0992172316210778,0.8126713531474463,-4.743527979131656,-3.1397374368282027,-7.415025911444765,-2.5120983263070658,-2.984370436406841,-0.921337277357278,1.3254168908754285,3.264847957268385,5.200606909603278
2.61128931864748,-1.26502653647405,0.0799095475268111,0.3713269959231627,0.0353022298421645,-2.335542473738556,-1.8684162647847349,-8.973300209971514,-1.7630565338803383,-4.818937505581797,-3.4548261664402364,-0.8485990449873266,1.0295324581806389,2.710510752837729
1.3486435944409794,-1.4808064301019237,-1.5985729704568925,-0.2431768569469427,-1.916553915693314,-1.6436865556698048,-0.2718733151564116,-11.379393041002231,-3.3610144680477854,-6.203146066230561,-5.88821300964291,-2.7066488794172217,-1.2125505054533912,1.2048359768746044
2.195578413665849,1.3704447417799652,-3.624172282602857,0.6050597255790693,-3.910720567074873,-1.2026972954929458,1.2182615012452944,-11.958654781833609,-5.749319980659887,-8.367908489165732,-9.834969660382065,-6.321578949018097,-4.718342718619548,0.3332034979778784
3.205939264096957,1.9113819031620252,-4.068763606146812,0.6290179243333339,-4.682764499885259,-0.6934160054862417,1.7107073120010965,-9.191625594429096,-6.750275632115903,-8.552719807914649,-10.378191091876127,-6.851178571617656,-5.360493412654624,-0.6492482874724165
4.652018641471152,1.337182600487162,-2.085797937076296,0.5751253160443758,-3.5867610879261065,-1.197463666192641,0.9061877827143496,-4.49917333014486,-5.718038909504443,-6.286947198913024,-6.90032600645711,-3.5521454192712296,-2.591121620498829,1.2406496366235047
1.4628269001574012,-2.09560274764685,-2.588863835614313,-1.1837586148972097,-0.8857806148337852,0.8851321325455697,0.1964501627116778,-1.022880153607937,-3.863719153433955,-4.279737915612873,-4.268093876597818,-2.156944855975628,-1.470432756251056,1.4096427840703594
-4.995779790338016,-9.432022394423385,-5.129808842234459,-5.061382611796668,2.5061902716580438,3.292682096002882,-0.3589753320195262,-0.662563621166244,-2.7072754063351407,-1.8231816006410264,-1.324093860036196,-1.5676692117127522,-1.1059325052005464,0.3142895500231985
-8.703691587397858,-11.76663557763035,-6.337598677257395,-6.301623610415974,5.534576251598153,3.2127696129071444,-0.7046728964686255,-2.380847648346138,-2.5169246194520496,-0.4843439478063687,0.0753145896017979,-1.3692379610261194,-0.8892522221900128,-0.8322425772997399
-8.0499905621773,-9.213287331909848,-6.950128762617297,-5.073361618303226,7.394692858263966,2.183669655565832,-0.2498935929427002,-3.3785235412507006,-2.3534809291046903,-0.7596852298998592,-0.9386957154485014,-2.467867512707689,-1.6441291009652697,-3.139509191557232
-3.673510454828401,-7.324158626987984,-6.307177447524424,-3.56239741890913,7.660436202535183,0.6198690676678693,0.3798431127780339,-1.7980627445448811,-1.4180226588240883,-0.37174899455691,-1.1274441758736231,-2.098881689614712,-0.8797447943487055,-4.032138775321038
1.1737446855938836,-4.283672758307294,-3.794649376592843,-0.7738567482555959,6.288990778205081,0.0233491676065756,0.8039869241400057,1.761161260946421,-0.0223769524201582,0.2233721364346165,-1.1209947198836503,-0.3275216925282762,1.4023253109486784,-5.293001844953643
2.964560062669324,-3.3657199363330434,-2.4815391001299147,-0.192408850637077,3.689736029911258,1.0833205898536065,0.9869841884018384,5.176511564700313,0.8852983587377601,1.0729353624091194,-0.306237948048828,0.9673668664138924,2.9062488885396065,-5.095528519566671
1.4167825404626329,-5.435734135601483,-2.1820996003599253,-2.2307265529336147,0.814424167424164,1.7375770012340617,0.6442029210962491,6.913654854232917,0.9633628549164426,2.5382057955938206,1.8898344572074843,2.2896389515837625,4.056183007164789,-1.5682082431084905
-0.4256150692705793,-3.434445797286047,-0.7517642435195642,-2.481679531455518,-1.0208529548894756,0.6411932635235684,-0.0154505369674885,7.108318986047423,0.9626939105334392,4.395042998137429,5.72592446076408,5.161573852763261,6.898928373924834,1.403602031402155
1.1477865562156873,2.035600341544681,1.302820957298194,-1.6595020795892876,-0.7819281055014757,-2.2774083158816363,-0.5694374362884392,6.802949118239724,1.8770506769937136,6.818703734130963,11.69860471506711,9.49676748729887,11.24248202150488,6.816418216736464
3.669746414770146,4.249266948855017,2.255107854687427,-1.2694200817484766,1.436960140330518,-4.607087834046722,-0.8699368192908525,6.508270022899733,3.733190102108946,6.986236805665064,13.017915925360564,10.690675211528356,12.437650036275471,9.156499326568492
4.508908978384594,4.112651619613531,2.2490235946349726,-0.6554653598836347,4.077704120179899,-4.241617797035834,-0.8137608202653672,5.729605235795912,5.374344942324578,4.6607204289197846,9.367154499852306,8.67060043118212,10.490499122594024,4.642946045692597
4.588914192485209,1.2331953176276529,1.3037351866509626,-1.9344747385606107,4.864600003449985,-2.241496564449594,-0.3829500737094416,3.805444669527001,5.458411234724251,1.0380234201769931,3.055700606503759,3.636135428232123,5.638200219260887,2.2901851334182965
1.2250519208099893,-5.8284328153591645,-1.004707104415586,-5.40564219358883,2.3871785959215077,0.6130380590659612,0.198435669634159,0.9458609284270652,3.6139105070481294,-4.678326593871931,-7.742704151607244,-5.730270199594727,-3.4053999339516894,-2.178738122783991
-2.212248321045241,-7.967069265973527,-1.5943036172896876,-6.334640263296119,-2.5930309902013846,2.3608193800130977,0.7898472319041032,-1.7247891816448044,0.6747156003533941,-5.943432492866837,-10.519820359391188,-9.180102139736093,-6.197464401199516,-4.874437795012428
-1.8106387928322285,-5.134928533727143,-0.3776105400824031,-4.968894297911285,-7.286506958707574,1.674398757712642,1.1041902389903524,-3.129855580736816,-2.018479432634392,-2.2130484161112385,-4.395975271273212,-6.357219451534425,-2.329770719834903,-0.5060829469538997
-1.5419212017085129,-2.663146042769135,0.4175349167806843,-3.5820386678817573,-8.64417299118157,0.2826403081809441,0.5596607665094764,-3.149472693471317,-3.4281939863697586,1.320025101932476,1.9423455066225297,-3.494671837552194,1.6551868698810803,-0.5131559863261277
-0.6032530444544415,1.4167228985251747,1.4574150536768862,-1.2338862175582532,-5.583182108773183,-0.6584601837628149,-0.2566557241230096,-2.556331263279345,-3.146422069608563,6.232433521093594,11.530233524181508,1.7855962965936558,8.189313704648576,0.2680661343590467
-0.026414241282744,2.1564901219705623,1.4136518894411385,-1.337075620607181,0.0243197468578869,-0.6748156064739526,-1.112743234320127,-2.1300240180223358,-1.3821133527830445,6.960640734970466,13.6406008114395,2.267703406384117,9.158613306710116,1.5327492471988604
-2.3316254257009623,-1.3249403304392786,-0.0918941659886841,-4.356326445665864,4.466291178943783,0.5404741866610498,-1.8540593616908037,-1.9309983755075384,1.031060514259853,2.3984288171461507,6.502165725297492,-3.168263832162149,3.296964037659003,-2.67044374599883
-3.9625232893299662,-3.581206617642837,-1.4829154934209423,-5.825066025023648,4.6954418257528125,2.4399131331480914,-1.4846702648276675,-1.480677260823402,2.71141826359951,-1.2319583535514007,0.5728542586590571,-6.373170529591401,-0.7449843527325055,-3.1591017162380037
-4.916833312437365,-5.852807843568762,-3.155099613111372,-6.463388214676071,0.4287394644951092,3.988113649166357,-1.1729647322705894,-0.5986644886292527,2.296107592370335,-5.410324449819504,-6.952963324355416,-9.063300521976217,-4.964937052384242,-5.20122727311184
-4.147445062225555,-5.921433792996144,-3.4939565438794125,-5.327387186248118,-5.672517709996708,3.984618294054178,-0.783343537960503,0.0876403470939675,-0.5641611710203265,-6.205464255203813,-8.641112413509157,-8.53942503907744,-5.473631023688482,-7.232054881238996
-0.6443247904653421,-2.777791751336818,-2.133847117306501,-1.4980504797907723,-9.843804378833282,2.098183164102811,-0.103972727684198,-0.3411766798599016,-4.577651941885248,-2.3607955608031284,-2.472094188901656,-3.266326865399517,-0.6397935341068957,-2.7001789822408826
1.350948773217722,-0.6108565578806967,-0.4427794908324676,0.9495165644944452,-9.728993574170136,-0.651123508415708,-0.6450589583265057,-1.931368514367916,-7.350564028813472,1.0701809050967972,2.59173691545716,-0.1629269902102343,2.4905031657847574,-0.6159581671768177
3.441393001005079,1.2895225180079937,2.082014190888124,2.351863842025844,-5.791405347270264,-4.007735384669779,-0.8368744704478756,-3.244129238120526,-6.938537786044472,5.319528592271826,8.737636260737732,1.6130047281984492,5.1223243637139015,4.440465041242523
4.643226553207975,1.6337813355218136,2.833127481878691,2.592593211773326,-0.7290268688162094,-5.737166247112871,-0.2585481289197049,-2.191280932090912,-3.2694243691455838,7.194588415927849,10.982105492747896,2.340477512822673,6.07361809323796,9.080780820167778
3.615516001568064,-0.4353606148648802,1.4616923135307092,0.7499173110627063,2.534494652698407,-4.408170103689029,0.8783656579285659,2.11561285509031,1.7017885445070444,5.708527794640201,7.636496197894496,0.6567956264184245,4.006958964323964,6.221501466020836
5.534440591144068,-1.7392774547121843,0.5379009140821671,-0.4200896916722496,2.747298238419445,-2.504478782269659,4.0023622591077554,8.096315795051007,5.245541010646662,4.891640818477399,5.662821748334333,1.4166210341757508,2.8389639475649786,7.042850023643163
7.022398002777809,-2.769083198970372,-0.5815280037319345,-1.1766624726198636,0.7978656845507179,0.0390796367361914,7.260516951632076,12.384409164674326,5.587780283611242,3.7563309655788175,3.5161700003482865,4.459531435710397,1.9335876844061173,6.134391329706142
5.546175896207887,-3.870642158821028,-1.419389724284767,-2.9408758058371856,-1.3922799834874429,2.011968671285848,7.048187718322089,12.203853815312709,2.9219887823326403,1.314112478563526,0.442309218729867,4.067440198069708,-0.5387190993776545,2.6654960788886632
3.2441725646206523,-4.506735228274376,-1.5879533044587313,-5.275527724677382,-2.5129714087128194,1.6262862885698726,3.252521567603075,7.54300493383051,-0.900790367287572,-2.01396781946341,-2.6407032268652317,0.8604735716022978,-4.091020776467085,2.7445192348849248
-1.913115462505592,-5.491476638760488,-3.4516303587430044,-7.990254820186361,-2.7208486789427484,0.8738818592216546,-2.1488013506767127,1.2006522351740818,-3.717035162066089,-6.749032524155931,-7.087993765032521,-4.376888805874832,-7.571666814871848,-2.3638210728861675
-7.275803828234101,-6.721958268573991,-6.928280270428697,-11.22698287877642,-3.148494736244301,0.7231137175472082,-8.186204140657384,-3.425008676042177,-4.5071662222640345,-13.027517191877388,-12.798254868217256,-12.822869843891567,-11.127278139355727,-8.288472627612466
-8.143397058886515,-5.699680806470532,-7.0003347389998005,-10.44541522486101,-4.648631761951108,0.9800495539102178,-9.141243127361856,-4.884260497783036,-3.958704172028528,-13.833027456179709,-13.290349092446318,-13.810841288876912,-10.590256303760937,-9.103473670553369
-6.349832904855371,-2.3126166974478206,-3.7504189779740056,-5.185604243159092,-6.910122777142234,1.9192395655686632,-4.146900593948272,-4.311791057901434,-3.682704847696472,-8.648098503617463,-8.177585594475389,-6.666093519470723,-5.269538749896898,-8.464675685431748
-5.266005776013651,0.7150464538447507,1.01636808473097,-0.3322284330954783,-8.65156251622462,2.879699339573986,-0.3877311245494249,-3.704140372898296,-4.617127174269356,-3.315838210471663,-4.286316907302743,0.6261039067366934,-1.3057113662158475,-5.113147940801358
-5.249552120016267,3.8729480680616697,8.47948877654694,5.142341871477215,-8.6315000304079,1.9947088143753189,3.632759801550014,-3.6481686224324017,-5.933488849320472,3.8209154127689793,-0.274501965725014,10.568926694509097,2.226549994377318,-1.8522843407785656
-5.285019086551034,6.117620077779037,12.01755389940396,8.541789814834274,-6.567921929546458,-0.2875645931140297,5.074906706088689,-2.804871986595609,-5.547093194206329,6.684321842663087,1.8670346971948684,14.991947755676678,5.006188274107195,-1.1107929056848502
-4.006537804438456,6.861291542141572,11.11114427272999,8.824525844655495,-3.239392606425538,-1.995545151551864,1.6674618622124937,0.3464888479198293,-2.010454357999912,3.97735001778892,0.8001735562974864,12.271105076544265,5.835808324814953,-1.0837475487944892
0.915701726574292,9.203110037986162,11.65743946329407,11.218988636262342,0.2003984350075409,-2.1362713792369417,1.4488536543491446,5.337474885571941,3.826032270857832,3.483866850735706,3.533501585107264,11.794302109300888,9.312744761345463,-0.2245566924173797
9.029327135182625,12.856435273077825,12.1625998039226,14.9596156447025,3.0306642965776,-0.0812156291548829,1.1036433074429226,9.463860564336214,9.04907414268799,3.6353021156702217,9.528088379346878,11.423011457121904,15.179727034050538,3.5564480782360084
12.365205730454548,14.076410528406411,13.184820911850773,16.070085833845013,5.234587849544655,2.4988496964303497,-0.9277063967605308,9.926897159310892,10.85460370212527,3.52238117295499,11.395235640634244,11.330781520587658,15.996156614121482,5.961306243199209
8.8265414990334,13.157094768173186,15.561226641998164,15.124379823542784,7.1274154697061824,2.4303928448596954,-1.1837946424520422,6.377654088421298,8.811009290845128,4.282447463710059,9.9730490203017,12.876613405502606,12.08498622884358,5.411835308958464
4.502786120347765,11.77591995036275,15.590551607270784,13.363955377083084,8.796392154275942,-1.343400032035018,-3.342069909424841,1.3551198355871428,5.1094594056505045,3.796746055720698,7.810910603707162,12.909466462006604,7.799393923712363,6.377489994364151
-1.5264077784689634,9.208758679097134,13.457246924425236,10.092447470582968,9.899555019937113,-6.803760299429757,-4.977022830958873,-1.895232811056866,2.5092340854454616,2.1684348255534,3.5501710408512643,11.830431258039932,1.6709751933461678,6.214170663487523
-4.86483908728829,7.885649776697538,10.830800964155433,7.818265229722781,9.975434320871262,-9.109396966469005,-3.1181615554448787,-2.164855276173345,1.9054085083205,1.669404724424818,2.2680995213889097,10.177572336081226,-1.5515072477129292,5.02395241473823
-2.625279869585638,8.128168358483578,6.987686607204033,6.777367353352923,8.933454906401435,-5.628942262408063,-0.8668434499920975,-0.9703482913324368,1.8470686062580413,2.049847510751113,4.466679225238852,7.4129340525434255,-0.9797884936809194,3.8834796421539424
-3.168255235181363,6.776369097762149,3.225099667533724,3.8455632027999984,7.249879939244249,1.5107152903210737,1.179518982842117,-0.6166627845047117,0.4323463877609903,1.270146614586804,3.4571769414142155,3.295740231098756,-3.5464378645999983,-3.122811508401316
-4.863339473766813,4.337287109414988,-0.2589196141555124,-0.4919832960079854,5.675428837523324,9.076640510624236,3.31309450140013,-1.680842987251948,-2.3643442978588087,-0.3795670255008217,0.2002803862316809,-2.3361024293029686,-8.192829008836625,-13.229764187127186
-3.603192165322875,4.439205743739855,-1.8475052544988535,-1.4326335007607545,4.691961582812503,10.79031870804075,3.5465421655712293,-2.496176470642487,-4.335092717262807,-1.0511963038846277,-1.390024577925015,-4.2350676775649605,-9.241971183587722,-15.956810593921444
-1.4089662267984893,6.8724522846419305,-0.9303954344073252,0.9284433918990334,4.172145616953536,5.465226906937488,2.684459592835607,-1.1263116233852015,-3.0931690691884324,-0.9731264585546828,-2.217626879312574,-2.0458074124085623,-7.411111412604687,-9.7636015101706
2.261068464304945,9.19114864469293,-0.9895659090679468,2.8868661822993498,3.5316280169177867,-0.0126426512414393,2.93978295837333,2.259330408415177,1.4577346690491169,-0.516161937090402,-1.5796332356987774,0.2874617286013229,-5.177767387931152,0.9044438998215402
7.418126115716857,12.065865085072748,-1.5723477219234263,5.377647743379268,2.267306904465615,-4.034282660813815,2.27970267993272,5.122898503671484,6.690047287212728,0.6834465826610425,1.2237748158804496,4.027132695464185,-1.563593901515191,14.672162780116777
7.408248528658563,11.145120516706752,-2.821409962010747,4.544636650730928,0.4532299004209541,-3.924528542779025,0.5850442769210497,4.767328349747812,9.312088154848457,-0.6387570654912208,-0.8737669339869182,2.069826104080227,-2.782857720806433,18.656835621656924
2.284181378102588,5.6671692293544265,-5.442707633831871,-0.5201466990075428,-1.2327536272873658,0.6392875120486202,-0.2369770619385162,0.8594390923855943,7.948585387161382,-4.725933664982096,-8.044732229029128,-6.68657046196576,-9.645740478107566,8.418190132045384
-1.3671282481862086,2.3325346516393783,-6.336259566744044,-2.459599590297218,-2.031844017225934,1.6938667990833882,-2.0018782008835205,-4.211757791109989,3.852969775749383,-7.454778882498771,-14.414885986102526,-14.478590490894533,-12.73449042663431,-1.5505289215271214
-6.156533422171143,0.205694252486159,-5.604838965136804,-2.073842906420255,-1.7940814866523844,0.3069814854631509,-3.713136325333071,-7.463049498612895,-0.6796882455457407,-9.439273527137264,-21.42953907905772,-23.071800039708357,-13.241358634421978,-11.733091961876443
-7.039588420187264,0.3257835219481632,-4.34093772955937,-0.7376849492390968,-1.2342847046092906,-1.5948764300453806,-2.823759692756677,-7.835223868364356,-4.35932363397615,-8.373287942146774,-21.364627158636576,-23.51110335344421,-11.217134970197725,-14.304061677551616
-1.743015185636272,4.112236893904042,-1.877822039757868,2.974660221053702,-1.4206661620792644,-4.433640382461861,-1.358834392031996,-6.725461650144961,-7.326199300332394,-3.223250036668418,-12.608237088890032,-13.752916747059995,-4.740399154071183,-4.101146675190674
-0.1756778467783778,5.745537136094365,0.2619197701597905,4.243589182178948,-2.801666467351925,-3.678333558200392,-0.641439043616761,-6.189122167732579,-9.81340556650424,-0.4618189589556141,-5.864888418836534,-5.050766808870895,-1.8194374768578936,1.4795515621231754
2.569998773485354,5.684910990744765,1.9903969316788688,2.963422677714588,-4.591685263160233,-2.0154938630611983,0.8281673811176234,-6.716388034434445,-10.88153641531944,0.453414263517498,0.7848481362223186,5.035323959536054,-2.251807580104287,5.170255677537334
4.233436786542884,5.261822912231364,2.229717319469872,2.303460800775828,-5.197654797136567,-0.8798741521339734,0.959236792663752,-6.785914966998334,-8.940402135086446,0.3203186392082039,2.8612523002261776,8.108600128486536,-2.406556578128949,5.442245049714627
-0.077582575848734,3.306784054781887,0.4220302049378217,1.2422047535356553,-3.523255541938214,0.8274917061160408,-0.9516534105686733,-4.585492983146873,-3.703173913354876,-2.2391866698678333,-1.933056230507325,1.6311121116570426,-3.954309806908298,-2.0454808161790177
0.5589590769961288,2.641599579655468,-0.4492987801685815,1.3002788428250975,-0.0901240950302781,0.4439583304936135,-0.2206762538276406,-0.2000395441277529,2.549414709759729,-1.415677351951048,-2.411848897733791,-0.9046704341430738,-2.955652466772183,-1.8853642585836743
0.1386837056104103,3.2846377665327897,-0.7019935498887301,2.9364823418903425,3.138693162290348,1.5049970892307962,0.6168879092072961,3.870687101306356,6.043292665225525,2.8517952970332363,0.0966953653370846,-1.8024515370596568,1.07074206907317,0.4320014223755291
-2.032502733660451,2.1183989578866846,-0.9938599983271272,2.4583211732756105,4.304143191478113,2.751586448204236,0.7226324553354622,4.491392278214399,4.300979975949472,4.278862311960991,0.9845122112835344,-1.8891128753409123,1.377336232406281,1.6570556934390908
0.5198995926821719,-0.4291455665336984,-0.7619402103183673,0.1272938815919496,3.307311351469064,1.9577021935425232,2.415079058895463,0.5545958799741584,-1.7452113751789966,3.8209447574225015,2.0544735769973084,1.107423509208913,-1.4268031733867963,5.465757433981588
-0.7874777424305008,-3.851856302273208,-2.0540804563930632,-2.082774277954084,2.00101932575099,3.620324546359269,1.6601660714557296,-5.69997681758951,-8.200787183433125,1.127299222737417,-0.5899593519335217,-0.1887663305448805,-5.278098245564674,1.274689071947363
-0.6162804772083306,-8.727897123074655,-4.959279891486398,-4.835082438098207,2.539517401213889,3.6313083492494416,0.5001751722429795,-9.914794167507385,-10.8643333188083,-5.054710140065884,-7.676369124871358,-5.579161823820952,-11.488902825380402,-3.351672542943755
1.738882693337242,-11.226939671643851,-5.988647584908793,-5.514815925211591,5.251002565308884,1.9871139388568264,0.1131654492241515,-8.601483631393766,-7.944309171878567,-6.295275054640621,-9.051727449561511,-6.293766799343157,-12.400963796025907,-4.335939709482197
0.2618064276339391,-11.122690464255912,-5.382832869306852,-3.664920652861948,8.015624837653768,1.7884629970177257,-1.0353747980862744,-1.704591453020651,-0.9003548391598493,-2.4956390052207977,-5.096896617251232,-3.282817148091935,-7.367147872484252,-5.564080566365692
0.8291280907219358,-10.937628535054666,-4.727426850343512,-3.263334210918888,7.881878092042847,-1.596296326069507,-0.4415600369921821,7.16431896344729,6.791562746302613,1.335403844743337,0.5130721573118872,1.504245936646868,-3.401925628922775,0.1164816546831608
-0.6096018169654133,-9.75362043664852,-3.3475256621598035,-3.755274682633616,3.6069261112403233,-4.613135612271237,-0.6971527043456254,13.016846125598978,11.66433843009694,7.047539540906426,9.999528075523108,9.795993421159787,1.2313491705751756,4.209124030968086
-2.749276781530267,-9.156610615327171,-4.064429247910605,-4.45748474234579,-3.1024169707496903,-4.55275924165395,-1.284142598757178,12.66952329611346,11.737433339352442,7.937505120847256,12.70272516819676,11.217992936404862,2.338773716272771,4.107873637015787
-0.8790634239896502,-9.483940649852984,-7.239819783377837,-6.078948808001841,-8.73513157901156,-4.086958106265873,-0.5257889716452699,6.617558575075723,7.066863896364001,2.9686574858964443,7.7431118190290045,5.09726159105059,-1.4603123196772714,4.509433351890523
-1.2704734151710253,-9.711872118082177,-9.594689025984204,-6.777878593582886,-10.491078441082442,-1.631795318793293,-1.285965992408248,-1.5428638081921413,-0.3254209608771248,-1.683895241991511,2.032769411412989,-1.060172864949282,-4.065438359469001,-0.857535276941281
-0.1979375768994679,-10.330423715505662,-11.75879629740053,-6.551718718568121,-8.065104669768012,0.6567020951090985,0.2262343943586912,-7.521700871595179,-7.009251264346382,-7.7725294985495985,-7.108854745482712,-9.698484592047825,-6.733601275342032,-3.3157385333232856
1.0652406789607125,-11.053661725127428,-12.79484406637345,-7.204719209424743,-3.4486431645545714,1.175330915420044,2.6673885968682587,-8.84358323587966,-9.44814539489555,-9.690183057039938,-10.642536495830129,-13.14567498425154,-7.645455144313947,-1.7560920730820362
-1.6364679644002391,-11.859746473464108,-12.061631003555892,-8.436694889733063,0.718548944274545,1.3274345763346536,2.447323316527988,-5.955256092422584,-5.963101253117346,-6.173264720241193,-7.266655904266529,-9.929796216235165,-5.681530965326311,-1.8105773795783504
-0.6322878194382655,-12.16495688149367,-12.667569828757,-9.198511699546952,2.739685363736754,0.4671361405897691,2.245935255765069,-1.5468123191105576,1.729223279826197,-2.8320157630985707,-4.7330455044016055,-8.98774102683546,-3.5543321786250397,2.363336292012627
-0.456744663541331,-11.839022964703434,-14.332752173545662,-9.717374585364723,2.4096258840516995,0.4950789562561959,-0.9101348317606038,1.2424934099063556,8.956935946879623,1.970252672951526,-0.6829312696028279,-8.358527017122283,-0.4516578048144057,2.386371695110287
-0.8764207871213047,-13.730546434681711,-15.392731230469462,-10.770365286064017,0.6589001934489414,0.7026280612238306,-4.562520504301145,0.6490846693053278,10.946461992922854,4.106839892812118,0.0121536256163219,-9.42787488615348,0.8148630716818475,-1.2011966706040798
2.9344383264490457,-17.893565008529613,-16.359688336138912,-12.25871479266122,-1.086241180109047,0.0899284512043774,-3.983523973868492,-2.774739305362265,6.381414701406442,2.569567849092952,-3.920277837937279,-13.661198778442971,-0.2909498735073125,-1.38614146100079
3.8197201605636506,-21.36818035194998,-15.441960367078543,-13.945916207851267,-1.554938909126612,1.1691934742807604,-2.4628683947140395,-6.5536170288376,-1.2275113478846365,2.3697562244565007,-5.887653147018209,-14.550553440039826,-1.1816613886721383,-4.1050415328359815
7.310764854576089,-24.674256249373204,-12.267097661170386,-15.97990013673382,-0.3461300408147991,0.8596994744134159,0.7652760002481356,-7.839139371331239,-5.936196224426881,2.3650071204895955,-7.19623850593839,-12.56065593720898,-2.648706846042823,-1.980717857612702
10.37155973794318,-26.355363745929143,-10.20245166866036,-16.738040949595042,1.5358394165682547,-0.5443297355916593,3.3322200841413983,-5.259543004803795,-3.985701654443744,3.256177262884269,-5.582092330164124,-9.156742315143342,-1.622866408972611,3.408269016631418
6.638715805032522,-25.729623280551245,-8.902785607501846,-16.06674982954845,1.9900054802120744,-0.9838324709898896,1.3275743530197943,0.1399145512199684,3.090509502213413,5.824338435710196,0.235043785191464,-2.995073276393628,2.462118019011608,3.643162763830418
2.4757395984972383,-28.77611854093456,-9.045789177168452,-17.637345216944773,-0.7399066253112956,-2.8309414232534795,-0.3267899190275825,5.62631991493515,9.63283809491617,5.948922238799686,3.9995127583287178,0.5912917608368016,4.541607812182049,3.7787840309880494
-7.627988395402063,-35.33642965520089,-11.432520237869626,-21.29140090720733,-6.368677328907665,-2.841661123929609,-1.3156003269777448,8.74809212563679,10.464688363921308,3.7954683470729664,6.3730643640567015,1.3870711815977892,5.242480537428656,-0.8621444291139855
-15.43167326376938,-36.208379955788864,-10.727652461375412,-21.86934715688726,-12.216668543581116,-0.1484393721007455,-1.4621361081295938,9.057143084486247,5.064960030957479,3.1851677697411462,8.45799846731527,2.9656150432087163,7.398153212537575,-6.693723989071434
-12.550225630416737,-32.00159781841585,-7.01325308587584,-19.77335019831878,-14.951335005924502,2.1579802870198845,1.3673419033382888,8.19094405197851,-2.221879838129709,3.484893901289254,9.047901510669885,4.136584722708636,10.262026978650134,-5.12748999343024
-9.923028682058456,-24.710344619930986,-1.4486188950626149,-14.01153828120552,-13.226298466470013,4.372665486566288,3.204227279503752,8.266668785523414,-5.950663712844294,6.780841960937302,13.122818275443231,9.004386609625332,16.725713317974616,-1.750003577146173
-2.991455480644037,-12.296919358115243,7.261082768823986,-3.255423528449679,-8.871721278167902,5.544259885685275,4.35383008148527,10.00003113725785,-3.899551863692097,14.00701272554678,20.84718992857913,18.30586701185948,27.48531715280284,4.854898268768493
3.9043819402692455,-3.7037057963448,12.269400599026008,3.815453230422098,-5.348869833953529,3.84456071367215,4.383344101259726,12.177159148025217,1.679389719069185,17.141889447977743,24.6745640084654,22.1866689219657,32.41890137205246,9.323445269878496
1.279128368250747,0.7231084829648106,13.280874158256088,7.325328273583595,-4.702223955192082,1.1752547512771023,1.7768401802131035,12.840327840352836,6.503750679271768,16.449041983112018,25.26453909782222,21.150213124589463,31.65904574608149,3.8665663685287313
2.736911610254548,10.048867178658108,14.991193917550042,11.769264710089375,-5.811851834801118,-1.00139154770482,-0.165438603886471,11.001164298347664,7.796190414512477,14.427589481038924,24.155883882957653,19.0519947075823,30.64480292646225,-0.843802947971116
5.648480584500451,22.59252778742388,15.852704344524934,15.305257959589715,-5.664317863903985,-4.640321542769126,-3.2117878299727005,7.341733741070083,5.830364910079592,9.276132653597228,19.772184583419342,13.843410724449374,27.202071714220256,-5.331793378120183
4.086491580262634,30.483464959833054,17.781585811510276,18.09376335988897,-2.485625774360644,-6.289485549999172,-5.4694264301031,3.4650790893266272,2.73537572111519,5.24955537834418,15.959451252466206,11.756951299708678,24.04444294158561,-7.641589562418453
5.1278671585346185,34.48182815945551,21.39705015220089,20.36837926837228,2.308725962080766,-4.317044600154446,-4.2849256736548025,0.6197005070833619,0.3342704597643067,2.4721373134987807,12.67680716119043,13.371281605971523,21.74430246507567,-1.748597177508156
4.746383697226793,34.466466023696604,22.69211498544024,20.09510398937582,5.331675653952621,-2.7298363043555414,-3.916046233174765,-0.9092695283858188,-0.8933599792978306,-2.667974948183438,7.157751689144339,11.046977515065622,15.250483757437522,1.4257160994673217
2.614009291521347,28.57155497154435,22.074240026068228,17.158116662989983,4.504180277284922,1.240276963314043,-2.17746622037269,-1.4708817706516042,-1.3522274210675589,-9.360041897491277,0.101407611969748,5.98317850992608,5.03130552459381,3.296339537324247
2.41014689155008,27.71263513652077,21.4694288736181,16.042529088221855,1.192152973375579,4.417219284196036,0.6073036296509713,-1.480680615433743,-1.5641144040588015,-12.689988419532993,-3.891926699849991,2.7755618978053525,-0.8104203309472942,4.439677703976978
0.9170135395108314,31.950074035442444,20.21189749060376,16.583673214983502,-0.961623996353673,2.5426949565066,1.5931375001180497,-1.282329839688974,-2.068320781744141,-12.697868367038302,-4.728538031818872,0.4630379146341501,-2.565273397120533,1.3914667191360874
-2.5506054182029523,34.4936505551818,19.601653524537063,17.707528967355344,0.5544337560551891,1.423750312310827,2.5340944123416325,-1.317827518534885,-3.632363077827335,-11.626807645452535,-6.112376080812673,0.2013333071339547,-4.761458079395461,0.3634182010821819
-7.259797256755894,37.6574176404774,19.95223075906218,20.46343231219352,4.765233990351852,-0.1335178036543212,3.077474012126812,-2.031861499077595,-6.845181581589628,-8.313689429380164,-7.047619648587774,2.9065975895229834,-5.734507127569069,-1.2277726456087796
-8.617113938554276,36.86206369122593,18.31093670304311,20.6200896516949,8.185336007538886,-1.553271190601368,2.2680724735075306,-3.402303687135216,-11.10938326789798,-7.061872120880182,-7.679025845949573,3.396545558011256,-6.952443251217095,-2.4063611483913228
-4.279095437168421,31.05253525578191,14.886997076960045,18.03134830770393,8.149829583164335,0.3520732364180493,0.9854410779131086,-4.69656034318152,-14.250252258735898,-8.282510335299213,-8.48906420453707,1.9405104109729536,-8.901665798851646,-0.7451232827426783
0.8655133505321038,25.429654328716044,10.359372228543876,13.695365161210274,5.255610777432666,0.7530562109657095,0.3704472476472297,-4.969532791063112,-13.726111943069874,-7.88926852851375,-7.186087100507897,0.9970232897068548,-7.717292770570004,-1.136998002270589
8.182309225470389,18.747889069051595,4.102774038809814,6.4919217732655845,2.6133179855663347,-0.4186436272641008,-1.0891691999476043,-3.934897479820769,-8.751224654193848,-6.850630878720676,-3.804210702279964,-0.4399540934694079,-3.614476055197013,-0.1701635556809722
11.176901652606242,14.207908951070491,0.6800115634663032,2.732692367763637,2.755435267357486,-1.5265879352205327,-2.4063015888475525,-2.2488262696882337,-1.3670127382788486,-6.392034014937819,-3.503627867472717,-1.2866558206673462,-3.204785700617544,1.4271885082603668
6.66584358409014,12.840318252921662,0.4043517205221489,2.701944409368954,5.247477667110976,-2.894552500957904,-2.6553529524731707,-0.8119398181413882,4.792459113473111,-6.063706354840088,-6.213789428908588,-1.3027188887672785,-6.228833717091296,0.9271625170105268
2.055747144420867,9.71725226933393,-0.9084222425424556,2.953769334952929,7.22505157574829,-1.5077259321946492,-2.003907007544161,0.1450558827955639,7.136765998213855,-5.639776751524932,-7.671792342077064,-1.0843351308090052,-9.042250161449502,2.1500643718223973
-4.833643103183891,5.760512940088514,-2.258152621082551,5.01598225507046,6.19393811131056,1.5506189850898429,0.7044029592939632,1.084139527268551,5.852925053818897,-5.22905024590283,-8.848831510911488,-0.2978108671159009,-12.9879761374452,2.4677708602657007
-8.513307808394574,2.6595833413756025,-4.318525223488957,4.749306563039283,2.364886202099962,3.43051050757516,2.976722445600199,2.202630034479986,3.270266250967298,-4.371642091039625,-9.082482898639237,-1.085826778264377,-14.83496868154982,1.1556084727526523
-5.820901834214,-0.2219198543372679,-7.748708237533651,1.6447313770681622,-1.5771748735051556,3.415732786334553,3.251686079867966,2.6656332874561475,1.6312984844205491,-2.9981711969051874,-7.658473459972902,-3.634931116653087,-13.981539661101868,0.1140923581149472
-5.559411087375595,-2.55456938151829,-9.776758165226378,-1.1507882630134303,-2.8713557974650232,0.7602682648595478,2.217013299785975,1.1480821029002612,1.4108661615650018,-3.206364839992265,-9.128104891333466,-7.961226237787911,-15.506434368394563,-2.948881737324748
-5.594728033339867,-4.150706444088678,-10.636420228906324,-4.695399290409708,-0.9522410851552294,-1.5879805177003203,0.1018535738269389,-2.651913609138912,1.5496950282030415,-5.04847397737627,-13.411185122966716,-14.75894066518008,-18.74396016902285,-6.683318329532161
-4.631205014986613,-4.263493339119226,-10.6350393409418,-5.339161456286205,2.35048163721806,-1.7303669832535629,-1.165872009329034,-7.133264914890374,1.0089244716068464,-4.240407437132776,-13.250877483690871,-16.348404104762302,-18.10308415080637,-7.353940877830683
-4.367615270970405,-2.6458207387204054,-9.189702598356329,-2.449829816124688,4.612905058676024,-0.3435309966828488,-0.0561622474594762,-9.702313711694078,-0.0522874138207054,-0.9567126485933608,-9.09934387025873,-12.348179841938828,-14.0267526144281,-4.753308799050609
0.7580863400131773,1.7792084855630306,-6.221954696829182,1.7827944251384409,4.83393896986423,1.544189789061773,0.4697216881007924,-8.818137742296974,-0.5003493991506289,4.782871281053113,-1.5754551651675093,-5.905405490238027,-6.604808382568231,0.8602845311547107
9.268965555833086,9.481671688380391,-1.4883005770436826,8.469894640382833,3.92731362856196,0.91657087809154,-0.5280304324310793,-5.270447450102495,0.606779853215544,14.077055096795858,11.040144578229349,4.9975463837149325,5.501097023881605,8.856058025675726
13.003835920099489,11.007573616336964,0.0627554920073624,9.959000774808224,3.4805322244699983,-1.2217716250459936,-1.3871538451265364,-1.4790335168189923,3.1002678347035517,16.352605153193412,14.5329592151835,8.114441996233172,8.782481176218885,12.014900684861654
10.804686590876411,5.965591350987102,-1.8904308902875815,5.510505757188721,4.108410371650741,-2.3063264468963056,-2.5116360198732304,0.4715207800292624,5.704065696878827,11.134263104411644,8.225936449792242,2.469510826738469,2.5666025405023136,7.672682674121188
5.330101129890836,-0.113717287607527,-5.233186333314847,0.3924287671842895,4.940525990119575,-2.3402677545272668,-2.6678333499148006,0.2046285462033719,6.741181854998418,3.97462955623621,0.1706184848092608,-4.23761104027782,-4.873074106225561,1.0672826598709446
-2.8178309649914954,-9.516716053186297,-11.309308503160588,-7.372012468400379,4.604871942795537,0.2169382592497692,-1.061610907842051,-1.2630171395885397,4.983125857576066,-7.743554177083492,-13.10180503211246,-15.11604351151646,-16.79938103486516,-7.961824308636234
-7.700384373045781,-13.879424755809664,-13.1412248690255,-10.962145371068676,2.6516844839852194,3.2589566997672,0.3127750183406128,-2.867377887326347,0.3081423804923844,-12.344104180622672,-18.238500073167,-18.85631696708755,-20.67724610046986,-12.576206044827693
-5.993398703631891,-12.110292434538096,-10.198267551627636,-9.35843440414885,0.0025244774464763,3.575705186964307,0.4490042100245073,-4.349295081238283,-5.995461672549013,-8.580932580622664,-13.614207743486377,-13.950889311063287,-14.785607934405952,-7.632900223729672
-2.7486676559584784,-10.838464488190729,-6.175366078257642,-7.966648403170198,-1.988208799945161,2.447627938172148,0.6184939723789169,-5.89486873127669,-11.548154715695675,-5.337957829084039,-9.69349295826486,-8.629530483282755,-9.27330168008255,-1.715944077344006
0.5820394288177864,-7.880848481759622,0.7468494342660642,-4.937864101746992,-2.8730480803882905,-0.1449549831844413,0.8753284231981042,-7.288088576173735,-13.99568732253527,0.3385946403192527,-3.0375020537854724,0.1524071622379308,-0.8344355603678788,5.7699012945217465
3.0488977297410966,-5.876152314781526,4.526072785787189,-2.8146153122920925,-3.4474384610541837,-3.3170874749938317,0.7208781459728404,-7.764869630210232,-12.474072893033346,2.5968487904627984,0.2586784592667329,4.627498264875691,3.882077945709847,10.948185275463077
1.599474197891245,-5.6617171135848245,4.565120164829057,-2.27479907335812,-4.688340633684755,-4.308502093160367,1.111024492901414,-6.823390652900622,-8.338832907700185,0.0823867634174728,-1.3340482653846313,3.4916521332839303,3.307346773411098,7.051720643906382
-2.828043582864693,-6.225741093435518,3.667183472220706,-2.4338263350516844,-6.376477900381772,-3.099256959398454,1.7580487578995552,-5.038880116273562,-4.336006314751339,-2.342841449004222,-3.036369030879496,1.417041204852246,1.362973986596847,1.135788716675077
-6.505852737413413,-8.581997611694446,0.1676074903378088,-4.216000768900899,-6.918152660676531,-1.138998749293254,1.7861705185559038,-3.828718694074384,-2.639129482207954,-6.457812361025612,-6.781355580773284,-3.899724291256506,-4.15668889923779,-6.044316111706778
-7.9589170428536224,-8.849385384191981,-0.2016073296257197,-4.641858939891373,-4.752579487984058,1.671871930715428,1.4077782335692235,-4.225297151294554,-3.286693476020769,-6.489665001025939,-6.597078765811282,-4.544903083466111,-4.934190722928583,-11.474580203207104
-6.40387484363473,-6.961074417872384,2.959619372461425,-3.714728945974232,-0.0945603456290378,3.427017801897769,0.4884476526155558,-5.832180808849428,-4.324891004000113,-1.5561808591420263,-1.6999496110654948,0.234034924144626,-0.3425941640506695,-9.511295861788144
0.3184923357278421,-2.93316045758856,6.914792603062876,-1.3315897511678618,4.731363315530781,1.6560030809328987,-1.0597046655903355,-7.0447682706378645,-3.4765210126766983,5.203364133288558,5.564921174433109,6.793116570990949,7.644324175490811,-2.7715300463225585
6.799957429050743,4.313744094345294,13.143021261931906,3.31018755162358,6.887180701899321,0.1779021290134566,-2.5967940568277394,-6.379524598898905,0.1498655270358879,15.507811526897648,16.99066516858768,17.302166507385703,21.41450684056945,4.805685224849601
8.561512242431952,6.65215400095846,15.204623321863728,5.197649399570915,5.26319149803454,-0.948685793794148,-2.7319194188579514,-3.6463538062960703,5.6595517425331545,19.30795179777732,21.72509111578917,21.573588066064865,26.11802130827517,8.933877594748049
7.53382305285913,3.859661011763152,12.530509930731467,4.301339330426953,1.422213581481155,-1.921814797387229,-1.4340565909099865,0.128888116757472,11.287215698530993,15.70899301914558,19.05153839460708,18.80790338046718,21.062994470548027,7.985952774047902
4.41105620723366,2.081283864206308,11.014679589297472,5.167648661435331,-1.5773966951907523,0.970237580908176,-0.2566786447427816,3.836239654814012,15.524260930866472,13.319432332915522,17.310371106775868,17.175577356450678,16.213718234953973,4.386366707377488
4.084604208472474,-0.409329510129422,9.199432361118472,6.877351492633679,-1.4694425101272728,1.6073211945634227,1.0522002484681805,7.203713098196651,17.513165017184146,9.772923408728069,13.98722966509908,14.301432197040118,8.142177156958654,3.944903137925825
5.808964317075018,-1.3794455790435511,7.673139095486965,7.798140101463842,1.6958432298469872,-0.2271346693779299,1.4200744161605086,10.517750921139491,16.802345930180216,6.475639803633389,11.06552120944347,11.346707055019504,3.332390219665618,5.405183577895016
5.214354703651091,0.1310524687968372,7.293463461290312,8.512711956945536,5.872484858400897,-0.821176291249563,0.4608054755025932,13.50015234736249,13.20994157306309,4.598265432470484,9.623847933791438,9.33325078948139,3.262160533833611,5.301553857525437
1.908889108218484,-2.9461161872917034,1.8636470792045348,4.138162836109566,8.671079915735447,-3.183234367998516,0.2590168180862429,14.72031111667028,7.164964063878092,-3.1902606905759097,1.6801068775192398,1.2243357723123756,-3.8426887955777262,2.7754477591168856
-7.612473178649795,-10.24351884604703,-8.66687551415287,-5.996311375302686,8.88678935964724,-1.7022741056648272,0.0223615188920897,12.484722325718808,0.0675943748154459,-16.69094533165159,-12.530997384958958,-12.904802149403288,-16.688646559167655,-7.120911300616271
-14.624014059404,-14.399254146179477,-14.675479511942916,-11.77758441075721,6.842878830212025,2.5190851020096643,-0.1788783637891572,6.607844752939996,-6.012753062967415,-22.176623112601067,-19.34111975263002,-19.97654678941077,-22.72935368776917,-14.712593713680135
-12.457793755849234,-16.38614312296885,-16.900730080922187,-13.89127899443221,3.638948736310165,3.326744283455114,0.3030924049144591,-0.6357191798083996,-9.34187085029882,-20.1250811668145,-19.40074078629451,-20.53034388527944,-23.173112359796047,-12.414475922561124
-8.551815519887368,-16.105498732243642,-15.593043770639955,-12.938419310628673,0.1886266897363935,3.6493128132685024,0.1404127459902941,-5.567075506269106,-9.495988486750578,-14.57547706305748,-15.511960189907294,-17.61333298520861,-18.811940817316717,-8.045299205980601
-0.4829773448344512,-12.018346320710544,-8.500338595407051,-6.563647012174075,-3.188631631526934,1.1056421700821757,0.2000161966173329,-5.59790390528199,-7.526311660635892,-2.3532095145122853,-4.486207440274285,-8.172013179439416,-6.834787964334022,1.1952786419079957
6.280893190730382,-9.990503939356644,-5.5555948885820685,-4.004563355658189,-6.533928912784696,-2.4945389957756303,0.6679576805882077,-1.201632982385675,-5.21493877715315,2.6758585227712914,0.4201660358836812,-3.7774525531818974,-2.192134980317738,8.454917218952662
4.973126277273567,-9.765065872962522,-6.601067323315487,-5.068937329515509,-9.794934824875355,-1.763675448044829,0.6636496155612334,4.318803778205319,-4.012217955153806,-0.2608399639568116,-1.155359659861849,-4.759420697170803,-5.097551577637738,6.240578451413571
4.291126509776674,-9.13092289823252,-7.733341099104536,-6.969649348207362,-12.569246998699988,-1.1857591555331464,0.7071694276867683,7.190331175500865,-4.338144794791639,-2.4790551583272693,-2.3625183176472992,-5.06089729964089,-7.393766257536897,4.351623137368499
4.126329667975125,-9.289910490380176,-11.145608193551965,-11.795156716788188,-14.172165232390745,-0.9905697086902084,0.0661820235147147,5.856352477118032,-5.535642967757333,-7.272131951677451,-6.2778120211659125,-7.354450295953437,-12.430766098047904,2.856059995683114
2.0750068025345905,-9.396133148674798,-12.27713795019108,-13.530559675155857,-13.944829767939645,-0.4246824099451771,-1.2125383922263964,1.931666570805982,-6.378883073091743,-9.33167141940544,-8.394191593950639,-8.764189180289765,-13.654442730997996,0.3589879145918791
1.4610388101093363,-9.415413584834935,-10.80625411778437,-11.956565832742436,-11.67323073841684,-1.5760433995292515,-1.9055395616173632,-1.2509525566402804,-5.888746566093545,-7.587136821215042,-8.095933801664946,-8.833097058681314,-10.02056915936076,-0.0625056643986056
0.9762804080183805,-8.832182382322035,-10.22547385867668,-9.702145085920844,-7.936531617479371,-1.2285413386663755,-1.9153682942009056,-1.2986897919294886,-4.096474995612795,-6.120126729708849,-8.015318914133097,-9.241914125262984,-6.542637377393691,-1.3817045560885215
-2.0070710660738533,-7.391690482619222,-9.531352891700626,-5.320305232560287,-4.102266797088105,1.1084604500980892,-0.9809619619289892,1.4865357520370743,-2.2260482458860054,-3.401442217072002,-6.94835514233572,-9.218563655352854,-1.455265702042435,-5.628882872110888
-3.3495464741293546,-6.3828820239240045,-8.961884557164305,-3.5647795681851617,-1.7496456303012158,2.435701362324078,0.749338037814656,4.595932945213345,-1.88555530003436,-1.3630197222418117,-5.319622575983637,-7.53872565245216,2.599821942956025,-7.090870809719806
-2.1423653314583566,-5.646827386736854,-8.934944707114793,-4.827567107255251,-1.695601384570404,1.638925226308144,1.7218809343827175,5.5546331306194645,-3.580727406749712,-0.4281683393238658,-3.1967986882997943,-4.086858742225927,4.998134035280537,-4.6833843686575065
-2.0855847078802534,-5.558286005342556,-6.833203100304186,-5.575511154755285,-3.279457150828814,-0.3578986663667856,1.203479562396219,3.991664368652607,-5.7599747117436735,0.8966652458448754,-0.0290837363152286,0.7707250485922396,8.18168698544727,-1.6396959085327896
0.2395805347854722,-6.415323441937188,-2.646237055371741,-6.936488238335785,-4.602215605704458,-3.1507490080368035,0.12433065618453,1.7848676946091675,-5.604498430668476,2.0517678306013654,4.137807281678314,7.441443353181905,11.385255260644106,4.420957124975415
2.5595095617663475,-4.828761115046649,0.3686554294889261,-5.520060786901614,-3.770039164793401,-4.13814934521009,-1.2559564361166629,1.2222157790122168,-1.38990530507162,4.161913770303276,7.775808459283826,11.550505059407374,13.979663732583656,7.512758149650401
1.5062543913930757,-0.7176399338062381,2.59769526022445,-0.6466608899944358,-0.3126214666432618,-1.091122598078833,-1.767567193605692,2.8891438723927623,5.495506787067077,7.4234759528846865,10.853076769703549,12.78244827517874,16.120550998329477,4.692587829391151
1.2107750601625034,3.62812481568759,4.596772365774879,3.591609602512364,4.353571270795899,3.007776370067068,0.0073949533846537,5.216514326586847,11.010383963109565,9.445604772304012,12.360770285295228,12.91401021528142,17.496732476240794,3.309421743796139
-0.6200931491716802,8.956753888822675,5.729420295453039,8.061058112819168,7.879402489884079,7.453750222342901,1.6156451813883788,6.044553635797411,11.531732141002363,10.384221622830148,11.745801128727818,10.738737099849974,17.95311109326385,0.9202541306811728
-2.9948379461269874,10.97939894247583,6.52984356554419,9.674127774029204,8.676457382548158,8.697043660276405,2.052562492663382,4.65244694653364,7.073306883618383,10.349464794683854,11.21516039212629,9.723780435376357,18.01978939423115,-1.3077490165802506
-2.400741058844464,9.042201162620875,6.863855039228162,7.489557632831862,7.039386251289072,4.35594238677112,1.4450069932892855,2.320192251237212,1.6305367609615669,8.779435051878679,10.395890226925408,10.022220731220491,17.5826734962885,-0.5610887768336468
-1.5132098200619568,7.437101857020857,4.958749046511693,6.267312079748046,4.828265493659886,-0.894212071823473,-1.149326836829903,0.9892401250853108,0.0224062878567963,9.336379511428142,11.554848032030042,9.989762554173266,17.018671839550873,-2.287531056417531
-0.0603254713951247,5.063346174580151,0.6762196316917243,5.1335727480996285,3.988513982807788,-7.412224908655611,-2.746374636246653,1.434247059397749,3.866084357863896,12.11488116783328,15.306793169489898,10.462318310870828,16.443192757316865,-4.998049883274279
1.473768215965986,4.608311564782165,-1.1895647881375808,4.97819539342575,5.082432483715881,-10.217984531710998,-1.8495045270966195,2.710534627410377,10.26802025922258,13.4895013565185,16.344098148854705,9.964693372323008,15.606574269173532,-4.696192987808428
1.6632519879143617,6.895639458338094,-0.7278477112042016,6.687399368426076,6.944992796375382,-5.94740745265001,0.1243986560296037,3.252165942335276,14.389417707892273,14.143287229808683,15.090289637171384,8.367221888731523,14.64950270218143,-1.91451655977812
2.745371852689064,9.246165844763222,1.8624120264777757,7.524522751375696,7.662644199243157,-2.014323167808589,2.694390696559212,2.385285997953158,13.513344889445282,12.47100911390844,11.68524630577582,6.9909410063167705,12.759708466919388,3.0992824597129154
5.585602477326565,12.55767752347118,7.849367683899294,7.922935303550493,6.069568035025125,3.118080123391762,3.818615899210544,0.7920564145154607,8.983693284613153,7.683564353065293,4.923157144606782,5.522186968485254,9.869041327613113,10.458269500816291
7.261515413092626,12.543947275480097,8.685197064693334,7.078615357336532,2.62356837590458,6.295853662432716,2.2982302891534907,-0.34952958021689,4.509914530938944,3.996895564993688,0.0917346426033068,2.632888645099044,5.718991770074798,13.193036760274934
6.101736609557356,8.561576077415632,4.15336974567566,4.428457018267222,-0.9506232834374212,3.491558308155967,0.2210342611183403,-0.5732386274788555,2.671419927795662,0.97568009638047,-2.8937117106990904,-1.6276497781516377,0.0225214224100372,8.880995447448987
1.493992206654875,2.168128524685098,-2.380658815299346,0.1746444222476565,-2.9313953127479246,1.4316845841211308,-1.3321772000326413,-0.5699515016983643,2.847738910014145,-2.445091023921436,-7.363109790867655,-8.078660915666871,-7.502137843463535,1.8543694145067129
-6.643091209825609,-8.005022233106743,-13.03531318916255,-6.188951504160655,-2.8295657333039523,-1.109010961023992,-1.989620480823293,-1.616557924243911,2.18900653817533,-5.47605390480081,-12.278534938674753,-17.16361499243091,-17.123403988445233,-8.484034229134815
-11.48187701959706,-12.315681087780998,-16.318598114076348,-9.02024304379236,-1.6998155338130083,-3.1440501400888667,-1.020737307954671,-4.574172665767375,-1.5733724748400777,-7.6385111336026785,-15.191790658298356,-20.557421134612746,-21.56559938276641,-14.352227287902055
-9.573080022879628,-10.144268428784503,-11.320990630893952,-7.996286498712398,-1.3363309038707474,-1.4188905291055058,-0.2719500454388994,-9.185825248906683,-8.05480281609729,-8.752000064732913,-16.197642329468973,-17.88381069406934,-20.325221424718915,-11.658340816657509
-5.530694315897883,-7.270247935516287,-6.481850540766771,-6.300283733521433,-2.934105180219849,-0.2298492102382763,-1.498374357677019,-14.032022821164109,-14.46369951629465,-10.153023613013104,-16.302397901130874,-14.991253539375728,-18.063616228877954,-8.49283592405747
-0.7844511659608138,-1.2911927804940542,0.977639870693133,-2.515049008446823,-6.153035489405154,0.757097821943476,-3.45847461411932,-17.110914755515488,-17.641597632102528,-11.705528066649272,-14.928645808621546,-9.950394561418552,-12.943225623621236,-4.748568509129045
1.915174034946525,1.591390858820443,4.404551012989427,-0.7579810180510632,-9.240767355228344,1.3342094956677055,-4.630882248797309,-16.797302593227176,-16.10796763767204,-10.7842770037538,-12.488539235058962,-7.110971843164947,-9.27016664537975,-0.9520604391577844
0.9507539716940818,0.5153564167248983,2.371549083823466,-1.5234041050400813,-10.157653617037386,-0.6930236381794562,-4.10286713498498,-12.768383903688887,-10.700636658321372,-7.408357456422134,-8.98205038643003,-7.444899920801819,-7.725098186903744,-0.0210276037737766
0.909689190491718,1.7948997818827188,3.290507476015451,0.0508080558750082,-7.964243380056724,-1.4407262734366049,-0.4440850680318826,-6.3667560618730725,-3.718642169831901,-1.428471757830994,-2.8083172984897846,-3.142851084827077,-2.5470147893798094,2.3528563783753422
4.4465090524955,3.9577691979596032,5.473330043267463,3.0924828214080007,-3.522411711894893,-1.1943198319438175,4.606998528190501,-0.0408487572529296,2.509118085899728,7.903116947531974,6.108309963608781,4.91231034267775,5.344518375992329,8.067879098632
7.193592465449703,5.847326859719546,8.063233556049129,5.224851220728248,1.0103749100678292,-0.586997003780573,7.08646090799148,3.953064449123537,6.626395168142522,11.36170850513176,10.38630995908416,9.84657192504546,8.962457328966314,10.038217542894548
6.42131149397287,8.237804335433779,12.3051046378458,7.048072283424701,3.5896994420860477,1.7355305742466516,6.270356084031769,4.82238063413487,8.429103333872252,8.465284948823669,9.758457338908832,12.596501607911186,8.649164943421285,7.250407169631871
3.919704009114848,10.08132775985816,15.658366352560618,7.228683403149028,3.616077651665375,2.430525028300442,3.219639015178574,3.632347216133372,8.473324447165886,5.644756005773068,9.730335172671229,13.507239280350408,7.293465487722955,5.412694248563336
-2.810917052082786,11.319174765419394,18.253331229612144,5.264356466430336,2.204073735944313,2.568444774939682,-0.7086825596455439,2.536197035147156,7.598856814072181,0.7318497300516125,8.647459104727218,11.178075530066012,3.384159812411584,0.2148118992583125
-7.833015429007909,12.542830284952933,19.16776049213811,5.240716809602915,1.1645467576246338,2.0077586455897087,-3.308676894283604,3.361950622136006,6.659043712319749,-0.3858616684672702,9.359986453772825,10.862011505380318,3.1505606627367,-4.0099222069610825
-6.0703658587965865,13.521124834413362,17.725083184220882,6.945066791941486,1.495660148055764,-0.1967007128286588,-3.456967461901852,6.494827632082902,6.411824566715666,3.4442127791574757,12.7510010602685,12.440850867319808,7.198717827460334,-3.3088469883068
-2.131425281203497,13.758061646178252,15.679361071430217,9.347938374840515,2.634149314408506,-1.0850333168197748,-1.7618636602759157,10.71905048763467,7.352539317796904,5.611555680908236,13.749786610669236,12.82431549143146,9.72201695981856,-4.049435605016927
4.505314918007345,13.234093005055714,12.572360890004951,13.345931093706268,3.1316988232776577,-3.226939876499023,-0.4739032449582084,13.978700223011804,9.39080104303274,7.646206757812616,13.062092306238071,13.037178014069251,12.14769835030054,-2.5788979640149856
8.273234754461544,11.929892328799417,9.952773448368704,13.80722240777469,2.179515121740196,-4.151067795695728,0.8730690085848533,14.45718698896764,11.57579907678172,7.561244212916817,11.320677437191057,11.046503635102225,11.583000228760772,0.7266836638022597
4.729660406815979,9.682443906980524,8.179967225157029,10.41615420327154,0.5672575091942313,-1.571579880934595,1.96554125201732,11.353392271939232,12.269140298065834,4.221996122007442,7.610277061544771,6.354513347166072,6.9419244400549465,1.7068537924273506
-0.3446003835715577,6.962384590234505,4.86249940714621,6.174309518387959,0.0801282964936715,-0.2626022853844345,0.226278632516334,5.137515248192054,9.979730528194356,0.7116861086656034,2.918563858336962,0.7043696687397123,2.4308773653797084,2.191224755494868
-6.26476682476695,3.718859640227769,0.3728685486874784,-0.1888252749009555,1.774384219176527,3.752393094490969,-0.246696459849905,-2.577756873060915,4.511576824394103,-3.786883244938109,-2.9647028440826206,-6.531978081682847,-2.882997455588069,1.174030804029661
-8.256145960699357,1.36464361650167,-2.078702984418919,-2.9770381980604013,4.739459730024283,6.678164705661208,-0.0363594928291222,-9.439387403937186,-2.438080107597891,-6.617974172263885,-6.95977984564739,-9.888456773979636,-6.543722594390921,-0.9632384122668892
-2.324474357767101,0.1407770746699882,-2.604165793089964,-1.5004950729749258,6.652088026997658,3.428716579069873,-0.446583147413246,-13.123293155243116,-7.980710877984537,-7.1609271492953175,-8.634399341819428,-8.694163777763487,-7.699608116414216,-0.2111384428956912
2.675159744948955,-1.4727623815296114,-2.87469678279226,-0.7259437070271687,5.768391152866569,1.237015910929396,1.853935259173014,-12.459806579473357,-9.872600617417712,-7.700566953539147,-9.336668757395156,-7.092267671391509,-10.03048868505966,1.5007398901269826
7.20315049625072,-3.100682972270474,-2.207803633547685,0.7695011796988582,2.5237399294486984,-3.744799682595116,2.2281968489799,-8.3812505154346,-8.221571896092751,-7.410122848212946,-8.103892235056936,-3.6209630003365514,-12.782819876016326,3.5330487539008857
8.19949013114272,-5.0762231498115495,-3.202207112093016,-0.2838451537571572,-0.8441635002106107,-7.773361634081369,0.6681062374346074,-3.791826879192268,-5.586104498444563,-9.167079308381012,-9.405867773849833,-4.228990072264837,-15.528604845535542,4.374856410458062
0.7912636641885471,-7.635278634330827,-6.210457856340866,-4.773627516726084,-2.351685243205603,-4.154998382193739,-0.5623552558058645,-1.961263167116984,-5.124514576076457,-13.408966364915882,-13.512198301326231,-9.827218382549647,-18.78790019590543,-0.1671668683922038
-5.380343243199935,-10.799419954338708,-8.971561489057791,-9.014569811119047,-2.0102427673207384,-1.6453285450888293,-4.480731249679405,-4.288632939486769,-8.14434774695943,-18.165449196618358,-19.117194549094705,-15.6494671368541,-22.93719665083087,-6.953399808342487
-12.545098835989895,-14.781694890050533,-12.152020061620036,-13.986057724941729,-1.5273390043627604,2.225270762538332,-7.216509430328931,-9.145500990225852,-13.087311666380256,-24.253036456341256,-27.45077003037963,-23.32742421530902,-28.157035390204875,-14.922840074804654
-15.26376763491871,-14.703292158980805,-12.13976035268933,-14.299233546437511,-2.3067263719033173,5.065966913059711,-6.2831179859405895,-12.919804727736668,-16.852347404166963,-24.22970744845153,-27.861060715092965,-23.55106733937832,-28.33349227955743,-16.892214770501553
-7.055048132914973,-10.200443479135568,-8.324590507085698,-8.964234235256331,-3.846376958256103,1.454250069883407,-3.90691558240145,-12.611312063856946,-17.302942749585664,-17.262109344012853,-19.598963154254225,-14.996571705377182,-23.069837555469583,-8.217630906595648
0.1330764687608533,-3.8349508384616047,-2.734542905967668,-2.837938555613529,-4.213601513110952,0.0931481991312666,1.4266941264331383,-7.944516430430897,-14.749243735129042,-9.264393811213951,-9.153727153192188,-5.64996781766629,-14.06634103996306,1.9473479943331204
10.106418190803057,5.696819743369138,5.753024410797647,5.61207078803764,-2.0881268187796103,-0.8199728383251732,7.048684701527376,-1.3467119693979883,-11.207910936740468,1.6816548151166142,6.167717168312873,6.960346687470683,0.4363443110064915,14.223222291483705
15.798992305965056,9.772269639620998,9.13881028548225,9.163116557623706,1.7792470552794786,-1.173089392910717,7.849453021241159,4.014833250894609,-8.368232892781252,5.883882715311183,11.755016787339173,12.166054093919245,7.092284329766829,18.751012166626893
9.480256060449404,7.544912174967269,6.698442814109425,6.627781764143456,5.194610877447156,1.934695468943092,5.291725015922342,6.362476327323709,-6.334856820841033,1.8167060789899196,5.852949343539948,8.097619213343236,5.072099427438466,10.10294029910925
6.924267191422578,7.654855767507813,4.724685761202332,5.918396889802547,6.520829245302963,1.5417531653676484,2.4271345849011485,5.953097322267375,-4.253159800117002,0.1355316787243094,2.7240742157061013,7.897392076265802,4.384841337812682,5.199173191715075
3.314228624928267,8.147958611165903,1.2580837680439,5.21499666697884,5.956685154473927,0.6993138234522567,0.6428407160598975,4.131769933196981,-1.886065543445805,-1.565647359196063,-1.142365783354088,8.970595800585091,1.9219875188229567,0.511525485627734
-0.9794277387769572,7.915477976081251,-0.7283953067516037,4.13658221942385,4.894797540624981,0.7699729393234274,1.2592910469333924,2.04230471357228,-0.2396882130915947,-1.175795674875867,-1.86588523373128,9.73903306873255,2.4091128895419107,-2.472953593193636
0.3913735496328846,8.115423991828584,-0.3130008375219684,3.772600850017551,4.2531732846114005,-0.5983932522712014,2.763241624285899,0.1805294194643165,-0.444119805118385,3.0713269934763483,2.8739048982479485,12.163895496305187,7.331478996436862,0.4428795490225093
-3.2765383740727385,3.986957746082586,-2.938057294100373,0.8382758562010452,3.660971159225542,1.187639781533617,0.7395336561271613,-1.18150598125027,-2.101449643454262,5.446239515002916,3.747286848588165,9.583988280182922,8.443328209615203,-3.0700819250175995
-7.978158476388605,-4.700663712835519,-7.893564136891138,-4.573830452771332,2.274927839478517,1.4309013905184629,-5.262823185459147,-1.5707414459739042,-3.052204890037995,6.8485088416941045,2.0452279027867784,1.8697810840214748,6.926650102609647,-8.719818456261702
-7.932162212203165,-7.253729605535929,-9.280550525660228,-5.7075962853862405,0.1417460393063723,-1.3005416561909358,-9.650550358851492,-0.5364460829810285,-1.1245709043219807,9.500477080995328,3.4983577811854074,-0.0157145148175672,7.523460210247734,-9.781719059600652
-6.321583911873564,-3.986388340075581,-7.57234264817793,-2.686851204422457,-1.5203119678532095,-2.8744923554918005,-9.1365014845402,1.75060271796691,3.701977678270512,12.616724716357036,6.920375619294716,3.202246676241412,9.149434639015665,-7.293638295428155
-2.3447912664055943,-0.2113893773732665,-4.52493651837564,0.1910128756821782,-1.469773347952537,-5.402669145737902,-4.552168626318876,4.311622065843386,8.915072573733614,14.29228946878123,10.227966399194818,6.961941298065769,12.232833888523764,0.1672322857611541
1.615478941654946,6.33673830391337,1.0996773258274053,4.313975642906276,0.2374532769784036,-5.05151899120186,3.4964725962523047,5.947803190644006,11.436923006004047,14.548410448933272,14.19828039053436,13.451935136758312,17.58493723284865,9.192023835472868
1.9647477210260007,7.258533398467533,2.703152084358715,5.509201841489202,2.2041096858162925,-0.8641452920174091,8.453409784888548,6.114837699899175,10.1979886629888,12.295738008776585,13.411982980460872,13.196010031983128,16.97014490563108,11.728005224116025
0.6604983320414016,1.4755717834128466,-0.2023556280928904,2.926659538264304,3.0037986832006807,2.0646100337064364,5.90867357035443,5.263039332384779,6.9154598398471006,6.863337336073506,7.11505811584574,5.152976795825027,10.073802604818658,7.174036602436448
0.0193469583303676,-2.0031050569947038,-2.35494136098195,1.43363363087866,2.500261588085337,3.176304201054643,0.8999074872103282,4.33261856130923,4.378627908624499,3.1018317094377523,2.8398307545614703,-1.9561501930572232,2.787496032339356,-0.0738867353817319
1.5826968918357656,-5.119058523241646,-5.286663884180666,-0.0612958017757131,1.8183765151088984,2.203573094344544,-4.450696491145971,3.9055428317931735,3.9325681789859184,0.8230046892343967,-0.5540762280115211,-10.387164540682152,-6.73650867325675,-7.434647938718652
4.044835676065859,-5.471265864957742,-6.363842240999069,-0.9868955412351887,1.995319599518596,-0.4608492950183165,-6.5564504941331085,3.808273470123328,4.559930315007901,0.1535153915444448,-1.3433028026235057,-13.397002832893095,-8.758298940894685,-9.08521942843574
4.434753726794039,-1.440373114687082,-4.734409151569711,-0.5795226544013067,2.698109552666049,-1.269321056900917,-2.1271604454245567,3.4835674995084247,4.317739106713049,2.329933784082665,2.0790501172143494,-9.177742000013437,-1.6896518679594432,-4.726368740893644
3.1130737349855484,0.2351961147178614,-3.774244634786692,-0.0889716232370029,2.378659111883035,1.619587375404451,4.223610542986365,2.69831525300876,2.563986515383215,2.864551961173809,3.1689873007524745,-6.334598202750136,2.8938935423073806,-0.6349641513424755
-0.7217014457408504,0.3701570039016119,-2.675978236773538,0.9018050830560106,-0.156012910997001,5.271955097398548,9.843962167126152,1.8573276429286767,0.6924804148149342,2.0275998381804983,2.600743913179427,-2.932950825155476,7.356008469798374,1.966330339524729
-4.006638379568291,-0.9678390487732336,-2.7145136028861265,0.562431813090848,-4.22548688747885,6.3860727822359165,10.979616824338864,1.606722093126001,0.6442366520510987,1.419235821485795,2.4520808456821825,-1.1474381225862058,8.516729073576007,2.206786063690444
-3.046207912592084,-5.124393535777591,-4.469142454251063,-1.3733727151757775,-7.384264769846762,3.6346073006817177,5.421863310184481,2.1181464773315923,2.7069256268426205,0.1553113057665029,1.5581897891440664,-2.4311454256579577,4.220210929547096,0.1607080123810254
-1.1045208385378984,-8.3976076915548,-6.313711476318142,-4.255869514773687,-7.306367104268594,-2.363187283395703,-1.7596190849788342,2.7782322724902624,4.860347749344356,-1.659392334115528,0.961914691874676,-2.8107396391647423,3.7360788494811215,-0.1759542434508345
1.2960879309081124,-11.117411356937492,-8.731998981392584,-8.664716071239967,-3.902721782784667,-8.228218377769965,-9.270216542570966,2.6522328342407206,4.472277231194511,-4.056697122605637,0.7205844447329749,-3.2274874584319453,6.004920474579473,1.0829372874337673
2.78267107975305,-12.555748304421396,-9.223751047538157,-10.23786183825361,0.2549110646592076,-8.758540807918449,-12.02957633401521,1.3586792249246251,0.8694832621890036,-6.066128306942131,-0.4966980341141424,-3.51274495685408,5.396200404355982,1.694877488487352
1.0012539658252972,-11.848492109488832,-7.377656155703546,-8.686756454392748,1.7475040418363823,-3.796117202641408,-7.270785449307718,-0.4503276946066208,-3.6534119962069935,-7.617197704992235,-2.5550454414383137,-3.137375447564645,3.229284617398649,2.0891316858572693
-0.7905793685569746,-10.7173678781543,-5.517132617559753,-7.286132682816639,-1.0551762632582466,1.3896808186507663,-2.5290649038712667,-1.5245310848128852,-5.530910066463068,-5.2349805198338055,-1.7998455173560322,-0.1420679268561457,0.8863624295111173,2.7680007076898736
-1.0599276954822492,-8.65754115700902,-2.967092771290435,-5.0105759628948,-6.7130374081220445,5.452075022808574,2.528423976752735,-1.073831150709747,-3.015639354913411,1.7493869972268643,1.8510142405720595,5.980682467150589,-2.3672413445541625,3.885225193263455
-0.107563861262318,-6.613439635198436,-1.3328895144821988,-4.011901236908319,-11.816697175472823,5.108703527463971,5.3278911644431854,0.4759814251578049,2.0757879885040573,5.672001977812614,3.2882400849035824,7.896678743552891,-2.62036846380079,4.958842710834502
1.5773840865745783,-4.837950279328729,-1.0280849455181185,-4.832830477933485,-13.48357133560307,0.3769393549746967,2.6169411371085207,1.7775560024070352,5.696674619390009,7.104259573395288,3.064940300164856,5.71483624464662,0.5592734063161582,4.337879140929718
2.514337671581428,-3.5871830421616027,0.2918259576978901,-4.223242081302906,-11.190455166801506,-1.659187133752789,1.1425881921290837,1.7369940112489246,5.021419995448646,4.125256470920956,-1.0992214011828447,-0.4901064804427612,-0.629742834892967,1.1851952011491442
2.096729307606969,-3.2736413678812992,2.2126731225792664,-2.7150499866385625,-6.634962238035726,-2.473402583969011,0.447605288939329,0.5357993282648081,1.0105749522314582,-5.257604618877559,-10.554090177866406,-12.683962224385423,-5.679673492979847,-3.6049038866484215
-0.3013863854858856,-3.735461180695292,2.9801592132897885,-2.5320554065166565,-2.0808014427544315,-1.6578244505410105,-0.5439102264525932,-0.4968625267734765,-2.3364937365595715,-9.849533224566231,-14.915342165022158,-17.432542291146653,-9.66903347362849,-7.335583180914721
-3.2689148756679987,-5.274777853286146,2.816658703063017,-3.319066505504681,1.2099922677577055,1.6938426664925426,0.4369581785960135,-0.14642379589122,-1.5838409470048411,-10.147658277678431,-14.498692863020622,-14.448221661804777,-13.971915619655425,-8.322242257222376
-4.9194709135669,-6.265908089998344,2.054681629118604,-4.599556597937165,3.232521873142545,1.940905148459651,0.9094877822365752,1.40707098623896,2.8145550902948315,-7.935195971806801,-12.953920822723813,-10.802968044405958,-14.313177487667131,-8.041655768655142
-7.281934447056664,-6.6873698757744044,0.343735938924284,-6.770666374504928,4.333368362244862,2.6607174745540414,0.5207240374231366,2.535646404217843,6.549036988708554,-0.6281096509189181,-7.983611402649447,-3.379642240811555,-9.631471226498707,-8.662694092786184
-6.942493494235615,-5.564444080997496,1.391494363606988,-5.600150868702741,4.334050356864246,3.5318291589935864,0.562269153603961,1.523229849476735,5.04723435698061,2.6035784187001223,-4.646935581034067,0.828684271901647,-6.384153083489771,-7.647934689714391
-2.6187554003330145,-2.342060855319027,5.483272590268076,-0.7287644615688899,2.681729846590308,1.4076013620641297,0.0687819350303519,-1.7960032732048852,-2.3733558407776023,1.7662655726041434,-3.193495148892352,0.907890337007642,-3.493591058071788,-4.01621152804719
0.3884154526493242,1.4654831758041824,9.390551601526388,3.931889900448075,-0.5312032369680253,1.2452740152803816,-0.8682137954521799,-5.601391690733454,-11.401217619267053,0.930312807314176,1.1568081010490892,4.056232710035155,-0.7884219021772509,0.3093890434067185
6.166717039277574,6.293520229888491,13.96849255372602,9.35394738394596,-3.831623741910104,-1.238824408642293,-1.661856186529011,-7.335766384367005,-15.72893824659841,-1.937147268536238,7.439033348201152,8.673470915033917,0.5996154741426509,8.740309569262994
9.699218231727396,8.797245359919529,15.066206568369884,11.669158995103809,-4.935698227152518,-4.933828434729048,-1.8212228185145487,-5.654390582777275,-11.753574696268778,-0.8333908189197832,10.878523189139669,11.177512305301292,3.0583619836631617,13.722171861378111
6.2932141519235945,8.481073678093633,11.85092793206622,9.95220061516059,-2.4310761489201878,-4.47695104143938,-0.7427869139668242,-1.46477934553765,-1.2179316655339925,4.843028997998546,11.763938744845472,12.265732972224829,6.285812532506504,10.92406971121285
5.48680844222578,7.547456605648951,9.249376818087969,9.318953552992085,2.8238394389926498,-4.62901672506298,0.9723741981327472,2.773963619872859,10.170766224474368,9.924634581866648,11.66368019490681,12.098400597059475,9.263626631699868,10.347061694400791
2.7262266060931646,5.021467368239965,6.167749982767861,8.727023939397014,7.960389554377123,-2.309085662737984,3.0329481581433324,4.855611051035236,16.825874373031947,15.814219978560022,9.519015333019192,10.010516775709418,12.33303298964518,7.925208224885651
-0.8093838629147811,3.569155474158155,3.4366541116815603,6.912848514790253,10.024120221331184,1.946305201001841,3.579773111750131,4.237731216167887,16.766378942375336,15.809104353007008,7.43030520107876,6.991612462976825,11.120503982412826,4.08104771358245
0.4178843329723708,3.504417690080958,1.8625503829360757,4.545499433970109,8.048105222281759,2.6928813828844724,1.9002777151753056,2.0111898647646136,12.01904771484736,8.596403020748687,5.463497147590173,2.841343217560229,5.070703368186549,3.2899788671171155
-2.3215164320920234,2.8836492553414117,-1.3850647149196202,0.4603004339535482,3.566574564786471,2.793040987743092,-0.1157612734691971,-0.3278509785113854,6.170035466768201,2.107569466302573,0.8973600375073455,-3.861631696124164,-0.7446885768190445,-3.345562752537156
-5.575091284731576,2.389425579373305,-5.9547220314426,-5.483713638454472,-0.7554001988248658,2.121190037921398,-2.463168563729708,-2.096986496966087,1.51468182462461,-5.406932845601811,-5.969650546548883,-13.13066961546222,-7.332470490231463,-13.243883135818528
-5.284940323730143,2.190608115751462,-7.205594667364952,-7.068595986053162,-3.0608934892502084,0.3223033538959938,-3.118529450631031,-3.612834002219413,-1.835344462595323,-8.046468014808537,-8.026071266256874,-15.607807707156084,-8.815276788981771,-16.190987951174662
-5.009868310959064,2.162673831501358,-5.2170663270132565,-4.030909701776125,-3.188732800485408,0.0531108710326794,-1.493282168852937,-5.382333970081218,-4.640758237911069,-4.035245930626735,-5.130602011524457,-10.745671664422275,-3.764097086060342,-12.612667399047268
-2.1587667552069063,2.398553304414765,-3.0886196035462827,-1.368035365539063,-2.095914845017198,0.573000711806432,-0.837994993301278,-7.24975321033709,-6.842883011031962,-1.622523674175049,-1.2206732814359686,-4.888180686624477,-0.853394919353105,-5.551314359308328
1.4048781228403784,2.915596354725554,0.1344482114285993,2.294999595168234,-0.7627238824432663,-0.2798931505343925,-0.5728384915576213,-8.373020521948103,-7.3979065661559105,0.9314208960668282,5.389186247101553,4.250359198751438,1.4426380211383234,4.853922104928954
2.3347110153594444,3.153488172645502,1.1026221956915747,3.504217746419626,0.3193907923029613,-1.3588622851629404,-0.5583351810478365,-7.994946372125245,-5.677255927875439,2.100234183415544,7.371699785454917,7.261757726433813,2.103707510088777,9.968968285086246
2.0750570736456124,3.084810732009453,-0.8581560324657943,1.297464540381,0.94524293427758,-1.5573508076793732,-1.0945737802320492,-6.184640968649154,-2.674889997491817,0.4848549434319031,3.835063253504256,2.7254388560763503,-0.4744827892088276,6.119725901169286
0.78179144512097,2.958703823314396,-1.011522636993302,0.7095369236324336,0.9457440299882888,-1.5273401312644332,0.3808118095899786,-3.820366986405664,-0.4606409770324022,-0.9921362028612606,2.451503112233712,0.7167231887513681,-1.1123766706940446,2.7452711764411726
0.4568535429587861,2.6286722390918795,-0.1508055052851287,0.8035205537273058,0.3299249303224125,0.2192134769577917,2.739253749690763,-1.898508841817555,-0.304762603165293,-3.1763186155379617,1.522613319611039,-1.0735932153002796,-0.4080632411688629,0.2107653757684184
1.21019147159179,2.344910442896854,0.6031355063413356,0.6869888187471777,-0.4981789915102146,2.076015050761415,3.3776364757120896,-0.890266617999143,-1.4786876183008002,-4.803849581493668,0.9942266660790908,-0.91056806553964,-0.2745606262182157,-1.689870524890716
1.316032354131989,2.118301412056353,1.9811260118420828,1.1029165149613092,-0.9547892029309396,1.6407655598773458,2.288530628815796,-0.6888114009214643,-2.104592614086531,-5.47078667884511,2.004953472707906,2.83051660722397,0.1303986444025474,0.1003772345727738
1.7751361592227572,1.447320423431851,2.2702408616577,0.7515377467639053,-0.81554475128034,0.8100574974680023,-0.1903383149835442,-0.990978005933278,-1.2170703090724828,-5.062174450942307,-0.996816096510748,3.3287354280048143,-0.6015802292453594,1.0108925564305729
-0.059940339452274,0.3500513722353842,1.359821826437782,-0.3708252232614855,-0.4256259300953138,0.0379519963640693,-3.161563462262489,-1.565193552178985,0.1499383945591574,-3.019889969439684,-8.026463976130612,1.189466831400384,-2.699656647812493,-1.4380388953633625
-2.5151508094101724,-0.5965318035696087,0.8666169557202774,-1.4259511679688144,-0.248342600417764,-0.2346347812694826,-3.9756830712878295,-2.1655102838821265,0.012735478965224,-2.9392185113168425,-11.73987534264213,0.0143982672260208,-4.4401041635647465,-2.962631657537536
-2.485468860268137,-1.4630216238109712,0.4466677430974297,-2.660371705072376,-0.2515066532627159,0.5323589244965821,-2.2238801671035704,-2.4022841648865096,-2.493241149410672,-4.82105875994777,-12.896039820041286,-1.320614248577712,-6.1328361649036855,-2.3623211148740744
-1.8527058401856045,-1.755999652611439,0.1648268072243849,-4.050818609189535,0.0918839520311856,0.4501476809399668,-0.0504859698147468,-1.941222897399275,-6.17798883216409,-6.839870086212119,-11.557186625575572,-0.1489553234865985,-6.506010654161689,-1.8833610276375736
0.5952271310828592,-1.3021299452777286,0.2803868333291927,-5.500352728922588,1.1060239568491177,-0.9506597750837388,2.2679489385241225,-0.897599740801347,-8.870667861174724,-9.79190971841926,-6.101552172619984,4.2016861245233486,-5.1320991200657575,1.0717847232495945
2.3455921124411003,-0.8094115978612278,-0.0259308164642008,-5.7089043120133045,2.302618697366718,-2.170439250572114,3.2188935257537032,0.1132608883273178,-9.268354088323916,-9.19803685891377,-3.330865003541716,5.48494188363322,-3.14154853603647,3.73304622845677
0.9270828166855878,-0.1165880246560867,-0.688188237030731,-4.4921759153100735,2.6334729326081145,-2.176593256700269,1.8866669165336896,0.5272254654732293,-7.687065520239976,-4.538886030749815,-3.0726754338068085,4.13820788881805,-0.0640888023603833,2.599237506066331
-0.0211083447040476,2.0599507050321604,-0.2334573136416279,-2.2449295109831287,1.454640064803911,-1.0322690801352898,0.4297235269700924,0.524201510044449,-5.208300239690427,0.0017545187539759,-0.7166017423208232,2.6965785556336064,2.9340948731918064,2.308672168980077
-0.2198668445921573,5.753511448838888,1.3094061337098029,1.466747239494329,-0.7517796856655181,0.3266959508411637,-1.070490125181952,1.0841181596916414,-2.4289017185096924,5.510278164436585,2.4753782739024146,-0.0521943154072994,5.70348568333461,1.9867341436297552
0.6543838710032075,8.0405641834343,2.582004348570616,3.733384360451881,-2.636418936744945,0.5573882752280531,-2.03222744835891,3.1698849754454983,0.7736168727049701,7.774091521030249,5.585230817883656,-0.1921707941763636,7.335781596683597,0.9679113558418192
2.398876820213384,9.00695423748761,3.844594279756565,4.40063432360765,-2.9794846658905243,-0.4076091928192089,-1.366030617864379,6.700137141536075,4.394040827173434,5.828545282403205,9.10094400221373,2.72014861573951,7.346458321534121,0.8343568497585803
1.0043874944318962,7.16621350101086,2.577572376297895,3.7359837017011626,-1.5028168148587682,-1.0497341078047844,-0.4682697592312523,10.294817722805456,7.562863618256969,4.748146568338353,9.450210943566912,2.580341734123098,6.333352955878553,-0.5710373449954709
-2.5783262644788856,1.595091652812523,-1.7126525426295642,0.882104472893097,1.1366831299557774,-0.3080598481451194,0.2847085805000924,12.13090925314158,8.920900341947558,3.3724005658071965,6.227868775030615,0.0565932919027863,3.819791220229861,-2.99923619250076
-4.758334999964205,-0.8401080308306265,-3.325672773700103,-0.1002046220076774,3.953187837455708,1.5407227806760564,1.0245105125568337,11.241459145975796,7.795738511792884,2.698905030099475,4.15350031006129,-1.818416648044508,1.5967646692643849,-3.8765017580567886
-3.880423018344851,-0.3725422418090326,-2.651618378447317,0.7860709825961393,6.148982911651274,3.1708829565161607,1.0675143969554892,8.18997967219515,4.947580646321413,3.5486957525511693,2.501395828680164,-4.044768667744283,-0.2776944387070293,-2.685009730373126
0.5883616913415887,1.089472807309554,-0.6760389303666706,2.7338424857229784,7.190796158125224,3.523263710001433,0.5928959530545475,4.613831970220467,2.0774221942340887,2.990030523851966,1.2125729199459825,-4.002664956881306,-1.5543870598364635,-1.1572265547462033
5.418961586173747,5.101679417419553,3.854718677923709,6.758905299362759,6.729655003548892,3.2864464405827984,0.2922793859284532,2.088353983314647,0.5408717014344404,1.4160827203244144,1.1733808837079929,-1.1107074314222096,-1.6936973148555248,-0.3327080170803205
5.95890703434806,4.7975723836902535,4.052008772513941,7.410536916982649,4.791211499583561,2.408898662206156,-0.2379109195360106,1.2391969853837494,0.4610084438150892,0.792480303307639,-0.153885256741167,-0.6277642477967691,-1.81078567280821,-1.0831893616669774
2.2127936202103085,-0.1887939646936957,-0.3728521884157995,4.480312231729304,2.14443333265433,1.0871850491534514,-0.7377926799645537,1.666515603629506,0.9672884628366633,0.7605118052926587,-2.5748621820126454,-2.0740817298223475,-1.6400480343806687,-2.375650896314641
-2.51590777501683,-3.1423394235685773,-2.8788898678815205,1.960057903761939,0.2407089983899979,0.5160780485107596,-0.158493393224454,2.492699889296929,1.1719235428400054,1.4724499472670234,-2.79200329057253,-2.011419764193989,-1.4634124402797304,-1.8382373698588956
-5.201323134787754,-5.436688763617742,-4.833696618792885,-1.3416974282706011,0.3419600528045876,-1.953181892665869,0.3342843829987834,2.9375849205469464,0.8827240835213672,3.3092908539680823,-1.0266869727146564,-1.2618621483801853,-1.4466580694678004,1.3668443979031475
-3.338279287009849,-4.340255102945186,-3.831720453893994,-1.1932113611232265,2.3552902286538213,-5.218851534324485,0.6037918779163696,2.5522905198524057,0.4854325596948428,4.318738268215117,2.0153191807460047,1.4311434059166743,0.4913899424140025,5.6248036158194425
0.8491941679208391,1.513031817717548,1.4176664947562267,3.272619873835229,4.51850895741228,-6.322231235076624,0.7420207266703462,1.223918773569153,0.3424703258727817,4.543381676294063,7.0697889979269055,6.715378764259393,4.403471305442161,7.290141898539799
2.4376951668454865,3.4080522486996494,2.952566520646968,5.303574766273152,4.5822423029055415,-6.737916064938101,-0.5156623798597024,-0.7741380098992465,0.4555822013755488,3.863849987231891,8.381305545606454,8.554048890955848,7.252943786908181,5.117148154210054
1.7987971103974336,1.9305272565546487,1.3019516126963475,5.832367267922896,1.751405928902848,-4.415981500157356,-1.3272724856300346,-2.700987247171547,0.6740641056563774,1.7615934536936066,5.568773881027223,7.01017168884255,9.33395417073532,1.0869413403709072
-0.4005370604079965,1.0963166878203785,-0.1049250920490081,5.179790299988547,-2.3073211594301952,0.372929053846357,-0.8216135522019908,-3.5568513585228203,1.0284636825330369,0.2937333496771514,3.0130411410482614,4.921858220523396,8.757427324684675,-2.9613889368372224
-2.654233940664984,-0.7309686195380732,-2.789213161014509,2.0551200523190465,-4.508077282231724,3.339738919949673,0.193651791267438,-2.72869827929312,1.6717374663994988,-0.655286371533333,-0.6342204256850693,0.9522363746817746,4.646612484558946,-4.645417229589263
-0.9938951106684176,0.4906483323837486,-2.761435724839673,1.3397005855310844,-2.7767544226240237,3.4090156916390337,1.6592830290629594,-0.662058325175515,2.4871445414339206,-0.6054443123945858,-0.7042925673757211,0.4625856202717645,3.02915189567832,-1.6281698763127876
0.9234030663981568,5.398264952010405,0.5085338932320423,2.932796419329681,2.145714346197998,2.4900241812233346,2.025536025141892,1.1513582253716308,2.9247751699662388,0.9804169281172256,3.726715692125667,4.041945359660993,3.5086402980710134,0.5564517681260355
1.3514703852469483,6.476593294562027,1.3674977618338406,3.341382284253952,7.112581053915001,0.7508439607420072,0.6588889719271387,1.1302211688835584,2.401110674825226,1.3833148918074851,4.605374105233686,4.896990960573565,2.942247550603233,0.7028364983157286
1.8176234634975932,4.374883401164675,0.5859270639846098,3.4594559900544577,8.882326931982867,0.0492535146811201,-1.1454215128851366,-1.132104272899454,0.9028875910759524,0.7591826828001926,2.8783080904322462,4.108028929468399,2.4322366692973403,0.6880640621798186
0.1878225183577337,2.491305112793039,-0.8339629798477919,2.7896777051910853,6.414134784233205,3.7965523865961286,-2.3797714509416297,-4.382189556355236,-0.8649550936806989,-0.5818950481899673,-0.7790457512976731,0.9334185146223886,-0.3013419988009551,-3.13923796810336
0.2225060400507665,-0.5345753245388628,-3.912254881004488,0.8054821018225461,1.373033413615822,6.791706028086101,-3.0971071715425462,-6.525231017688121,-1.971680211308751,-3.257672482928543,-7.97565625263439,-5.967075160607783,-5.765048598992903,-4.647486121502652
1.3956819230518698,-1.4824584645576862,-4.111209310138999,0.2639400017810543,-3.302606739232864,6.481741865867783,-2.541546030637769,-6.143448875945381,-1.8932346681393923,-4.1523834981446,-9.35855239623186,-7.4655964483508175,-6.8913579390450606,-2.9653171719402023
0.3392781791183744,0.1870779418923314,-1.2287376290950929,1.050026299916207,-5.407935433437196,3.96726431001417,-1.1133737904038652,-3.4773723825762453,-0.711301160945311,-3.203418549103725,-4.649503107783208,-3.545492389409165,-3.831065570544256,-1.9592621434230957
0.2486362337711483,0.4159099346079021,1.7428743161767393,1.3971517457801237,-4.571273953155888,-2.193119791296993,0.0336894984617987,-0.118990696285973,1.1215275441349064,-1.4709101691975568,-0.0143216336139501,0.1762227149738195,-1.1727055153493795,1.7986442186800922
-1.1282982916245126,-0.0645488181329973,5.837864269248605,1.80766150932594,-2.0259641286707115,-7.632726194148167,2.4474585292616147,2.209064301571269,3.000888273785605,1.818018137110602,6.622717785022968,5.631740615074212,2.4862169121109363,4.346632655075791
-2.177783547072229,-0.7541522478528001,6.845618541520956,1.0279366561439858,0.3505110928650694,-8.580034692044293,4.086847095042987,2.7233559920619204,4.164133410460581,2.6946676230679545,7.407409909474771,5.7375029532756825,2.2774070447941583,4.565599363781796
-0.4188500394262897,-2.2987159863167883,4.091847710320927,-1.2857910359217612,0.9820182812782736,-6.272921864838524,3.2066208223364114,1.761965810453109,3.7892311955349776,0.8965944524899041,0.9970009293581144,-0.7097477353172623,-2.7954476852624595,4.464468093997005
-1.3966885729512009,-5.412234420931091,0.5687473967389143,-3.5394959025829005,-0.7867490075069625,-2.266747252257138,2.0410884222052976,0.2268548972629673,1.5294203748171178,-1.8956294467197887,-4.68482938704016,-5.7836935118826895,-6.391887483831736,0.8316452093181403
-2.8204016666578684,-10.362476179213592,-4.934754205409085,-6.093992204797712,-4.422260717558135,1.4146130277518227,-1.0025943298405025,-1.05113330613956,-1.8598640691656383,-6.737302682229892,-11.697771869782022,-11.254448976107268,-9.729697274051071,-3.3149933830008216
-3.362904127869175,-13.12113879221499,-7.396116767258632,-7.293273625117748,-8.39139129016721,3.247761116884041,-3.722674819222849,-1.5990369828970383,-4.634270496119694,-8.7151425230767,-14.079577525811285,-12.731130559828504,-10.548418809768895,-5.534729218139431
-3.7715663580183127,-13.65645149066984,-6.180078959122767,-6.740983117721222,-10.92548483499674,3.189064006374937,-2.8638415270545368,-1.338537565715317,-5.231081945148267,-7.465565413562459,-10.228561879562514,-8.601484418782341,-7.575761362663674,-5.554546009937359
-0.010067875967108,-11.283925140752022,-4.6385439715464125,-6.235597427738224,-11.081075449504336,1.7511626214965172,-1.5663899244006,-0.613850910446553,-3.6499442407226494,-6.030909108491669,-6.928229998109015,-5.862214448898651,-5.356808562465932,-1.1272312906907251
4.205707147004301,-4.796414454155707,-1.3999220419722205,-5.287878772434538,-9.356983360751617,1.08273436232572,0.4180027683042556,-0.1509328316129252,-1.673119771637407,-3.1861735060774747,-2.3842560411627787,-3.1627290534691825,-3.0551907450209304,3.0929030115344225
5.766525373757662,-2.1006739536934877,-0.3640308206065744,-5.055585874528426,-7.267056850238029,0.1399356135682157,2.484894557984899,-0.6942307852855283,-1.456297293746852,-2.1359254240513845,-0.3561135603097253,-2.332368282320644,-2.3250252025185154,4.790163343373075
5.578811823629925,-3.1284610483809,-2.0617973991013177,-5.865523818590926,-6.100290170349958,-1.367713668188857,2.104596528626141,-2.378745853333381,-3.604162160988662,-3.348724885194021,-2.038100202988842,-4.679200820670778,-4.077004046200617,4.509081672262165
2.8694205036334326,-4.313490654394224,-2.86362490098549,-5.810234869672958,-5.900350052621096,-0.4311077683456169,1.3220707041030777,-4.381662281986358,-6.49969602262308,-3.071890513206619,-3.085729380702866,-5.232297491352864,-5.120186542269557,0.7407061249991966
1.9689005693112456,-7.413936166713798,-3.730442520712413,-5.182288205530043,-5.593632836861035,-1.3093281500290517,1.1604749269836891,-5.368028516737326,-7.603768729799789,-2.029673825649159,-4.705842267882659,-4.677461115361033,-6.071418423608787,-0.1907881715318041
2.592246562023972,-8.157968246169583,-3.754862161269638,-5.64248633956829,-4.177011960503421,-2.525815108488295,0.5136265914695591,-4.532515838703016,-5.622958757232897,-1.2205767181390343,-5.339497141543629,-4.549577494284207,-6.53769901161282,1.217235275836589
1.80617493316797,-6.104303634753723,-2.397000842742891,-7.008182069173373,-1.8651148286209176,-1.43284716273272,-0.0111223085164941,-2.3407955757478547,-1.62461288911687,-0.1284841431427901,-4.349817581731133,-4.062425959812432,-5.976465396451062,0.931925105820723
1.4593852671413157,-5.795370076362852,-2.3953970346894136,-9.255831590843384,-0.0900588387719185,-2.771537247319821,-0.0379391979379681,-0.2289826869239402,1.8461437578168576,-0.3247498261756744,-3.355497264141775,-4.240835676969463,-5.47708961604391,2.3169720461289405
-1.919438080436724,-6.3286702675300495,-3.5134863428092853,-12.758546119920334,-0.2891387922621042,-1.2687445324337885,-0.7878223784340275,0.5151497524298811,2.785466626839753,-1.9903886201118377,-1.7777837290511176,-5.204330099662411,-4.760306578614564,-0.3759754469633706
-5.28239042836936,-6.664097363440509,-4.124933854447441,-13.330387614459449,-2.552907879251024,2.581771680766887,-1.0046547688465612,-0.3327711028166789,1.1153636149060835,-2.1837232612155857,-0.8886845294638847,-4.275090032124576,-3.510368766048844,-4.592775467081678
-4.898241090278386,-7.434789031483469,-4.671388161077228,-10.738277512928075,-5.371233356412468,3.840196983531242,-0.5037219138992539,-2.0064756291868058,-1.5826972168168574,-1.122594616475885,-0.9141759858263282,-1.4971913734479108,-1.8163691192313995,-4.0507519742140605
-6.709214063186716,-7.035879345424639,-4.686283461453326,-8.229911713738801,-6.748938916205187,6.329794428275401,-1.8673118036332848,-3.567870696278732,-3.463408295317468,-0.7214358484985883,-1.0460634942949896,0.0005391166497613,-1.3445683001758586,-4.843109743029507
-8.21716361462194,-5.329766543597799,-3.9060303658767697,-4.848669981416033,-5.744484921855221,6.535091093604424,-3.8298891930987695,-4.541321849050526,-3.616490008476628,-0.48403787402163,-1.6605150628386005,0.6171693746115716,-2.215801896628664,-3.1701889863190096
-7.072864128538791,-2.329151678968909,-1.9105265199054904,-1.246585617509877,-3.1139336279968504,2.7505523149911806,-4.851879943435136,-4.808762851756676,-2.2647761585387265,0.4602667093304879,0.3107809710563405,2.258049502223841,-0.814079509224515,0.3978515622477455
-4.838149057815607,2.4645550818507327,1.60446923496347,2.1537969833720263,-0.5343271995057357,-0.3366688961795595,-4.471574690035073,-4.158653972975429,-0.2257165223831094,1.9366314548801895,5.185603402190808,4.4665015643949015,2.6920049004727558,0.4127060034645524
2.4230316025702403,8.508772721057584,6.819315102447771,7.8637596295036785,0.8824068252692534,-3.3974377371837807,-0.5254334393585433,-2.259188599734646,1.6385973882018554,5.9272845422673885,9.809195263217813,10.045126612260328,9.006805690417869,2.5974886185282973
12.694498528179356,16.034778850493925,14.056157143072314,15.761757053926424,1.4781158990511365,-6.508680139742538,5.022458802802487,0.8015511192473816,2.664320543961967,12.803791832207905,14.882152520698629,19.5751985153626,19.116246616130773,4.606078273113325
15.882013918466072,17.875280400071752,15.95838732799234,17.740297500878473,2.580636239790479,-5.802450342561006,7.69917255028522,4.112274121069032,2.5363795324832665,14.442002810778266,15.066834706861842,21.597546826478577,21.331056219506465,3.1848926263147908
10.331483072808624,13.295055952786296,12.017137646243372,13.581112246557252,5.112574688892892,-2.6879557369028437,6.5693427291706215,6.366031088105949,1.5100029875297771,10.766041606303988,9.342369306995076,16.0299639737458,15.20032714342645,1.6954649623105391
2.1296279078066247,7.622219431425215,6.103903647712034,8.260011422958915,8.519647571710454,-1.1328452381190963,2.968226587096792,6.880848227366631,0.4297324515109864,5.4854380240381335,5.380879943287201,7.993708575004003,7.721411884556809,-0.5813018402642618
-7.860279204540117,-1.0155938884616855,-3.72348193473666,-0.1169746584007386,11.005495751207896,1.9503246610244904,-0.5352522510754458,6.1911984770149004,0.2095409306038966,-3.324899944951978,1.9235950719183224,-5.221222914858911,-3.878849192214725,-2.835375134878551
-11.311832447470772,-3.706150799131047,-7.19138661661382,-3.0229831773434936,10.954486626916315,3.6189802192230673,-1.8633306424735911,5.510519075679287,1.014487400481087,-6.4360211525006985,0.0988125148277428,-9.915373136111572,-8.413050442904622,-2.227253246186156
-4.881417533283214,0.8619969154223515,-3.2865541461186982,0.7263210261214876,8.378267507083166,1.2030656459819515,-1.0612715488619486,5.5240605177943785,1.9328513979845816,-2.958013210441373,1.411627496430163,-4.790303734177441,-4.36761691273241,-0.1569025016618222
-0.2476098750093914,3.968871776469009,0.6194933343594181,2.6371919344325447,5.122751939579846,1.3606867834625698,-0.1421549276138194,5.7134043915513,1.6495109818174214,-1.0649884904634028,-1.1593504813706543,-1.6098839976349502,-3.347097075359567,0.2823401427636652
3.2920761324322454,7.880726470611999,7.140720415024884,4.81749085094798,3.5386310987485103,0.2807070763269901,-1.8501898104359056,4.907686977252229,-0.3472621396796569,1.4115651078517009,-7.219588563199184,2.876818516944517,-2.669586994283567,0.0510296066509429
4.489844760782705,8.75994773679526,8.537327004654493,5.140519829138697,4.607977301352548,-1.927506467803456,-3.4663828175371503,2.511212736931,-3.153567289434555,1.4437607084671418,-10.154864605563064,3.5931963597712837,-3.2327327627426263,-0.2535528917447728
-0.0253159458152573,5.11636300126003,3.480636550095101,2.259541497820749,7.064456773116536,-0.4499488885486339,-2.8974434212795237,-0.817895146691221,-5.103917543511464,-2.2971196092986563,-10.961270429690025,-1.3719859841144608,-6.787535612097085,-0.8504984033269063
-2.0393024052190047,2.5546661238407635,-1.1462030709217763,-0.2675253656005312,8.32432622451568,-0.1311532025009692,-2.3141653760804104,-3.676822820107734,-5.165348477956343,-4.415267815566441,-10.372504107936232,-3.7835140092198944,-7.894409063685745,0.119793392121247
-3.057697180839451,-0.1712441952995143,-7.44508083995955,-3.3426252890330184,6.574667013879303,1.477470440610122,0.8757876517677341,-5.055238791247611,-3.795106218208888,-5.863380408883069,-7.157195165673822,-5.15940591273172,-7.120735372611982,1.2802593805083986
-3.969296591102708,-1.5255654975341797,-9.365822818576888,-4.827909586925798,2.3367107933951203,4.053903063549255,3.4222693238241844,-4.981613667133448,-2.4624772966782658,-6.023493170417552,-5.158269108575284,-5.680130775847264,-6.596852245637123,1.0511224409211322
-1.3667272309902128,-0.5560198971721678,-5.6132279072649895,-4.080851177157787,-1.8362601968446963,3.0664082355627564,2.056641140960088,-4.168846937446492,-2.281504525158576,-3.921678960627625,-4.320788153920262,-4.006040828452793,-5.419096835935473,0.5017359967326256
-0.3830755233089037,0.6042412458949964,-2.7401550094191327,-2.03320824969875,-3.3585702931186834,1.299020978343449,1.6213823735459072,-3.206169902687442,-3.0172028900247128,-1.401894514921585,-1.4124874133122296,-2.656497436215802,-3.5663968224270257,-0.8210785667145294
0.917445293244821,2.652598372992135,0.9194074208602262,2.1442466811604506,-1.6955526108005827,-2.2118523628760838,0.270488902134933,-2.208292173626077,-3.359991650129956,2.0311820501079394,2.908465544671317,-1.2472699598811576,-1.1453554135155382,-2.022767024103933
3.480460898320993,4.853273358992656,3.1279687437534696,5.00459628086623,1.2103862627490312,-5.425331379708241,-1.143830177495769,-1.1742204683741324,-2.1820570929275664,4.113770847520094,5.953936631013421,0.0352535586829743,1.920206988334477,-1.208248998181933
3.625787046456146,6.973224218185761,2.825361688371399,6.433958768152383,2.559128261752816,-4.840205269996691,-0.0481260493382778,-0.4312449850143238,0.4097160538995243,4.422492789466516,7.981795994008072,0.7453772287806122,5.624816663248105,0.6253164619405023
4.324364325870431,8.288548348734006,4.137294491329845,7.490019044237501,1.0326292566669508,-3.3835290466768795,-0.6446284111571863,-0.4551608851982678,3.211102893228441,3.866434074809285,8.58110357967506,1.2664144884421855,8.92983346711909,2.1378168199357823
4.121671963093935,8.417342422554494,6.332277848172017,7.287168339092054,-2.0864560750805854,-0.5473056126409805,-1.758967140008986,-1.1581310059599366,5.116309484578428,1.6849628513752195,7.071702285685155,1.348974213222197,11.74170933869751,3.0807689701561647
1.0691126129265944,7.368507015068149,6.538692817972047,6.661567361601552,-3.9556945525384752,2.696145708890861,-1.939595812935854,-1.504592020929377,6.208886126643657,0.4222596264783571,5.543094215268903,1.1049278317386264,12.517884685077496,1.5718088901986491
-2.106201268101986,4.7112011439052495,5.153231648394749,5.485882554729613,-2.5399262344150126,3.405692157993528,-2.285190012604071,-0.1343123415826461,7.608115452070045,0.1421244878567966,3.7189355147932446,0.4906620669826678,10.754393120635251,-1.9389911381202949
