AF3,F7,F3,FC5,T7,P7,O1,O2,P8,T8,FC6,F4,F8,AF4
13.23130484344972,-0.20296706360107,4.2825262823427295,3.3347301941762644,0.4957951570826572,-0.4690714528367299,-1.2508406357098454,0.4188245329629616,0.7926433432502886,3.5157662679560677,-1.0664257168613065,1.6288604438243297,-0.066327093549515,9.853331005601126
12.661452446815872,5.595721102460592,3.650611965068297,3.5744530177270994,-1.882839462018262,-0.0877506723851069,-3.251617592244767,-5.818208862064653,-1.2440837081093934,0.4348152000501071,-3.395862996611444,0.1754968637963294,-0.7207086529911244,8.971398869852907
11.277259490776386,12.015546507963125,3.28500059961383,4.286687482739975,-3.5825961242241875,-0.8460818418317008,-4.380619891217719,-11.58001966381391,-1.1350866506832746,-0.4290355543701782,-3.93538937843024,-0.267862786773394,0.624578065783906,4.782979935040064
10.66643267006548,16.228894722473257,3.960846460078472,4.80259029389992,-3.687542279918749,-2.500245281322878,-3.4553906781349397,-14.036058184078229,1.5846138069925946,2.5290911400563227,-2.2545765877623247,1.477917918442918,4.309696688497272,3.7483482936908783
12.107987119728469,15.823985452486214,4.650233587777951,3.7913350453418326,0.1549713037127947,-1.0699900075197362,-0.5779355310244402,-12.135741415886562,2.826014015106999,3.435618463739467,0.5637975963190014,4.356738254314298,8.079947694497564,5.943961509178519
8.494643947560581,10.984343322475516,3.678824413575403,0.022619468992603,-0.320422438641667,0.1893021720166495,3.3764372139528454,-7.511542681419069,3.626039900818024,2.420908509005531,1.5107160439996798,5.738587277196923,9.25145622084965,5.440974416217077
0.1442529278472746,4.830653828120519,0.6465846492098657,-6.550505829509652,-0.5721463603549279,2.155535275512628,5.968563441450681,-3.057948682399936,0.6866413061012291,-3.000455068964187,-1.68524189547838,3.805951828717984,7.095571066009687,3.4140509002839585
-3.023513542781811,1.2682127447920062,-2.885607076507966,-10.562097054580024,1.1908268377109144,4.004434816286768,5.085051244816072,-0.5386543180615742,-4.055896356084366,-8.51318915463015,-6.144656576429375,-0.5720026897275381,3.0663828249281053,1.0132966202456335
-1.7427588917755583,2.0286057120546315,-4.67652859661946,-8.90450883065478,1.4080042517590703,2.160050905140547,1.1042583856236623,0.4549888255314482,-5.452247025733662,-7.360413729516291,-8.358531146578677,-4.401211835134248,-0.9823693726202496,-2.633876696847484
-0.4480006052594177,5.503444383394216,-3.8131637505393874,-5.011458079835268,4.956389720193699,0.4689787262103007,-1.7351470594355247,1.3036936959272638,-4.752370285479167,-3.5076817096071924,-8.694774086511591,-5.185325794636554,-4.37219541553755,-4.761410033788683
2.7850511760843557,8.40831268186315,-1.4930240028258002,0.6816793194025395,6.9050195916196895,-1.839797209146444,-3.53096436208605,2.4131086125344208,-2.2191496278803147,2.330961693277974,-8.753596448521156,-3.163865034820983,-7.373761264232604,-5.205344620424369
2.274548077719058,8.705920189443242,0.155036823753333,4.447612074063493,3.8614385595444665,-3.7531349263647855,-3.329229246093829,2.781368280194556,0.6241236139508517,5.910855984080146,-9.163288845033206,-0.9889174758029888,-9.949633893119971,-6.395937591352375
-2.745560084765198,7.085183329790196,0.0375788700050563,2.899046267420519,0.1772675406074496,-2.8206041977038754,-1.4825962067796736,1.588809403673344,0.5679587020552929,3.306650233664204,-11.233855302308188,-1.116478650834475,-11.429322010874552,-7.753436178252842
-5.249177995823157,5.764305378800982,-1.0369681097130463,0.8422903881566033,-3.3424280359159533,-1.0913175819953251,-0.7090707820586643,-0.0800885466941954,-0.1001572209237108,0.3400859420922043,-12.813444563330217,-3.4352262710056927,-11.703610726065753,-9.80218797705289
-6.456581595372309,5.995597758200872,-1.3443630597538498,-0.334050629697936,-4.532399538708004,1.527072075090891,0.7403056654473579,0.392131473044444,1.1661963541232263,-1.0208359128228564,-10.450523483132686,-5.439349315690816,-12.302644102298537,-12.9402299323164
-6.352230586748314,6.817807047869138,-0.0333028713718119,-0.5717594730090392,-2.255064519106844,2.9678411366594486,1.6312891923828414,4.693821428840937,2.697105877922653,-0.4772832151069787,-5.728186806261929,-4.748165633889423,-15.456173424453246,-12.676764138518823
-3.693253408285013,6.215574469241719,2.031124387014346,2.0795617795169186,-0.2719984179315712,2.4360107970771487,1.8557800728971243,11.458973047650328,4.1124688289064855,1.724874121140772,-1.0366771744456278,-1.4742043027942513,-21.487600625411773,-8.897093959792715
-2.3086979122415205,3.383798141761172,3.0980256389925054,5.811713468124643,-1.951663280236416,2.138061604504545,3.4599969621732107,16.821502869248494,5.347159498721083,1.97554920870334,0.2033574984767182,1.8670021233901088,-27.216235675563865,-4.661664712584978
-1.9356131464835096,-0.2472519469216472,2.138135937965186,8.276930649249675,-5.767959621929739,1.9956858296355304,4.364504800100825,17.37104392093723,4.359293288404205,-0.089032004814417,-1.5568586370386706,2.7558529501679807,-27.625748850286094,1.0223390855202674
-1.60392106614854,-2.2414928470022986,-0.3122284823392642,7.44420979141858,-7.546647459675856,2.109929629619984,3.900011420751456,12.808373001170285,2.161613407221657,-1.950640530645468,-2.891498248730892,0.9910518783466862,-19.94997473245738,3.336567139849677
-2.0815777226076984,-1.409406810326395,-2.760582048834408,3.002739282068296,-4.616377492335692,2.7275857129009267,3.2034562683975745,5.904018238485973,0.7567585898221766,-2.2137433091780605,-1.784436925822538,-1.2787566880270962,-6.592777209713187,1.4973954947924273
-1.5736371311346211,1.0576865323320863,-4.119414015745811,-2.697736936398192,1.8907450400710435,0.9931873112426356,-0.2073731070218125,0.0244126035133631,-1.3355688279726494,-0.428244496283885,4.709942706842272,-1.7217395190722424,6.088550809463281,1.5424570407771716
-0.048902437684837,2.5475750838179287,-4.520855377027468,-8.294067882356032,9.472750983751933,-2.3945162493993624,-4.9249636567725625,-3.3016294734950584,-4.527374843298191,1.8282431344084216,11.301960766190346,-0.0083307083627084,12.455560004773254,2.339275633032505
0.1399714558488425,1.1235352972810908,-4.927833804906573,-8.924721152008933,11.6057021920655,-4.2825820722629375,-6.648805543246699,-4.708924796862557,-6.19142147746251,2.080519124000968,12.440190795858394,2.041932871283673,11.781867195256783,3.0390118260875205
-0.7628062209219981,-3.050146535757274,-6.029939953282251,-4.666323609315609,6.195771795641963,-5.012127364583694,-6.234170916205652,-5.488602190343195,-6.027232913839995,0.4685260933363376,9.993971467035578,2.343791321987573,8.363407441070724,4.567335578853612
-2.403732526193431,-7.971379783836049,-7.500571008671656,-2.6885090338286584,0.4020455392700488,-4.630574938223861,-4.566350122463032,-6.199648543357676,-4.887248874856524,-1.4670723048710284,5.811447824098585,0.55298826566393,7.593854150947099,4.683092792747789
-5.266178853373422,-11.323310369595324,-8.274821011110168,-1.280485254274654,-5.15373711961808,-4.14851154943031,-2.020459369870583,-6.741026655884561,-1.0734234536512304,-2.5709010878819565,4.391681693387748,-1.6815836380557307,11.572073965814925,3.3931449201908803
-5.860739416361102,-12.004864986872228,-7.54408526215682,-0.7154035044739326,-6.816474474797391,-3.7026581887397385,-0.3848839932279269,-7.282711813000234,2.78569884108728,-1.9559267679841577,8.031540599788896,-2.3267614151452314,17.947094812383646,2.742658192683729
-3.993452685707953,-10.653408018606292,-5.523192258992378,-1.4749039217367497,-2.591629442481283,-2.275031202445126,0.0343527000530919,-8.481334152541521,3.423940024665733,-0.4446744987167407,12.329865503780333,-0.8225159689039779,22.53192709879071,2.359467445514007
-2.292886949444093,-8.962730995636653,-3.27411268819918,2.042672998106231,-0.0739716176752761,0.2679440049435097,0.8373972509680574,-10.457005006818989,2.438498085483535,0.4801168446481472,13.0364504805467,1.52494354113476,22.9126548400872,1.031016878317772
0.03838275050672,-8.360727869691221,-1.7537111174337323,6.3444624084594645,2.352753700673381,5.55168961909208,2.891747415611796,-11.78263151749902,0.097687752501651,1.0751886386875624,9.94505703597824,2.85471430401076,19.87977671895565,-1.0052954736018396
0.3352414065715555,-8.957631342107216,-0.9852663911027496,6.339838619146464,3.956238561432887,8.725267702627658,3.8404256878834375,-10.089094014991536,-2.355385111665567,0.9811834228746236,5.7913609691134775,2.4418141182510222,15.998740525608117,-1.7490017785926708
-1.9508475078069312,-9.503440392534348,-0.1474702564849122,3.1556097045763747,1.7673438534068897,6.886677208622319,3.753085708409365,-4.233098229831074,-1.608748085254158,0.182458533805873,4.056696002271581,1.207818214422964,13.268550979578588,-1.21632200351319
-2.585263609530396,-8.426895633403527,1.5014085609394443,-1.36093004629784,-0.0108558839740797,4.701286831128777,4.867914683139063,3.9644759364479296,2.4349352333250867,0.0924435288809486,6.740779246897348,0.6913622373914067,12.096778275619528,0.1838409369863758
-2.156490211817203,-5.192692566233852,3.7592052585466975,-4.945569092989025,-3.734851312272683,0.1579408160695016,4.790770323125631,10.401182264289124,6.812584721015193,0.2274940002656883,11.032955518986162,1.5424439965722667,11.945295087677335,2.97266982802886
0.2604835795024552,-0.8482226261142234,5.526851808329144,-3.908177387819357,-7.34011621369457,-3.4566272166822403,3.3070479676070663,11.58087601262283,8.295295321337841,0.5237046371840433,12.693558894714508,2.9450988402511245,12.3011816719025,5.481851236009124
5.588814358142142,2.793072369221124,5.747360774834996,-0.3506325341189717,-5.379350994603323,-2.27827075833297,1.342881623991948,7.234006547571825,4.876165494630523,0.9405960748155504,10.21090930195899,3.4204411779992823,12.822466617732726,7.721371249137469
8.452636951599187,4.698034014491114,4.380808223259223,1.0977232751171777,-1.2125298377546965,-2.199772204095896,-2.546630360424936,0.3035252257551927,-1.8782711727405497,-0.1048701540297306,3.2136190841832417,2.194749311496217,12.952487312804989,9.279070617472032
9.057725269249405,5.500185936333958,2.546805440009374,0.6728792939668936,6.047711013009304,-2.529157181536253,-6.580642330973302,-5.587664725283979,-9.191100711819882,-2.6622186956363114,-5.074473138651577,-0.1001134554021686,12.022268984639464,9.673840323600842
8.435002625087831,6.838084725773631,1.7237554092060878,-1.4093875150740636,11.20694560930298,-1.964796829275382,-7.0601588309773,-8.730044118219624,-11.833605337847096,-4.471256663047178,-10.442170454269563,-1.93358674247022,10.015476052236483,7.694280074992682
5.341212546582733,9.674288960253858,2.664802447301708,-2.4564853672461107,7.396078456130362,-2.345080344673488,-4.446356322253821,-9.739886273668034,-7.36856295031572,-3.386382564170604,-11.712412946646849,-2.0869047887378707,7.958644708383716,2.8260579541287867
4.924721295793354,13.14548981425123,4.832276854222448,0.8779837588654478,0.5947209678143732,-1.379342468932213,-1.8222209087273369,-9.982668853001297,-0.3757737934856305,1.1496215040075195,-8.649928753194619,-0.5932189007579531,7.029968450967455,0.7346816241476726
7.305270028759982,15.077343612186876,6.701283356392058,5.739092357326637,-7.565192844087873,1.643479779404471,1.4829289950926812,-10.114665047518988,8.085849149971647,8.698235123220336,-4.42181209351439,1.2252756111850749,6.988976075585288,1.3477556967069615
7.185252361441121,13.772785535124632,6.715985892590081,7.879241483281136,-11.173223772968145,3.561332233990892,3.2904373509558016,-10.21265715875308,12.597065262511377,12.977329468072034,-2.62570710143093,1.5793021665603095,5.675409693797032,1.4324022365229354
5.475809081934337,9.492202105882416,4.339438131460525,5.9014699701981375,-5.601872654279202,3.2286036241346805,2.2887380169550124,-10.734890864571112,9.107261101458676,9.817601181803036,-5.5446081915650645,-0.6254683968265033,0.5804118773814047,2.1814163112227365
2.101794337852371,4.329951481574229,0.5697069414548892,-0.5850755412109132,0.9992334356554902,1.454142677203878,1.9214067860961868,-12.527075621008551,2.006461940522924,1.1591038034773014,-13.839690631187098,-4.941339926031459,-8.598574634639998,-1.8476892315514644
-3.9065908675925054,0.6590232388086168,-2.4997079638298203,-7.366417864773643,6.284233729619924,-1.7738006413846463,0.9171195590394784,-15.512014560004248,-7.214218801452906,-10.709921102978091,-22.350926068263348,-9.39093581691366,-18.8087583724974,-11.445740928134288
-4.929119222084131,-0.4603569336204831,-2.976608950038184,-8.31125704561049,6.54770325541034,-3.662431353134375,-0.7710844124692101,-17.760929887607368,-12.286155109352388,-16.116215628511753,-25.230581677020787,-11.520037776744974,-25.31058670726609,-14.663664643344188
-0.7137212932632908,0.3536043448763246,-0.5514240219642763,-4.410031178430095,0.8603574770491824,-2.285714178045887,-0.916264609151633,-16.62525406760532,-8.773539283349077,-10.935296007472823,-19.867425745674108,-10.013375871711034,-25.08073721823518,-12.195589216193502
1.5036034600009731,1.698079204726116,3.1048650961911606,-0.2137406700320778,-1.9915874679236505,0.0597829693356889,-0.4653058075190637,-11.270070104061231,-1.9595016978037825,-2.97211934794844,-9.071478723363011,-5.782260036525748,-19.16863018035576,-8.465536628213336
3.2164633986786404,2.5297512071845447,5.435286409855909,1.5841875848715514,-2.172639524817516,1.8889082782494664,-0.0363665179207622,-3.98170009267808,4.751355813653783,4.709122546553514,0.6879778821734259,-1.517891721549118,-11.95378287967672,-1.0066121020780432
2.2743382019229283,2.6260703070073736,4.908622670585598,-0.2160540375749803,-0.2852266406715331,1.9216034473050572,0.5005826197523411,1.4717592364212997,7.21303046946896,7.03630408271349,3.354371865819746,0.2278411176201731,-7.826593434746784,0.5537292666718108
-2.7120805616537447,2.3058962226369277,2.241983822351448,-3.026791023174264,3.4316320650237238,-0.0667877429814922,0.1923428404478815,3.1042210250126785,3.045517247085421,1.7561495481077434,-1.348082557850741,-0.9601916092843904,-7.990852902850701,-4.6424390959120565
-3.769015453460727,1.9856371534678252,-0.1661296609693812,-1.490784856980573,1.4223195232187535,-1.3117435966229145,-0.7766464332406694,2.405354899669208,-1.2650230503976705,-0.7605817257140065,-6.604308014218969,-3.003550473815614,-9.976350996435032,-5.399522574147444
-1.40310326741469,1.96285434602502,-0.2344014833870733,4.134577807508714,-2.570626226635988,-0.4767535142421448,-0.3563694070868901,2.728654714418142,-1.6916416045949056,1.336311282301737,-7.50635217605586,-3.081516593155577,-10.150403453070522,-3.6437362485095206
0.0268630021959517,2.3001530182673355,2.012659744989059,8.09404434303561,-3.699976635613912,1.3949305761708122,1.0921186317974396,5.966510177890112,0.3539304404699014,3.6307198388187474,-3.0211758832624898,-0.0907409779579944,-6.998543468470867,-0.9858934054675637
1.9578882487105005,2.6218991615271547,4.4155924839591,7.360033199696565,-3.0685219860810014,2.601158948577876,2.073737807802366,10.795590307293612,3.4772963654351785,5.635229365477594,3.61368875847074,4.334247214318148,-2.360422411897298,4.413154056961765
1.2960441406621943,2.0794371873977027,4.489984600982752,2.3341587758341458,1.819308902013002,1.5247096822862851,2.0918660992819977,14.114314641384748,4.314317628166525,3.9933332442997993,8.514825818723622,7.188963760842511,0.3663758605722851,5.122600294096959
-2.704533700091208,-0.0816374628808582,1.559763119711563,-5.186359685630054,6.106999520992607,-1.3271993601398089,-0.0319280125559442,14.111713008945166,0.216997187986952,-1.857592623239746,9.854521082491848,6.684945638344636,-0.6049691795469778,0.8856897706376001
-4.345739035367949,-3.5420171477715727,-2.609241944026117,-8.82928954329366,5.27716215681005,-3.3937896920549924,-2.7537662715894573,11.958259553394848,-4.558101416089112,-5.483377408555638,7.552248785118155,3.790579439473332,-3.739654882189144,-0.7207272073897284
-4.268921344146237,-6.527150139193244,-5.22946019067804,-5.597470710847279,1.6206075766544812,-2.820843963291632,-3.273698906972632,10.653261979066484,-5.815634587520971,-4.412400246313544,5.995927988514524,1.4057873967279235,-5.460165707537492,-1.064679893325828
-2.806182493774747,-6.885913991527215,-4.772638408852383,-0.496504291783427,-1.7766792487059386,-0.1688967417079685,-1.163941297584332,12.29808390300074,-2.7195215579778758,-1.0931486957552683,6.904094339114521,1.9285292955569224,-3.332732466021608,1.2748176296213394
1.2078615540390187,-4.105448187389202,-2.2024239230922342,4.79262142319599,-2.0411121013321623,2.662399417856042,2.54226568303539,16.29489369215368,4.422509289711926,4.126748974651572,8.506876361740433,5.292216645498546,1.5749436199826743,7.779076990557672
0.5904861256158787,-0.4197543858929178,-0.1606301363841482,7.123713829675258,-0.4114722264927016,3.443485405108156,4.622734416251155,19.83588909823765,9.181772805981124,6.614991278560497,9.173162497244702,9.021624835367572,5.2095305490549055,8.097032517147712
-4.855715257752951,0.4449250120652568,-0.8277656168783905,3.449009742978933,0.2091264708334809,1.4177316435951193,2.7671884495511065,19.99371203187392,6.493382614092009,2.878357664699128,5.600897548508043,10.102912857040156,3.5735826112740927,2.344066139200476
-12.0660190870412,-3.7745889398470376,-4.2238082693022765,-1.902890517247668,-2.114229282001131,-1.7759529882906937,-1.8347273396549448,15.672244947257038,-1.6878708320154,-3.4673604232143247,-2.197298629856939,7.093338746307987,-4.116178071092256,-5.870303276997964
-22.80039384239907,-11.750103172929204,-8.260847483640115,-7.250855206867829,-8.186361416201365,-4.589587623575289,-7.01039314124888,8.181972633072,-12.613287495428354,-11.434002931172731,-11.249374252319754,0.9538260012947448,-14.62362492676256,-18.946506979827397
-25.96613679800691,-19.33336450214353,-10.386536199341975,-9.544282501819753,-10.919417832343006,-5.210114504849562,-8.466453202436929,0.379618995309213,-17.13431826674403,-14.450999971182949,-14.922189548516863,-5.736792376201566,-22.80470528919536,-22.867018865456988
-20.57393185268266,-22.701961416861987,-9.448776854557776,-5.702814904910395,-5.839014190329259,-3.143646927917243,-4.370664121922955,-4.895483053870961,-9.393306484542764,-7.338082440300392,-10.126185802690184,-10.369196195767394,-24.92651685263628,-16.539411791197196
-14.626059849863312,-21.10660095418159,-6.388658742368204,0.1014052916338532,1.0443159642253006,-0.1472761139689998,0.6741784045490375,-6.21102854162674,1.2349809958538656,1.0488591267593903,-5.358953541993275,-11.576583107201923,-20.67269711819717,-9.037045039967976
-5.348811779665373,-16.85963149276398,-3.385928809478102,5.735600489923707,10.710282654137066,3.062799289578241,5.402446657913092,-4.097832116793484,12.072834267800754,10.121652179747247,-1.3787356752938011,-9.584687891354154,-12.542736212325153,3.1539905614772894
-1.484535465332348,-12.900575692970367,-2.222441088526872,8.219600713510241,15.45857282661827,4.874981645919805,7.471926851729066,-0.4999262951617436,16.696564317552145,14.300855546776427,1.7316617752690284,-5.728115963926717,-3.536682503198559,8.64898614528755
-4.552171248784014,-10.505298525120788,-3.0711208671842174,5.720016509139508,8.857438733027864,4.341145337496839,4.9725175048869605,2.574670862035002,9.240889479828745,7.776201447859743,0.791480864338018,-1.606606649226126,4.722028281236652,5.783233222989582
-5.161084699016459,-9.224009833366756,-4.491902490322312,3.4150227417079018,2.746704549871391,3.474383377138213,3.0929864253552277,4.309944285075502,1.8811957627238631,2.90565193830455,6.260387341090378,1.6409829756920242,11.97702724389135,4.135841444080654
-5.537681614723672,-8.584316879020767,-4.552097823785837,3.552182456635059,-4.855264844856543,3.413538893492132,2.2298224098425607,5.295955897026981,-3.8159874506737808,-0.3735173402979702,17.559727575578,3.6503092974466114,17.95066427776424,0.7089135495025112
-4.819939682641119,-9.261196884676805,-2.267876641406484,4.176820337274408,-9.60751991963014,3.189306781138059,0.8658837882693111,6.527280402234887,-7.031158491267773,-2.561690680143033,22.90624833114628,4.676388163022848,21.411087400541952,-0.3912983061335004
-1.6225098149906938,-12.220795746588577,1.6263533618541413,3.8415969921930615,-4.856199846676375,2.272940907079895,-0.205264040199697,8.096057765492986,-4.626769528749502,-1.26739542783785,23.36679953387984,5.152707717331694,20.93957374364107,2.1606876670139763
-0.4343319799157213,-16.801558883741734,5.128078438509684,0.9677051186133088,-1.33184806185574,0.6167470428689321,-1.368258919062331,8.841811745563845,-1.705184466033071,-2.1420054132684934,19.56397858236349,5.302422973541174,16.71452239081951,3.354212442384891
-0.7877638387340564,-20.076956214885616,6.34824648478184,-6.068120431262129,2.88784976134708,-4.021756430187154,-3.838523431699528,7.35033637435671,0.1988247435725987,-5.334546189577599,11.465747926791764,5.073381942099838,11.3293747754541,4.444354359797487
0.640632903263455,-18.63321218729333,4.845311351826604,-10.92717622738934,5.62259871057731,-8.036345435274889,-4.812852234589848,3.365519089868532,1.425975282615496,-6.636946923805674,6.826277681888693,4.381674063931886,8.390685939466161,4.545148160016055
3.263178185428524,-11.365369293830346,1.9249773383830957,-9.29947360442264,1.3700361316708551,-7.710201404244866,-2.94670858888613,-1.7768363890436445,1.8086049585315247,-3.7886598720763054,6.63135782695976,3.3674603781825136,9.794396763335277,2.935515406609808
6.62530348726087,-0.6905335785787852,-0.314995690414666,-6.2784896468157205,-2.08153037167458,-6.1916441406515546,-2.3472212471974387,-6.135195879821519,0.816798639021291,1.3312620235375912,5.0865556532107234,2.378209533737997,14.05387455488241,2.8946642996252625
11.299564585976135,9.062105761311742,-0.4441538486735692,-1.6383211078137123,-6.204760057061606,-2.003711759691358,-0.7730606216912139,-8.61038169311869,0.4721909005692409,8.795642682183491,0.8538658633407487,1.7018883669922942,17.318233877251487,4.157885678571271
13.724553378551514,14.764885459367177,1.4550380174926412,1.6739332469670871,-8.264074938892328,2.703803481313296,0.9088541972202328,-9.490374367244076,0.7003340710502354,12.320664116520817,-3.426840501335041,1.3535021522554662,16.352513651425852,5.381503328952432
13.705589443715429,16.485736101517773,4.109219540291508,0.1456004909609172,-3.457582372959803,3.5319112372312658,0.5006257905787268,-9.720678752708809,1.310250207737764,8.318611959233257,-7.753751670193377,1.1539481850032371,10.956191964777178,7.16365858040753
14.35498148866556,16.834095743873526,6.113346322520373,0.8443427272169732,0.6033471988591409,2.8541239195129204,1.548401906845306,-9.830113669466693,2.0513795180152528,1.2943562102220318,-11.011461238127549,0.9934247397665312,3.775923403465754,6.086172285872628
14.908575555834044,18.449219511213208,6.781635885026045,4.709810654462771,5.64860729057087,2.3241740386999097,2.109381910877262,-9.665382660570849,0.8177383224679193,-8.217180529959121,-10.201781753559052,0.9378128095953764,-2.18584334628414,1.7489517297617516
14.186925609377951,21.82906196690235,6.216186322823351,6.92074847746736,8.496848397674857,1.460549929147415,1.556685100011777,-9.055108760581218,-0.6858663236770914,-12.066443859220664,-8.231426337854447,1.0235640171597105,-6.0181767033141895,-0.94818829003677
12.497587354849736,25.12084997980136,4.834058263342064,7.065101364579918,4.49924967305788,1.4194917813059242,1.4763979165642642,-8.441707382683049,-2.4828051774154782,-7.599900140277653,-7.458649097569417,0.9995589513960406,-9.10320893953745,-2.661178096359428
9.09204738493293,25.727874173889667,3.008570563521999,4.554809791503472,2.472676621100684,2.9341208026554897,0.5470675667063597,-8.597660747940482,-5.041360516363827,-3.428644915188199,-8.833331783454806,0.418706008372367,-13.050269865320937,-2.779294997533642
3.7024058039931296,22.271698129304887,1.131954234700519,-1.3386250039153973,-0.0004416188239283,2.159947566367714,-0.0098795089977412,-9.66147783302884,-6.356978894646038,0.7298052157700702,-12.886819325227233,-0.8825820504539719,-17.50042738755936,-0.2566277281022608
1.216462707406508,15.514460573065335,-0.2302177165421319,-4.812169044109321,-2.198981712285962,-0.0474745712627003,0.1471760706600563,-10.605348663053302,-5.502781889478364,2.357984517705636,-16.159814898555467,-2.392600838170797,-20.03517460582949,0.2347031121704119
1.7885478274824762,7.870023172547766,-0.5684809265920965,-2.6946739695065816,-0.0515362656288711,-1.215143484282505,-0.2707661984814287,-9.87783599592922,-3.1387780038913826,-0.6500920135160666,-15.003558608521685,-3.149978998645124,-18.359889329676907,-1.048414461695928
0.9934257358494838,2.0801409001934514,0.0184176143112244,-0.9115642182103773,-1.0698120518883685,-2.705009461039864,-0.1118278286793499,-6.739442644699288,1.4055771892650817,0.5705754866848546,-9.478907427301806,-2.5436317230993053,-12.682369701353426,-2.062087967224412
-0.1765249955550345,-0.1008540149300483,0.6002866238129556,-0.0281068100856913,-2.6692846714546064,-1.7819764549583887,-0.5002935227234735,-2.042061457774361,7.350754315891706,4.525997697335584,-2.1638047641894014,-0.9901525561356834,-5.9435783087219445,-3.712942625526308
-0.7810029174873552,1.3816237908479856,0.0368350379659769,0.1941787686013753,-2.441692069544348,0.638672688210533,-1.3586951234354112,2.295769660509766,8.968421589688965,5.335131961392121,3.148175970942999,0.2271825336893549,-1.5609617589274851,-3.3750106280455983
-1.3924564173260547,5.0150022731686725,-1.9113556822888624,-2.030427229271889,-3.1916102509956885,0.9523144812800186,-1.0185923030712538,4.6435300448439865,6.110302474846764,4.391416048261502,3.307021328846435,-0.0556012107068317,-0.6992978119407489,-0.709465535886284
0.2608694042983928,8.612164514808434,-4.047222252415986,-2.582440886611509,-1.5222859098340746,-0.0329334776505867,-0.9599805305945192,4.674795550690711,2.8965703242560608,0.8870725842032486,3.5058354236105886,-1.876949462412865,-1.5357492159823387,1.3375458480182636
4.395948914958258,10.514593847380894,-4.507289455029428,-0.409784241950639,0.4356667350695983,-2.491167083668536,-0.1392838849478584,3.3220632152455742,-2.08010831047208,-4.501871964941937,6.835453464036166,-4.003725639497808,-1.110612228528549,3.3515135296612715
6.393336290677002,10.392084435378283,-2.349409069575719,1.5675666093932223,0.6376044809367809,-4.19660584652871,1.2192320255095794,1.946480633395001,-4.865632664779175,-6.078969751171193,9.770788768308057,-4.7923412949256585,2.0170700045915524,4.876521109282512
6.512722178027073,9.11276244616316,1.4585617823845478,2.307688091705243,0.727231609296205,-2.4056841700682323,1.472842106382119,1.514121788976535,-2.9736857759358486,-3.828935127873755,13.870274110340477,-3.358433769290081,6.718360490129946,5.388062919035948
7.578545645241424,7.839286252989236,4.661722478863027,2.26566099624842,-0.3573650495567285,0.8037366049689332,1.2979650257814608,2.2575012374746883,-1.949679577521939,-1.3406165352132116,16.233020069407218,-0.1576261005954169,10.62415325377799,7.561954844032302
8.742779222842517,7.13530842984806,5.497706353796155,1.797168073882952,-0.6970912617830438,4.496548957905507,0.411708756565429,3.7261524660672887,-0.1783633535609904,2.1013899972245413,14.50283263720188,3.3704661482714755,12.375293290494067,11.273420416224456
9.38014852179826,6.783742383916406,4.052293089942562,0.7060944301731238,0.1163867236316186,5.6458374561457,-0.5781829913282436,4.979843556242038,2.1859393373395277,4.640277143478431,12.802701632485496,5.716913076418649,12.620820914522067,12.506095178864864
9.74750103220844,6.275888339453026,1.9778207595748167,-0.2123081903152122,0.9300758049024904,2.612499716971458,-0.7929151031288415,4.937338518751163,1.6355019888426725,4.474082420105511,9.805282665736168,6.097976472424956,12.962680451095036,11.502473677380474
8.020446723355438,5.326452831297063,0.9036401130886612,-1.1311128678444853,3.186652958474282,-0.315275322774501,-0.722468139538804,2.982799986807611,0.4127708866152534,3.473224896939264,5.49395670483,4.695442400731471,14.071763807659153,8.636366982424729
3.943140984738755,3.948551261196169,1.0760733322842295,-4.2347496003390255,4.993028672740552,-3.1491641118537346,-0.8748314488654593,-0.4265345895616903,-1.248850594521419,1.1913569049284414,0.1674774553442934,2.35533682173014,14.9274035371439,2.951279081946375
2.7438885149861965,2.2855183815585463,1.458189960090543,-5.622751498117909,4.562527707053982,-3.9337793307321673,-1.102505091370768,-3.762547203330202,-3.072073043998389,-2.098754041259549,-4.330081771757253,0.0503797277448292,13.934813294324757,0.3829350831543227
4.31457393660286,0.6435149934057947,1.0438539202025208,-2.598180304658974,2.480012682146996,-1.1351079531811,-1.274011781181318,-5.346482600162794,-2.0771351727917624,-2.864836349624105,-4.866631305487096,-1.5582851348284876,10.76971541224945,1.1128835621207678
7.190468085217878,-0.319499518608989,-0.0137939605785799,0.4464572654285185,-1.5371425286090423,0.2831300826277545,-0.3894484984087736,-4.625786745974608,0.491367043366908,-1.397255739025969,-3.472217556618723,-2.26741488744724,7.0314537263867685,2.205819861248509
12.61514399506576,0.1998763619397685,-0.5811059018654099,6.557020370763055,-6.25561743338033,1.7911433084660713,2.1217594271142906,-2.691244653554524,3.253232523203078,0.4545062069263087,0.4810727627914964,-2.205450061514604,4.908065111994226,5.085521346795066
13.974819646007946,2.323540093070603,0.214377108726973,10.336969762030789,-7.623209597835383,2.6908133453529377,3.6868908104468994,-1.424489391547178,4.7750830458179605,2.700484971061516,4.606396503761631,-1.6218588334397115,5.029450080416716,6.498083040410773
10.881804631469093,4.7588678225311565,1.9753380497352264,5.441245289654948,-4.976746891165196,0.545437796051774,2.9174003736094924,-1.8967898993504055,2.681532561352219,2.149462993135783,4.767582958397821,-0.787260180184056,5.622614471211662,6.104910054954984
6.962790826698843,5.232595403688043,3.291594181922802,-0.0888453618304438,-1.4156238669698402,-0.6786176034288508,0.4795804971485949,-3.406003030777402,-1.4102997698856043,-2.6041385000492223,1.3998335391238703,-0.0194332415772677,4.01643080435464,5.505956970155145
0.5704478597687138,2.209457013147265,3.0335079755139933,-9.163751558175466,2.943964658024369,-2.737223575896813,-3.789848930883213,-4.026839437447112,-5.998429659644473,-6.79655998582175,-3.3609275185143925,0.3466686962207319,-0.6591944177881288,3.82480510647206
-2.683789685613714,-3.448029390788399,1.4495642301111822,-15.08912246629412,4.999101977759465,-4.278529217219764,-6.088931154662358,-2.209947587230049,-7.920153602181928,-7.626503979052048,-6.339950584951248,0.1847692015844035,-6.043725872806556,3.082072025930692
-2.1615481969181825,-8.571951392573386,0.0298142036286943,-9.551135120832948,2.7949523568644525,-2.23782701115948,-3.845716633884956,1.93626235120912,-5.096967448318174,-4.590756342103511,-4.502638644666073,-0.1594932543661116,-7.94811472766262,3.419480979608289
-1.8695239566825868,-9.837864833232086,0.2454456321709894,-2.013852669573246,0.6116554464141233,-0.4271316158724384,-0.417197004048814,6.698014505512127,0.1304114613297611,2.384581711851877,2.028066951042929,0.0551415973995936,-3.6945734067131006,5.085085820337964
-0.356495438722932,-6.363594328282648,2.279107442401324,9.658610355345203,-1.8478379734122223,2.268732416290093,3.7554801897335226,9.97675618180448,6.378415151743665,8.248373946066971,8.593072606162934,1.3935266837587328,5.345406513487863,8.712192161367865
-0.6631617111031591,-0.5827801926340515,4.825495521323457,16.832756504499958,-3.268766738387174,3.915323627472713,5.803398653008065,10.615721093054583,8.836066832003866,8.128108491434867,10.870183873376703,3.574271927371948,14.269512369467934,9.401432527458567
-3.3702833547241204,3.404764183206851,6.070484822654973,10.303415521776447,-1.016574630770106,2.0839766705274734,3.1770606428979744,8.873332161051806,5.498267121776997,3.67179606704526,7.193923358880359,5.398369339160879,17.985405932874954,7.0858596109809415
-6.961667131580197,2.7293676028817475,4.982481055307924,2.0683039267574377,1.98755774202927,1.6708932670459269,0.3572365328433657,5.913793090799983,1.0569866766256135,-1.166647736657561,2.8183978271459678,5.554085657650847,14.789022126610728,2.477100686426143
-12.399351592108102,-2.3184697429071752,1.911152638210181,-9.122458205767886,5.382779149506294,1.6290051749507206,-1.9173913806711564,2.922215692369777,-3.657857069577772,-4.08437673893391,1.3848142978286155,3.71588178099068,7.410412877168431,-5.736071619884527
-15.043434811779951,-8.652996473287843,-1.8146788272839196,-15.820778095142462,6.809113085321123,1.3483231588431823,-2.8025467180263117,0.543410308660456,-5.671998172960124,-3.2236897921690755,1.5064085901557416,0.9199254613775496,0.8417170661203501,-9.667551121451451
-14.566072966690008,-12.587578869011791,-4.800128828729767,-8.768415555273913,3.681504601659198,1.8304095234931623,-0.8947489506264323,-1.109994220594531,-3.117475542836583,-0.7750047258441106,4.40210039590932,-1.2379886282623032,-1.2211640622011188,-9.056745987264696
-11.638667553505774,-12.181935540798538,-6.299541114274346,-1.9193016010752035,-0.3406105729914744,-0.3949494375320875,0.0790654728065257,-2.138455120301201,-0.5746760327450282,0.2232144606584822,4.51559337349231,-1.926277216825202,1.3741926099327084,-6.805546875764702
-4.885015735750329,-8.20570365279313,-6.397611222785906,5.01173064361778,-4.498349071299562,-3.768982058120166,-0.0791950277844195,-2.6351867663802,1.5764723381261958,-0.1819074622656902,0.3909750173980146,-1.7064703738045712,5.6955926379342126,-0.91043267790846
-3.116663895465637,-3.316404824380541,-5.766715742638114,10.13979435278062,-6.22784282931279,-4.863546145156549,0.0838929527965632,-2.7348488197939136,2.9760017563535217,-1.1276540784626488,-3.648403934155741,-1.879577621427168,8.11574284002295,-0.3714998574578751
-6.629109082405992,-0.2450471158476039,-5.241477991480307,6.591691728324026,-3.8932020303395847,-3.660189131874729,0.0858766000241919,-2.7501363803931334,1.9947788188478088,-0.7946554365026083,-9.621994734801312,-3.200103162125836,6.633861814546907,-5.775143863662548
-11.581714848362704,-0.2672784426886068,-5.368734478487605,4.77621766737529,-2.7293479091032755,-0.5600515491761424,0.7921263958428216,-3.1027251525829795,0.5199984740351233,1.1664781930986292,-15.277556564922987,-5.214776398125405,1.6028693122948183,-11.962460050183015
-20.15809838454728,-2.851480056757431,-6.101139837833838,5.583448599817051,-2.788730320285444,2.7687400605554133,1.971503621086976,-4.0034994279974025,-0.752810651058659,4.105411397458287,-20.673721173782912,-6.825484867213176,-5.200291031736246,-21.171359242668554
-23.416942143912376,-6.479643787816474,-6.876547405486222,4.457550940070662,-2.532737639745001,3.56616024966213,1.6719641353451689,-5.195468701013224,-1.782806335057404,5.636951701707112,-25.24046075679286,-7.437115007164516,-12.072669083934676,-24.797214480235485
-20.618682043104887,-9.871413914001568,-7.159612937304088,3.2885546664604464,-2.0306787646654687,1.88833484199901,0.2717413278090919,-6.114818044511107,-1.00345097394892,4.782171603505342,-25.999812502128307,-7.499035667918264,-18.28031065970898,-21.80937994257095
-18.725341293517005,-12.6977534793441,-7.057221946575623,0.1894001505683029,0.901960139871148,-0.2352008635817187,-0.537201265200905,-6.413585192071297,0.5171177753216083,1.0727224607845751,-26.177493873753164,-7.933371786987645,-23.92969274744132,-20.73106328719818
-15.622035381982537,-15.38583346142594,-7.356786722321481,-6.570361077790439,5.603051435655848,-1.5510283463356245,-1.1126988301387577,-6.324330630920697,1.4169068854973712,-4.955729590176114,-25.26235477790958,-9.101513175872268,-29.22370910986244,-19.539080014991573
-15.733626815241012,-18.35781852372238,-8.766138731812951,-10.410919499546894,6.927314628473769,-1.4146903076766808,-0.903762045854145,-6.402921077613539,1.6316724606814457,-8.101207925865177,-23.61790523236504,-10.392743820091564,-33.83758704969728,-20.19382625426998
-20.229851524388167,-21.42885360454723,-11.007623604613832,-8.977792603672071,3.9291662939957086,-0.3801077032333907,-0.3105245586447273,-6.817823645383565,0.1964711325685198,-7.033156279017293,-22.365022515680128,-10.82364614221301,-36.90819409503468,-24.088556307769867
-22.321993086814548,-23.855730371243688,-12.772135383213296,-7.957922727955078,0.7432526000654365,0.4067489970813278,-1.6099272821401618,-6.923459728163152,-2.0876819230662504,-3.707683154710983,-20.36816803995847,-9.99238310769554,-37.610797607610365,-23.23810254149705
-23.12334864333305,-24.92050880142575,-12.781814485286096,-5.819251883080407,-2.4532555916833,0.3174361757782057,-3.482354663286657,-5.66621461609113,-3.5686717644908628,1.433091184222929,-16.533569954156015,-8.41211509392402,-35.86482179986218,-18.072444647357347
-21.460240318953414,-24.481119518859597,-10.993504926803505,-2.912988416306291,-2.789896575416304,-0.2086981269403169,-4.202151968725263,-2.5288519430692524,-3.340486812409391,4.497649379788596,-12.279484354067735,-6.918259912279829,-32.60712109170393,-14.459872174645726
-15.99478444516094,-22.984161436887103,-8.64954839392082,-1.594317855604491,0.4633870016511834,-0.7349993998564857,-3.714484845849962,1.882190971610461,-1.5942165815872156,2.8989773849961957,-10.036577965532585,-5.779662948087923,-29.34976462729072,-11.0720187590971
-11.779551732283362,-20.94842358250721,-6.991196179272958,2.123367982877016,0.0804240022343638,-0.8548745813323271,-0.4196406663317985,6.176633198463584,0.962837232582421,0.6799659149456799,-7.351878999863186,-4.418504175949824,-27.25027874350636,-10.26959622969319
-8.293290417287892,-18.4322561743058,-5.915704265921413,8.349973311218388,-2.449030861569627,-0.2531080250926091,4.074165943075853,9.092452564335687,3.530712578399484,-0.5969080082845248,-5.452437227331695,-2.033902519035376,-26.320905337196727,-13.205200983099886
-5.192559690633372,-15.032181563671706,-4.052560060220932,11.027517635886731,-3.767096390013803,0.6207675846343709,6.296458543735454,10.12391946905942,3.905034731703688,-1.1919183333809178,-4.2304162510141445,1.4556850578695038,-25.376012694472635,-12.449719421250816
-3.5016144982331063,-10.45765184099411,-0.2955206295566661,9.273431503151151,-3.755878907726445,1.5370765109314244,6.106991712749207,9.453151693366054,2.292930181467585,0.5750631093283166,-0.1234333648619277,5.066124183922051,-22.82735930985169,-8.49745607085325
-0.8140826336451801,-5.124908545955581,4.766489080990558,7.005979154583809,0.6483097213564613,2.11156221651093,4.073549300547491,7.567316598566633,0.7900432462150152,2.9704205982184764,6.577000522529456,7.392579081162522,-17.824691743668566,-3.9732378887923288
2.6539546371385625,-0.1225894839327637,9.076944343908323,2.653127657866186,6.728807808703391,2.0769628041594714,1.629883554135845,5.118191702715146,-1.152289707060434,3.093575570651187,14.84981360238874,7.732110988213197,-10.973128992680568,2.6034355506434035
2.963938605290012,3.5184907560544474,10.864433617291107,-1.0666900091542395,8.156132210870135,1.0768106425887902,-0.0641160954873363,2.9921645552796257,-2.074667079526181,1.5948630918788609,20.037529177678145,6.679822915547987,-4.141402276870931,4.173850676657101
0.2156674350514201,5.592988199968815,10.172287196802271,-1.5872132406940964,4.018170703618671,-0.2277763967053698,-0.5242009365563925,2.075152401062933,-1.1993819120846565,-0.9112130479475636,19.28268925340028,5.604678833643451,0.5287500452384677,0.0962018175712962
-1.990812187442449,6.768882866031412,8.617631681069994,-3.080187371972549,-1.4393405729741813,-0.7882870993182538,-0.3998575579585597,2.5546579719798608,-0.4979227019716619,-2.7010023933447167,15.183006894963547,5.415664568675151,1.827966831642076,-2.660593079961831
-4.34365669906809,7.864288248469698,7.662171442482737,-5.130235503822976,-6.541471247017077,-1.3146984841250449,-2.01822218919981,3.4129320474718483,0.4905457758666202,-2.301676983171954,8.383092899682033,5.732769643385328,0.2200486491396738,-5.658783779844526
-3.0819797589296565,9.113760781949516,7.206642143121293,-5.252206156231241,-7.858308186442931,-1.1495063581838043,-3.196932865368393,2.912963216632807,0.9852997733580564,-0.5847581064004328,1.9460777534614155,5.274590376835526,-2.311843685650377,-5.215769776929712
2.80410536285947,10.203107771311169,5.947615648375745,-4.536832776923109,-3.637375094241176,-0.7058327075655906,-3.25319831152534,-0.0477046292767298,0.0941735022548691,1.20563107142688,-0.9557746412303668,3.156391046585981,-3.320351507918147,0.0834010433585208
6.312942871727096,10.997624755942333,3.0705606111182213,-4.670507801852606,0.367930269317443,-1.7526128881402665,-4.71569913765608,-4.8928255073042095,-0.4816553421165704,1.2679778007292444,-4.307125415102172,-0.1098853026207429,-1.373733045604947,2.839770345225101
8.323972460211543,12.071205717269637,-0.5378248889437636,-3.954716096595283,4.457634217348404,-2.0028322091990125,-3.953424384278329,-9.70766247478033,-0.3770055245422968,0.7489222848196877,-8.739039383302439,-2.89802800612663,2.893417927767548,4.0607190400974975
10.39076267203405,14.300948056919472,-2.852970967719472,-2.954179186502641,7.2161748133134145,-0.9938583174051558,-1.3781421687269797,-12.71742335315233,0.6888212069030641,0.7555218744108028,-8.81868265178866,-3.812589329489573,6.9728415247130044,5.598321871166015
11.255640043063217,17.820707573894293,-2.5068953436336017,-2.1299462360780903,5.501177648483719,-0.0829804731166735,0.3520096788699856,-13.495206939067964,2.785403540658182,1.824109830538476,-8.801532255777706,-2.8466589613662023,8.049415680369524,6.2056962999678
13.88548708697622,21.42831116835612,-0.0304547846432434,1.1820607603809417,2.0863878328816314,1.6810876087919329,3.3877504527344597,-12.792426741558518,2.182414672264965,2.136317340091316,-12.204044968325835,-1.2756351050866854,5.029718581484325,7.23817662321312
18.34499284106877,23.21221498732602,2.635603527805213,5.097446010279752,-3.368226975852713,2.356049568482966,5.404198079652076,-11.366428389585671,-0.5070468160587311,0.314357650240099,-14.29988456061167,-0.4346903012207086,-0.4472015326611327,8.690413824539684
20.61054281261265,21.993342711551747,3.7994945648784153,6.676474037463548,-7.941425660390841,0.976952440794352,3.920102019851568,-9.216874460976054,-2.9021516742934077,-1.8916055668599816,-13.992398882034363,-0.5808773294714875,-4.907720026946208,9.6756638297335
21.079930644084985,18.33410333193537,3.233314469777053,6.269185159192508,-7.310358909970627,-0.076764346958585,1.4137303252444768,-6.07577029013607,-4.557815705507091,-4.185957693934014,-6.568935338134257,-0.8851777256753834,-5.265991204936594,10.422735686930858
21.608943342111363,14.19174281333603,1.9573388207744955,4.96511114468167,-3.305953157442646,-0.3339300809093636,-0.4886522819173715,-2.459270252903188,-2.851599353656015,-5.104102401712744,8.075181155945739,-0.429994911112928,-0.667073218898711,13.825584880817782
21.488879165487184,11.466082446418651,1.0985375217182032,3.6414301131170905,2.0680690702227613,-0.2846382364420764,-2.738871656197201,0.1605403629753841,-0.6391760987532215,-4.87837593673791,23.456605271417104,0.8759802267789887,7.428798911016006,20.063401350701135
21.99947292920559,10.624657423378206,1.0628578262894877,2.361072207194204,5.734058629748065,-0.1032999447820617,-3.2157740869005105,0.5670196792806106,-0.0665104332415818,-3.99152808889504,30.619778523956285,2.363371400323075,16.746340979125552,24.44417249101654
23.40753739600675,10.499643376439767,1.6147552971177586,1.133601000938352,4.755200800091031,-0.5088574527440375,-1.7060318606052982,-0.7497053665689553,-0.6131061320828257,-2.5977333357831145,26.66365800483925,3.4660897383273,25.764214133267387,27.41010151183838
24.21363130029124,9.385315246002794,2.371918807127784,-1.5993644020844746,0.4573272708864311,-1.4732334161474183,-1.27020192948611,-1.5531992866898872,-1.7188142935913264,-0.4339683589195595,22.830561288534287,4.382952128660522,34.00274458309583,28.29373387623096
24.74225361045621,6.546199917149142,2.999169664624461,-6.805836765942852,-2.3055871438490505,-1.345957262884098,0.4614215193709314,0.424679843333676,0.4238376359660539,4.34070988162216,22.73851754206108,5.808305812786847,41.14728480622679,25.969599096277506
24.94644097522029,2.946019252278643,3.1165874526439588,-8.449220492113433,-1.8544292683429,0.5383946265025109,2.4929758599718843,5.505286287039203,3.680673334673535,7.625188073825802,26.717540692020947,8.031065864429438,46.34567713105638,26.258215004179192
24.597758957426016,0.6223790812853522,2.4921303874685634,-5.244368950203364,0.6000062155125656,2.509335275020224,2.2463239486336946,11.723486970943686,5.095735797549957,7.550665301146765,33.31136795930459,10.394787156370334,48.70647975639295,28.94976646271544
23.62717087910872,1.1859406178242926,1.6273045450804684,-2.320530800060326,3.9561880255640647,2.953714089871511,2.1544166056478145,16.498264972607295,5.597916322571994,7.040230155185331,35.57376994971968,11.753157484052608,48.50779418612455,31.690256362871462
21.8990297069827,4.606496063142389,1.952286107379752,3.05093613220261,3.115861757446076,2.2290786624987837,1.2180184319219027,18.71744491419061,2.809383855770374,4.133796361041444,33.03204609580187,11.522679234579895,47.577525241255564,35.69997368183437
19.597078545621955,9.20151495593604,4.875010887415897,5.825074163413573,-1.2461223728669604,0.3412875891263627,-0.4306604438641512,19.25521275165348,-0.97560083135256,0.5224091796180788,29.6191027827571,10.287018898395246,47.97434759101543,34.66200729502965
16.63297732107921,12.749076243076129,10.182155892551505,2.120095213217488,-4.166808541154616,-1.2747823144439268,-0.7244462623507623,19.54820087806894,-2.0528129041367404,-1.0783307944190306,28.79997176218248,9.308265354225156,49.92911402614713,27.95161726525776
12.93392953203637,13.77346397687865,15.41886274961132,1.919758636252415,-3.981038046096387,-0.4513408913374251,-0.4398404150131134,19.81371603771971,-2.261006781396833,-2.764769357255573,29.719210674231423,9.359247924668647,51.090713752489165,20.68043419780408
8.487402293966438,12.072950848896944,17.327825674564398,1.2811357762723454,0.890327544565672,-0.5248054299887167,-0.4903147132781721,18.7840092050648,-2.3756324300098237,-5.19917808305934,29.777285680615524,9.960324096996866,48.15946349879155,11.30104861923138
3.976847776493189,8.390851160312629,14.435594300839773,-1.2683550725262878,5.7415609144198845,-1.6214569740463003,-0.7521219608309342,15.183906449024928,-2.0106362333645444,-5.96090077547219,26.86347734092946,9.738205038701215,39.728825755847375,4.972233299808272
-0.5590334002839203,3.8590702081378234,8.464227000376832,-0.6187396598784423,4.803122575104247,-2.053535942972448,-0.9919915891856466,9.347673641511903,-2.0747424058596837,-5.099455283147718,20.257208702400312,7.598340716446099,27.808585245333944,2.7487275102781488
-5.022221387695681,-0.2593476690180765,3.089968555238972,-2.5665870461098343,-0.9600451446107598,-3.5213188702172893,-1.3002689609237186,3.262609345282762,-2.470574212764664,-4.973189538839832,10.599495071852074,3.6931723963453074,16.52974420841256,-1.2775960091366871
-9.189261884887433,-2.67005946072409,1.027535666024626,-4.376245997910037,-9.09829886889977,-2.304851847254933,-0.7725276548863838,-1.0068127202958514,-0.8436982818846501,-2.712335756921992,0.8275527437069686,-0.6051821584420587,9.077422170461368,-5.736247625775929
-10.517229670059294,-2.4423846126402253,2.0445113442184635,-2.3099557580076278,-12.496491253028031,0.991565779762454,0.4288166096445382,-2.931148051512505,1.5517746073118288,0.5270678236524962,-4.144538049826076,-3.651140721863257,5.53076901654671,-8.79199633357644
-8.587636437634597,0.3331544426621242,3.630907020480869,-0.3356043387234245,-7.465241289657853,2.0322527471174694,1.4944447737472624,-3.6605084164083657,3.0833542028580663,2.3522202237484056,-6.328989935465453,-4.617229326877641,3.4042871694649506,-11.084406250463257
-6.535081933492895,4.302206273441342,3.5364364709390443,1.5016077565373456,0.678449581385646,2.20931110725607,1.4487150222131606,-4.757985447792517,2.827435725937868,3.7082968951208,-8.427540748976746,-3.948595044505261,0.1625056949793233,-12.79489769607015
-3.719369333027784,7.55706744940634,1.7406093662964397,2.805385458552321,8.615537815368896,0.5436892564139371,1.0442148345547415,-6.87438279632989,0.5041111306153183,3.3754030972537525,-10.440023105468777,-2.9386069090313214,-4.705229826543864,-13.72865199812515
-2.8135546226077444,8.896028669841428,0.1566014398786208,1.8239714041966617,11.133836834398018,-1.5474335802774646,0.761680724616454,-9.491020862311068,-1.2708112940487808,1.933190488667846,-14.520309922643094,-2.777030554045417,-9.767526050867914,-14.236898974980273
-4.588396805800152,8.51487970063426,0.5917135338480435,0.4848977458044687,7.20631094464749,-0.4167678899862466,-0.2830087586699374,-11.599978748605151,-1.3664736797053856,1.464083502163522,-18.63481160143017,-3.7146545563944287,-13.419095240668192,-14.325030845542194
-4.639657785770133,7.447409917420195,2.9776968627477203,1.018649073096651,4.373517487087479,2.078498905181142,-1.0924546349542377,-12.405686492178262,0.2471523537838604,3.317689031312784,-20.76115709642372,-4.899039638056223,-15.439846304649322,-12.418414191795415
-3.674564502684646,6.309050966541577,5.393202163958755,2.1261022612131777,3.867906158249089,4.467536635938836,-3.0379299829390325,-11.507031907101291,1.7948412509464506,6.024177332842828,-21.398667333166703,-5.034076550956954,-17.01715696885013,-8.447685996754748
-3.229064386017892,4.6297945739548325,5.672602296139466,2.680469217573181,3.820387708923812,4.619654889570652,-4.507213399123384,-8.827580805141395,1.6019932379668638,6.852492902292261,-21.080455846956184,-3.445847453272293,-19.55890308319526,-6.317217419980173
-2.663638896869084,1.4646249950818202,3.1252321763328936,2.3919032624656538,3.982467435944814,1.5828785146341606,-3.137409128292469,-4.729545414790337,0.1035499606595978,4.858452942241999,-21.997691425003964,-0.7444330238730785,-23.57489777625439,-5.947523805785802
-2.148162009142171,-3.3647735318617435,-0.9693796180361716,-0.3897731692316165,0.3823802583452285,-1.458908221979108,-0.4652357142332025,-0.2130156368178575,-0.5251518485325298,0.3274116344244457,-23.047757531758123,1.531702894024761,-28.439989586468307,-4.443807578298097
-1.7991079787947823,-8.716464881472326,-4.315489258559964,-3.9060340024423215,-6.859694417310144,-3.75451019485112,4.258916224103088,3.2666373604193666,0.8683879218102973,-4.543442729400248,-24.082021382882377,2.0894925781020035,-32.86486139281563,-2.5556748555228634
-2.0780679572210445,-12.891417834242162,-5.19586408143752,-4.648057136779999,-10.432631027502582,-3.696124798213346,6.861644567850197,4.469397762713946,1.6159881650713042,-7.131823921382119,-24.552887418325565,0.8835723710478192,-35.518707881801944,-1.8296536771211047
-3.1172550465985847,-15.00155103405094,-3.607620450187042,-2.917150209755466,-9.385393381138291,-1.6327155627795868,4.6384863466799535,3.0199332943774664,0.3947687330495072,-7.629533328262962,-20.77157028888678,-0.9847583463623693,-35.55029010787791,-2.0361269841980163
-5.430333490861069,-15.61399536336937,-1.2472102288155469,-0.2657499157622306,-7.890631485200699,-1.8127127879218647,1.9878507656689488,-0.5087712904244768,-2.4198663621860206,-8.640988798127733,-15.202775469775489,-2.3954418715270407,-32.98983817320271,-3.5751722461685924
-9.280523828435555,-16.061409266648162,-0.3849142006827293,2.282097649044026,-5.320419771954387,-2.5919670631522127,-1.8273794775501824,-5.012163309217627,-7.101325510949063,-12.152062983112922,-8.993075138942656,-3.255311686987554,-28.830636442345217,-6.825659036360555
-11.48581265780937,-17.119155223630692,-2.3515254083314403,2.5548412169483767,-2.972768131242882,-2.564721517750324,-4.117671676526931,-9.236142783333904,-8.206849362224029,-12.971838436428126,-4.883178944201132,-4.393750822907776,-24.48700744079005,-8.07413340113355
-12.019079538266224,-18.33930029245457,-6.647628218487981,0.8885269479318114,-1.816389231919343,-1.982369794098673,-2.093751898788484,-11.855428321099126,-3.828708893674781,-8.223590184866389,-5.926959847585358,-6.412961230555652,-20.80880651114358,-7.256199336572719
-12.536992172886732,-18.64027502933516,-11.325324049879995,0.1323524362361166,2.1553187033980468,1.2443926993513454,-0.7349217540090031,-11.597114246303306,0.9588593067515948,0.4178794874909219,-7.266267295017731,-8.720303766465705,-17.48479022121083,-6.97022476199566
-12.313410382913888,-17.493219894310002,-14.38627385321746,0.3447311693248094,8.948579080462505,4.821463850256618,0.9623544101094108,-7.838416623459665,7.315771981841707,15.701446534081612,-7.348938286748379,-9.831003283437012,-13.55500584868733,-6.421866287272575
-13.686999095570735,-15.494396066777796,-15.12643348799601,0.4532081555953574,11.771941536990898,5.241939402838888,2.530684783052356,-1.4305036841780918,9.725602982101451,23.85230158505381,-6.103336701830531,-8.719424271263819,-8.696591062599992,-6.829837758323949
-16.94817667286359,-13.796532447082823,-14.37855078311476,0.0194894803010947,9.33352460323768,3.2249110185409826,0.8958512736101364,5.146537095259902,5.049256289882877,17.45769478570755,-4.818300323864166,-5.8801596835114935,-4.002924256154259,-8.593034713776719
-20.26204473649414,-13.055063140870686,-13.55400667595655,-1.3962349363461015,5.954011668485431,0.6181621959415273,-1.2057813994161553,8.900533780651536,2.0523745575897445,9.922108150427905,-4.860386101537583,-3.0248060373330645,-1.3138300783870562,-10.576912417829872
-24.228513249750108,-12.990530834069348,-13.44516772062849,-3.243501460453807,-0.4599178099190192,-1.6692690486544095,-4.238421770943697,8.179243405006893,-2.0456674417466547,-2.4704687928184303,-7.52297842312727,-1.7152285517232286,-1.6126409335031229,-13.197790070688663
-26.728997927304118,-12.935065819122542,-13.889701781463296,-2.8623009599951565,-5.183906216866219,-1.9335836071772323,-6.354097024802647,3.834485321833,-4.711542499914466,-11.239759770580909,-10.647297705506436,-2.272578236891583,-4.081874096747185,-16.390577102052852
-27.385816442906705,-12.643043837192865,-14.446266505244402,-0.3204249968399906,-4.201358592577036,-0.5820063320791391,-4.134397573608311,-1.362144632172999,-1.416871801263566,-6.603341992749737,-8.900951587052033,-3.930168281171035,-6.844674582742783,-20.085856527984152
-28.65060741394033,-12.406462369349214,-15.15880610919382,1.2284383389227571,-3.687407672861104,-0.1530281715469416,-0.3338203621282034,-4.692570511103241,-1.3725442614006085,-4.835438043982501,-6.539330895977497,-5.867771441894334,-8.688903090181029,-24.150680466853167
-29.993151183764443,-12.382003456982789,-16.440950209313954,1.8413854975604445,-2.243228047291056,-0.4466166626876564,4.677930071762353,-5.281193676367501,-1.5747708133842897,-4.023742249848203,-4.066959426492207,-7.908883007321911,-9.974891801368017,-28.532651094309152
-29.53016711549559,-12.008092286460313,-18.171885117961388,0.4693205713067669,0.3273789504128961,-0.7281180689335743,7.496650959833898,-4.275529559861106,-0.2448136829448318,-1.0079430843201225,-1.413452581480136,-10.16868175769656,-11.73163399530953,-29.365981443861987
-27.436293005026904,-10.337566197672755,-19.119542233933814,-1.7519513953025934,0.0176743396810878,-0.9302069478255622,5.032402070157436,-3.419754935872604,-1.406616397521868,-2.347583647836525,-2.955825806256403,-12.203504752683967,-13.917491755533833,-26.1823597418626
-23.16608618851019,-7.053175997100624,-17.614264644240038,0.0837029369554466,-1.6040733074907132,-0.5356478404026194,2.145352896858197,-3.432480760421761,0.306444511782617,-1.9068644459533637,-4.71157510086229,-12.834053547666969,-14.872476012585324,-21.86646836832129
-16.20991136010913,-3.0625910373383505,-13.081689741725292,3.720283368609014,-2.8549784902165083,0.2710080966405003,-0.2591966386408099,-3.680906576569029,3.011845552949323,1.7141801506668042,-4.074084312791851,-11.088007431344373,-12.856420831972931,-15.360464605223958
-10.137210323052026,0.0876859403689707,-6.955577823914709,5.849525501408019,-3.5962390266388784,0.5721059831229544,-1.1758282054179223,-3.3025026232937407,3.2927306597431274,2.7727652420017246,-2.154926390010897,-7.393238296818243,-8.256290508883538,-10.3750175971215
-4.879637473843471,1.507307137950768,-1.8589044344411505,4.630830282739828,-2.3453132674731103,0.3809257376119428,0.491426991801576,-2.461772789958477,2.800323590703033,2.3081623807321137,0.7029575599560139,-3.668428005576267,-3.990143350409301,-7.477039640059153
0.6542200825779815,1.7091728347392028,0.4648698439854684,-1.0195117393096242,1.468331319488538,0.2438205896257848,0.3158304602434692,-2.315730591738093,0.0507133847890905,2.0365226776559493,1.7119244561946505,-1.9140204826923368,-3.1860954388134903,-4.286698904963201
5.637057303307247,2.0761487019360363,0.690150355903782,-7.4298158872544064,4.947197805656265,0.0379003320644633,-2.569234814845188,-3.650505325969865,-3.473868971781485,-0.2933020006758026,-0.5961915923028993,-2.429771434639729,-6.048199022329333,-1.8754200136324275
10.285531708257873,3.59053878285316,1.4525250703037609,-9.475910160909155,5.770688601992116,-0.0952946236367725,-5.073290079850661,-5.65284970899409,-4.669283638324618,-2.1021888070532637,-3.637613909622999,-3.3435581023388936,-9.051263692444124,0.4725176214585678
14.459647015502682,6.048089290659008,5.1498154175337145,-5.395135823261991,4.348583638198132,-0.0801774493019107,-5.392710460041633,-6.2928639340100085,-3.3847559875743323,-1.330330417387886,-3.9132008497413695,-2.0743641736089997,-7.703080164693617,2.861740508113769
20.360535922797997,8.39884397036505,11.813805435901472,1.759575733183234,1.6085305326314991,-0.1811497445642304,-2.76948495622924,-4.192229779657748,-0.2915385441906716,-0.6233105843805828,0.6991213606803144,2.4155802863567786,-0.6860481686781927,7.746172431989524
28.157687125217443,9.72156593678789,18.84643186542608,8.862492698235398,-1.283969947331994,-0.3078823420105838,2.587614426136234,-0.2177702369544292,2.6084926658431358,0.918593908926271,8.003840358252669,8.535873147713257,8.414603643071622,15.589713860163346
31.47005496428408,9.848939065987054,22.855513379459964,11.024241532971882,-2.7664564342507623,-0.3350045989076897,6.215127729352328,2.8963863456042347,3.2568258994948103,2.458553122693564,12.280767844980543,13.155680225832576,13.612668837609789,19.7185295976232
30.34899003718353,9.216262958705236,22.114014095707983,6.6615709790432,-2.158658252865283,-0.3770244486299774,4.817775840568869,2.7785581067228904,1.5198268624987326,1.5658048270984064,10.396959640298752,13.989382492225443,11.2538206314305,20.40396581126166
26.176749298942493,8.350189441490166,17.741591330308047,-0.2315529824824078,-0.4708375297136598,-0.364672585884889,1.1061558065898782,-0.4442428174178161,-0.9795559617857882,0.3652872533779264,3.912946743741936,11.296474007822908,2.932913483063949,18.290866218068235
17.341308279942503,7.609835580209733,12.805394744849025,-7.9069404719850205,2.305007216857456,-0.1577987946203111,-3.2472118570023047,-4.067287725764366,-2.1963921074712034,-0.920331296350736,-2.855626309830852,7.543724294926946,-5.817024780888474,11.74812060658286
12.695849400181071,7.260502146639169,10.135397004854042,-11.25591597649212,4.583698582171452,0.2766209848718733,-5.474094262550886,-4.9148780724841,-1.528772706271902,-2.186517464105432,-5.17913807327217,5.423012576904426,-9.776881082065913,8.950862721327438
12.622663815625796,7.472255255374023,10.478121769604272,-7.78627349523232,2.911426341025801,0.837094004651653,-2.993233060330757,-1.824164626054284,0.3419774723770385,-1.7955428538624807,-2.067933920352233,5.901696961420512,-7.632029785644519,10.003807719664977
10.933577953856094,8.014912068572158,12.192779131728528,-2.139466210377571,-2.993767808638757,1.1882711573034168,1.2797836948119503,3.5537069543498063,2.1678075981052127,-1.040792863941234,1.8215286341067396,7.775895433453812,-2.254504735507254,9.486086109385168
9.620915956196924,8.014090077733371,12.53900295294916,4.551304387620818,-11.329226566848885,1.376862415602237,4.924157315426928,8.141781007088142,2.745406230191456,-0.5493137762046418,2.746036084352045,8.849086526223417,1.9917637834856805,9.119460795588743
6.741532312829147,6.319113568989707,9.598879208417005,8.392973942214377,-14.979939713751364,1.0619894243953574,6.130055148623553,9.698272940529932,1.801195358401814,0.2630314620163171,0.6815895347863883,7.626677437579474,2.413852540075212,6.62868000674422
1.512050119274363,2.463261766241118,3.589602522411738,5.919955733152155,-9.070749871207637,0.4146543773930835,3.824799808071837,8.140740476612336,0.0783885448133935,0.8088773076812442,-3.48815151555194,4.244153666816615,-0.6725119685960408,1.244513578815061
-4.156047665520118,-2.570965394473092,-3.224262393605329,1.038759391559311,2.129881431101732,0.0288731369484723,-0.2908568332974247,5.162912533420581,-0.866501706197894,0.6392809379943082,-6.977529635356333,0.1480903059777176,-4.861518383947413,-3.7140304890780382
-10.966657649429528,-6.645225605940908,-7.95066158401994,-3.91040218899173,15.113102416837576,-0.822248402545861,-3.911052770680256,2.7894817579485505,-1.0842152263620346,0.7623849491425334,-7.897348892147936,-3.004348017676392,-7.633672335883233,-8.90358164949571
-15.37180702699614,-7.845650153934372,-8.930469994599235,-6.146538887474323,19.017684585789425,-1.4142071161756151,-4.9195933804567975,2.079414204919516,-0.6749647163415146,0.764068410563913,-7.710892445754473,-4.37356844850413,-7.891701381564474,-11.507136176236193
-16.907167535041932,-5.9603253075690645,-6.813755276232456,-3.0454534237264994,9.829965484229817,-1.2370111979337288,-3.2546453541880336,2.7146514180896872,0.1890350463673421,0.4151983502469412,-7.68872096440824,-4.29618334533609,-6.290825483069227,-10.712854607842628
-17.22197828534189,-2.830826019679592,-4.06939811994107,2.584989488966752,0.047449072820104,-1.2929043801089006,-0.8563300844522007,3.4259689520771417,-0.2163897728785329,1.260671126997662,-7.629440011806837,-3.8967504314269377,-4.478093752798088,-9.828973829399953
-15.257513791996413,-1.1726420146320322,-3.2139268858306598,7.144299289874141,-8.878178228315551,-0.5287707353464844,0.4914607086898005,2.826300457979386,-1.0715788134199806,1.7896540307486593,-7.75863576602268,-4.284471348653057,-3.8492642426247983,-7.972368997993993
-14.881317807884685,-2.6543507348722244,-5.035125210703342,7.886898526935097,-10.94857287199192,0.6976557263802527,0.5488236232731238,0.2631280441416948,-1.1563964306652337,1.4765485857326577,-7.139466808771515,-5.817963183576012,-4.55486316432777,-7.356591646599917
-16.32929702503765,-6.637851645317454,-8.16219110518847,4.296889258720494,-3.0736451514908234,1.0147838317938025,0.152250115251449,-3.6351146456846655,-0.2050783310368988,1.187236063153278,-5.188579414123343,-7.848326540254817,-5.338923824280414,-8.597205350492567
-16.327781063220588,-10.540251718043976,-10.29741995926679,-1.1352982582807225,0.9428039582650436,1.4553506843751876,0.212636532370724,-7.076863954259466,1.5269746643287123,-0.2366533169012789,-4.360201692056977,-9.100480904113796,-4.377292609174873,-8.689817844909879
-15.71140665779562,-11.617173804665072,-10.066459562711543,-5.39977037404562,3.75974965898646,1.729199925100363,2.280097733691113,-8.065524809506542,3.3925486262995066,-1.0945572487001065,-3.81640925744111,-8.495772001269245,-0.664655597086977,-8.257057313152263
-12.318542792580876,-8.916031461261696,-7.947702285424071,-6.444823813582391,5.211912683885401,0.7961804776838681,3.6034498679335982,-5.770725570190592,3.2501677880497044,-1.0060252081370926,-1.5958165802318005,-5.915746385860473,4.983383294102623,-6.216078878339746
-5.494526861217254,-3.952778680801345,-5.582032014318202,-5.126262235923884,0.6252932209143008,-0.4580559832555114,1.937878056480859,-1.3141886961544458,0.0224662813387329,-1.7130678119800908,2.0598133614047995,-2.373353499342585,10.16606774786456,-1.9954056898890276
1.432719665627815,0.4628668427256457,-4.189961772039823,-3.9401511809625216,-1.8306223117947245,-1.6447975231953569,-0.3926411810575262,2.8309283623906083,-3.770007398827633,-2.8784991104076743,9.244448836717712,0.5954668494397879,12.455109141226046,2.522926677615872
9.06247762461548,2.434061627620593,-3.536666982005101,-4.3457090787521295,-6.43818632492604,-3.855326677820664,-4.982527430328094,4.562380551322633,-8.310426981108462,-5.923310480050055,17.804671972408677,1.959308893230883,11.325145012105024,7.746481576199374
15.001879199115974,2.496223799394244,-2.2744883900935235,-4.494843682603684,-10.936257010035936,-4.533413909372231,-7.567254044975997,3.678541538477816,-9.447893440861552,-7.862347718485156,21.207854677626948,1.9158458597653407,8.96776978772283,12.02268951361391
18.442261614116585,3.144743339929448,0.7819269975121586,-3.482094062019491,-7.605198371839199,-2.5156431850533822,-4.702846891199824,1.950856932222706,-5.046645751151956,-5.666057772523444,20.806198830254285,1.7487593459588595,9.049671560863745,14.911829779630889
24.4763293992982,6.644900809346723,5.629899824962536,-0.5070834263407058,-1.937197809340334,-0.2542142761516101,-1.1486394143647791,1.692867022119458,0.0940271887645846,-0.965516429281388,18.63350714032473,2.8786260011883087,13.965888755532715,20.11885980646949
32.522879326583,12.91181410660448,11.088146504786891,5.511009228761339,8.509374385378282,4.022973287473693,4.493074615592169,4.036063553342558,7.481039376129682,7.294422691244534,16.145237295820813,5.8020434549154345,22.555135436981946,27.329162274819264
35.75344806221936,19.323515220297597,15.628824087969576,8.873208073832865,16.211740941718254,6.691907522359794,7.924655964529116,8.239959419689797,11.40493587647284,12.623151657931594,16.646902532521395,9.716988519133366,30.308887452890872,31.07525434957194
34.526196448555986,22.72706083419141,18.2167920221723,8.241084469568039,12.10964508015702,4.526391460056936,5.347996826935009,12.327975119502996,8.094848515850568,10.533331368521775,16.14200717455518,13.086646031960427,32.38566756385583,31.634808930072023
30.93111852823136,21.94165796221904,18.58123838038486,8.173160647276697,5.295324201590973,2.284733726682509,3.238338502924424,14.285954869257154,5.419262570839386,6.908820804032986,14.216189811003415,14.648184033828189,27.37102530969817,29.06028683722779
23.44388436207317,18.55477413640348,16.99772541413759,6.648350518653714,-4.336932908888253,-1.4957591298313933,0.3642614525127631,12.94537907955339,0.8952164641454115,1.1815513412684924,10.120081896616515,14.076055340518051,18.73135860211333,21.966065320065702
19.48113982799883,15.320909418723431,14.007596380014933,4.030380150923061,-10.500108199429038,-4.20955457556898,-2.0714799893645788,8.314856799373274,-3.218659677620146,-3.373512730142745,5.511021902344346,11.901912506116616,12.47444239988215,17.567247680132688
19.540126508275684,13.66237578035674,10.308321859043376,2.48729003039693,-5.451970679070671,-1.9029656713918477,-0.5593011061243032,1.588947283568558,-1.67330174479164,-1.9390893267842624,6.234205953569385,8.966336758010115,12.622820530271651,15.843729465490092
16.112833196938677,12.592742505827315,6.688112784864359,-2.3082879434605053,-0.3881431078989161,-0.570004909110893,-0.9997467104244032,-5.1066556156229055,-2.133512272072127,-1.2236317327615107,7.428088642537144,5.975408589867669,18.103995485529538,13.857980960992478
10.722038442589314,10.020863240491416,3.817751248797073,-9.095195988876,3.7197035488414034,0.7331041888620657,-2.464328372303579,-9.45682388805185,-3.0986431643664627,-2.013501092817385,9.28803939366301,3.435665305192373,23.651625938279288,13.257968062790368
8.26542117113267,5.132527834634381,1.9736180591500947,-10.75088585565478,5.570775551358278,2.067352157644014,-1.9739778060482875,-10.12735669085615,-1.7194018509027722,-1.8991608879574975,12.293762599344667,1.7503752513025113,24.009042451880795,12.379543860164976
8.030705896920598,-0.4526350612170366,0.9678945374058706,-8.35779943942304,0.0879267186804422,0.1431942420383866,-1.9366289601540572,-7.634524174511823,-2.364110319848692,-3.787884338010554,12.335009295473728,1.1496982310079848,17.985791750790803,11.165711026049202
9.15918729992904,-3.841011886862642,0.4206651395290244,-6.195441262811589,-5.235921141753299,-1.1451672195158569,-1.228817331058614,-4.033928201874407,-3.0735471711603912,-6.620416431705683,11.602403460000094,1.4799981328487313,9.143460375120004,7.98048927676493
12.60124338258604,-3.221965552180592,0.1631222489661681,-2.8704118673164323,-9.52018270622398,-2.3678306394101,0.2868154682893589,-1.416354937141605,-2.820934468357621,-8.121142944080535,11.768160841609395,2.2036135079058923,2.816239700247536,2.231598850101054
12.773966549229808,0.7624830360765174,0.3966468985275213,-1.0353716846538603,-10.628577886940128,-3.4593486784936607,0.3919571998703506,-0.3670418299085725,-2.8651323785332496,-7.639251115346443,11.56196084225941,2.7943290118031427,2.1449118697165237,0.0430449061947684
9.370897982022026,5.764470318272018,1.442875795696935,-1.454564019610893,-5.178511083307468,-2.037095856280427,-0.2463751249461927,0.2464628295675908,-1.975394265373359,-4.427868979497004,11.265425897813714,3.203856828688515,6.29006992707771,1.2454841869579385
7.989628879841767,9.681558467068951,3.2982251336472928,2.144468595741289,1.602937999573565,0.1244252174800393,0.4989873567338442,1.935006635597404,1.221303362511274,2.3006858794105014,12.900579255075092,3.848223428634242,11.824448151021386,5.965541991563399
7.507941506578143,11.912326409780633,5.391208275593954,7.7391423894857345,10.243294386298304,3.4600633902372167,1.6541916211607834,4.936951950297413,4.79646144843669,10.816867912031592,13.914369206934824,4.996549991700704,15.63079215447354,15.81165036874493
5.274552870076966,12.95372484661894,6.778053983822076,9.466637836483638,14.145866489842112,5.3182906891664965,1.7620752489493168,7.821900003801147,5.27682353937706,13.43472664434314,12.72093214650903,6.149897261023824,16.760687593870443,17.263215240572446
1.9338697899343484,13.137899165061526,6.670700900167759,7.679120158328205,8.944048723298424,3.378727005101545,1.2464639668246014,8.737783749111316,3.4661998434762573,8.971918035249049,10.785356130915613,6.165758300420919,16.090294485413494,9.873642009281436
-3.164619745676789,12.042391139828112,4.947408654440039,3.941695529930106,3.5096309493919247,0.7647395469774145,-0.1153745784930404,7.138542381057505,1.5237638097525583,3.564696609534067,8.168861406154065,4.202872241774173,14.70136988975969,1.5920245676068496
-10.516278670424176,9.16605352723559,2.2931234382268144,-1.3854368628000515,-4.279392938858615,-3.0798367538007607,-1.896328340611072,4.381791054802022,-0.5237599767468102,-3.366110917048518,6.003864694801206,0.6577965133996031,12.785905574446645,-10.739854576059932
-13.965846466746235,4.973010102993101,-0.163537443118912,-3.636332881955911,-8.993644334712116,-5.11842015134619,-2.104834550253211,2.637252141661349,-0.8864790160361339,-6.3280463372348645,5.144604006474364,-2.882630587124197,9.960600843928432,-15.009843729921192
-13.315253840322171,1.0006277881587948,-1.53969100172435,-1.802980730442292,-4.542216208150986,-2.757689589701104,-0.9668907222508036,3.069182293000836,0.1572319673872367,-2.330708319221898,4.698159726994632,-4.779329245445695,6.29973122522199,-9.561407719800034
-12.52248225145381,-1.2246441582817624,-1.7843638205149546,-1.212453561793611,-1.6557161389594193,-0.4981566247615653,-0.1161541694954766,4.863890901861623,-1.1069856246578236,-1.275742144203537,3.1568458849067484,-4.601950659219199,2.7434253417697505,-6.11780396419212
-10.176754129670949,-1.4150847824594166,-1.718714921285482,-1.6237511654711438,1.7082548890117957,2.1959089917327703,0.8699398729047676,5.900605574774318,-3.1916864642562324,-1.545026885924579,0.4608531728191242,-3.3719816399016054,0.3602599974144596,-1.6859161965081702
-9.565801077381218,-0.6930965100482354,-2.414053453594761,-2.070149371335648,4.632278575998679,3.657410829305012,1.3172141718632964,4.476469058823227,-3.245871800013006,-1.0831868344114062,-2.644527302958912,-2.5896282203152623,-0.7149754997695936,-1.667954281820753
-11.325455687210797,-0.6008306897465445,-4.311852871233668,-3.2441378881747727,1.26869623173,1.5221516826054953,0.7622509015185769,0.6829230552320951,-1.8203594725940624,-2.688616543599825,-5.527793741494849,-2.978603167843289,-1.4383363032087573,-8.127835863153505
-12.499261456091258,-1.9613095757920287,-6.795176300503727,-3.2212247182633704,-1.3988556356072874,-0.0192906811627428,0.7732897682760608,-3.626496406115052,0.8248008738889381,-1.5533106963120948,-8.565587517295732,-4.082669003258388,-2.856947456434113,-11.850120440674043
-14.003629094310249,-4.58058880411204,-8.647255408786691,-1.617525889991254,-4.497810153876491,-1.4330506832711127,0.9780717159433546,-6.2157982908515805,4.185000950453625,1.7069235486033016,-11.477353616998114,-4.947660785724111,-5.0192121094172535,-14.442277452833268
-15.017075430940167,-7.775824364921164,-9.096251570291656,-0.0200538762157271,-7.262389903638604,-2.23452366977122,1.0758571651616569,-6.133616910179512,4.7139006711640805,3.091229903665306,-12.693818550715369,-5.087263403303041,-7.039398679348096,-15.58409009570886
-15.176969471019063,-10.921585587646632,-8.553850753781944,1.2570323802939838,-4.5546638258488485,-0.394535073552465,1.7233074338252952,-4.418225888510278,2.2906127750268306,3.033115934279892,-13.575520713243549,-4.78998161991467,-8.303957222285362,-13.667230465628649
-14.780630747570898,-13.46417812587515,-8.324592774242205,1.5125785760367645,-0.7652176853327883,-0.159652860187462,0.6682365149118203,-3.295523153167096,-0.1017553432110749,1.2255295720597417,-14.837204000531663,-4.622820834482582,-9.439253989436793,-13.17550261665188
-13.463377928722004,-14.724442663182115,-9.447312990120396,0.891068746658195,4.863667539724396,-0.6878185208479266,-1.8369812681281672,-4.4192414403710245,-3.608978615120354,-2.099834724025856,-16.126928404621733,-4.802359685934789,-11.771117637116165,-13.637196267105946
-12.298092092324636,-14.150809661152609,-11.663342563228523,0.2366622333078543,9.435051502222908,-0.191964776278298,-3.342858007326585,-7.444697164587069,-5.44101296001525,-4.338928925298838,-17.726025099372812,-5.097087889643717,-15.64231862007523,-13.052173661485028
-11.254003761776346,-12.02327071529612,-13.471342697755745,0.1400406035647435,7.532113149144223,-0.2339202036874473,-3.655878276606906,-10.06733674291786,-3.5253499711871195,-3.826878260376752,-17.182160149397824,-5.226462400610672,-19.406158740305955,-12.130305188814702
-9.75808944316113,-9.7602235672058,-13.29190706369684,2.02218382671688,3.754495648493149,1.1793061197434842,-1.9915007606935775,-9.633085239158618,-1.443712858755222,-0.8778282071415858,-13.650994541870196,-5.187667499741565,-20.485749299583176,-10.800325950318518
-8.018238495551532,-9.09896975739133,-10.76373580181638,4.470218495361999,-1.6071074690448877,3.2013896215613213,0.9178056966038528,-5.217044056057432,2.364973100359025,2.9941188765056155,-8.466129098663464,-5.141087138434898,-17.81193136443852,-8.876554761972624
-7.097009064073502,-10.602076379675566,-7.06682967969823,4.857540305545317,-5.842404202195135,2.740679319152997,2.34609421762338,1.3975805936802317,5.259780413771094,5.160623413270287,-5.714313827252673,-5.097771196555755,-13.329457150444796,-9.179728147301054
-7.060054592035415,-12.934347207861606,-4.035673967778621,2.34717265372074,-4.438864849633165,0.0535036178580539,0.995366182861504,6.676273514938202,3.137716618436871,3.4911955344197376,-8.616142414999189,-4.892379614555921,-10.891258855502087,-11.906936129574722
-8.188600440872108,-13.886162596220856,-2.85933324844018,-1.821750876627408,-1.3927679022399229,-1.9360389318732127,-0.5293771786902421,7.615037633131806,0.5372919849873465,-0.843243063426358,-12.721515519095815,-4.5169489356464965,-13.27259462760685,-13.756492627888523
-10.856898538792802,-12.41769473431691,-3.423538394211846,-6.2998741796738855,1.014045801288414,-3.5336672127019586,-0.8893007715570185,3.7012190340971074,-3.2086054471126686,-5.0980178090534585,-16.83475981056721,-4.357686577811137,-19.88988061290388,-15.2842964871623
-11.91688380149613,-9.784738017769996,-4.67421228079786,-7.533874110772611,1.9457396346083211,-3.337376325454525,-0.5226842437067466,-2.854771488931874,-5.784606757431857,-6.12252623299675,-19.7530108065559,-4.912833994653397,-27.24910340275187,-16.02076470628033
-11.339939419002931,-8.498830812450592,-5.498403311295192,-4.0946927567865,0.0005777520576756,-0.1605042853944994,1.3167396580584187,-8.694329781502006,-2.587225487678426,-2.486486070957807,-18.57198120384854,-6.18724539059599,-31.69378422209411,-15.316775713966544
-9.96904471411886,-9.973873920567373,-5.355125226004702,-0.3443908441782467,-2.682100371826736,1.3575992230618958,2.700014183529067,-11.443110410395434,1.648643522172983,3.182167818098504,-19.322880125259243,-7.442168457967,-32.02875848550366,-15.804480383319682
-7.0080898758845045,-13.12112838491828,-4.341591924096861,3.69335701161236,-2.9481119733108327,2.851382867740265,2.14431530104227,-10.889946683988684,6.432639813886437,8.360782139489126,-22.836662177582976,-7.716871945994512,-29.88723890140932,-17.278337287021692
-6.621756980915423,-15.329145362854092,-2.937970446292752,5.545019783337511,-1.2339980265480748,3.5315020283491565,0.7190695209669473,-8.61405516365619,8.535579179152817,9.100194723851622,-24.38293748052874,-6.734420036526558,-27.87202853661995,-17.744944934520948
-9.020013061564528,-14.92349396961754,-1.7671142056211693,2.992487220237165,0.6084346350367098,1.448599397823333,-0.5320444384519862,-6.6594457176568085,4.586462728604684,4.521187113696829,-25.59770940426095,-5.3064144796719575,-27.39779505222361,-17.590970875490488
-12.555930194065208,-12.69828619197915,-1.4036566118194287,0.6145269493916713,1.8012771092541944,0.1469951727934891,-1.690498058629498,-6.336861257802752,-0.5828428052590865,-1.2780678692371743,-25.49660439221767,-4.745131591718291,-28.099654159363126,-17.5985020864679
-18.31229149349677,-11.02184305021251,-2.097331592940577,-2.4585685424953634,0.6007901030752906,-2.662440435923809,-2.296733257994785,-7.783794324539485,-6.426673469725644,-7.357638057648123,-23.20709476105769,-5.7372852596028,-28.93045474415578,-17.499495824124295
-20.56437244528767,-11.445117297779577,-3.4949006254307733,-4.376059651863314,-1.407396314954484,-4.302166818549447,-1.1037832314135685,-10.171131577250662,-8.465813073729365,-9.153343433078676,-21.848143660215147,-7.68746406058915,-29.48280582941203,-16.906292317702224
-18.887773032461627,-13.212963040383954,-4.712327001215158,-1.9824292123577865,-1.008463691016119,-1.9836816030020623,0.4643780140539136,-12.141288390880732,-4.44548785742377,-5.0755316310388965,-20.35237458984319,-9.132846829324194,-30.13031231165144,-15.863461832610636
-16.642922397129926,-14.117139917130714,-4.924802136537835,1.0838012291687025,1.5387088481622089,-0.4127770673897211,0.9021722531531758,-12.28881260564043,-1.248247458944976,-1.2579093331869418,-17.798384800363678,-8.852832408830693,-31.041219691582285,-13.508066857713768
-12.376340246299684,-12.755605517017557,-4.072368537617422,5.1975757644245055,5.779692435043256,2.8599225457485318,1.5778584920143108,-9.735589680342969,1.95037016987018,3.068493185252769,-14.540216505324956,-6.705071347937803,-31.37200773796945,-9.655544015989
-11.37663115602217,-9.910164067986898,-2.9749741932877782,7.547946385736941,7.612580019829189,4.815136287132618,1.0887287278927595,-4.7087985762297535,3.207257448158003,5.305451520093043,-11.30523611835122,-3.5575953924873147,-29.711428974946443,-7.888892120759372
-14.283060427431648,-7.733676431415233,-2.607960738109398,4.810963142584898,4.119401197184328,1.7348502983029956,-0.4943719657766853,1.292840160956132,0.1189625240208987,2.421109393589481,-9.537019975105569,-0.5553941597555649,-25.434477653357987,-8.231445077295078
-16.933137382875458,-7.659083137317566,-3.155579586673582,0.9475177124550688,-1.3106024267183372,0.5738501023509696,0.2966434676232861,6.113547551733092,0.2269162202161308,1.1613866285729657,-7.540470981796142,1.5318750391260494,-19.566375941399173,-8.536747750992655
-20.680843257260044,-9.12255783574298,-3.801084381381486,-3.569547443824259,-7.980833125167604,-1.050159643478381,0.8872439156652656,8.129341489909933,1.299847858955918,0.4227336161920125,-5.311126069204129,2.423910606803588,-14.174213292103047,-9.59455524000487
-20.51759704101038,-10.245362264931911,-3.5449792653563463,-6.260762439346047,-10.479932987501094,-2.5671398944730823,0.663447215399056,7.206527163251735,0.7638698719297002,-1.1481661059441155,-2.7506613207351625,2.111009611775728,-10.75443147093253,-8.557751381440788
-15.560925805873277,-9.63310663374071,-2.266235884370161,-4.994379837294819,-5.9114952275221615,-0.529429969720467,0.6883139234933539,4.673279043832537,1.4210403099477822,-0.611272304289694,1.4194483287608726,0.7736664832336828,-9.067783330471856,-4.982188986837087
-10.90062265035938,-7.467180356522945,-0.907539166483815,-4.243044935148115,-1.2909220147700735,-1.2703371415406874,-1.8614731865989,2.30776063417521,0.1937640520769612,-1.139646136268413,5.116530708773259,-1.0527668149996856,-7.417297023430933,-2.344925991276841
-5.21348119888548,-4.955131992555465,-0.5154302583291042,-4.41536611211551,4.295658618847779,-2.310471562018232,-4.21098070853718,1.1507516044798507,-0.7887868481645126,-2.7346337464876576,8.06354354822719,-2.441875952299455,-4.017775636470361,0.0124082538878554
0.5305578539326883,-2.9048424779773327,-1.0805021730872184,-3.283004446427313,7.098297002577664,-1.4543967209675372,-3.714992903258913,1.0510364381963413,0.6565542817299037,-2.298078938096604,10.892914979787497,-2.491977663338041,1.7528601682834548,3.999399950923317
5.5980338314716365,-0.9366281314116662,-1.4015755459696884,-1.2468892011995394,3.140891268929557,-1.0422860613359437,-1.641650631865737,1.1873026150213484,1.7393651250240598,-0.5981281225388793,13.565473512937892,-0.9608161342973958,9.087590074097523,9.232393557243787
13.163357912755268,1.984696169274109,-0.1836619311863843,2.092072379798118,0.1442401119187716,1.7281385891631305,2.0357390402224995,1.0042451566880644,1.3675634916161423,0.4405015603850501,16.92676082094948,1.5080380024479656,16.37422572253782,16.1583026296074
22.923531039683485,6.402986688681112,2.7090516362844763,7.337910742653134,-3.598790411233024,4.234973370475244,5.200745985313108,0.7509164154947072,-1.3124513941026246,1.8704486617307012,20.803198866374665,3.8871505283541774,22.07847989311982,25.170690875522894
28.567415251594863,11.803686127423802,6.114246362790951,8.024533299122798,-5.6660952966927045,3.1333986746611058,4.4468633673680245,1.234742344342898,-4.296931028057935,2.107252107384367,24.22755352204581,5.585225499133614,25.435365685429847,29.50795238455772
30.130015846368405,17.043725760096144,8.677193339426289,3.08261118829314,-1.167702758138787,0.3400521003564489,0.8517657058042769,3.058037757820657,-4.61444578107673,0.2024635563715529,26.087423448381543,6.81437511966908,26.828932515397995,28.806383656552637
32.09451442793766,21.147990722033867,10.050215696407292,0.022307183070291,3.1489471678543097,-2.60288211842266,-2.1771713974123186,5.969504775652425,-2.050575891511196,0.1306279436231344,27.351393644928294,8.17632465580759,27.724331213424502,28.710080840900016
33.156638130892745,23.65914072909966,10.967788818003813,-3.7615147406025846,8.61034254076234,-4.158611939483836,-4.337978316806681,8.841509302284749,2.7433249196489617,0.4247165851807272,28.625709584526327,9.924901098663824,29.92388030184138,27.71244859223839
34.073829912503086,24.45333293984507,12.198522967780988,-4.501999245772248,11.09951704544683,-2.286260038349666,-3.561109838313372,10.331931608092944,5.875217943155982,0.3635965772005809,29.39743041081508,11.658431748457929,34.296632219351,27.658919789874272
35.44038288879512,23.584205135456827,13.56339297420834,-0.1824745673065272,5.525539246014623,1.0618792777302055,-0.3142500336724246,9.80721014248762,4.336562927655801,0.644111956309809,30.3712696104533,12.709410324051603,39.839883747312896,29.447954000453528
32.97811381671914,21.508657534047455,14.106445435506004,-0.7518233467471525,-0.160631661740795,1.8414712765866916,0.7062483578137433,7.872835952466744,0.5234046906742306,-0.9576691343154544,31.11658146512558,12.778532468829267,44.07547443973648,27.995602531168387
26.73825230410056,19.31587302363968,13.231302285640028,-1.2670578309530631,-7.832407735790413,0.9833078669028272,1.3677663200673296,6.065181802065609,-3.6332386030586714,-2.8828684451772983,30.51502703544496,12.170202248252792,44.82176385294342,23.73976298872975
23.5211025691702,18.339821063995288,11.56079953333264,-0.4513767576582537,-12.352182191882836,-0.8680848423202976,1.463853270200609,5.831195421245894,-5.272250723477132,-3.0204417638762804,28.77681431720642,11.458772657946724,42.01456120775089,21.29392792714474
22.882147845420377,19.192634285920008,10.54573016878004,-1.15176445169178,-8.070962231616763,-2.3404974619827543,0.2459363534103994,7.492145158609702,-2.44693469054333,-1.0728313617356735,26.41854757075285,10.98425771222398,37.91242186492767,19.996803083980687
22.154497869763983,21.08170392495404,11.143015340395948,2.9913045003479857,-4.988911895757779,0.2570022981085657,1.7204367286396176,9.972755297405628,1.588136293949885,2.817834152266965,22.221830740044737,10.659176677674992,35.31143829416064,18.89363050196587
22.721566065295303,22.22417981851672,12.838339529375162,6.285795862847912,-0.2674538148411722,3.7800015854947184,3.104203275886991,11.533373051262174,4.588701135087672,7.305539034122202,17.367588444459095,10.172582346191888,35.23040221611328,18.82429180048413
22.08835540227746,21.173038099232457,13.962068399190542,4.945673799889944,4.316705726137139,5.108562254171836,2.867729479623071,10.96939858002085,4.9674625189893895,8.458758508137743,15.258397826116186,9.300577756489304,36.12418080368551,17.636814429046353
20.017919995362927,17.947277870856027,13.032745926141246,3.0024030945716724,2.769193018818243,3.9453829402179768,2.515815891153416,8.381966077974681,2.37077170513051,5.156261722671695,14.362364061337251,8.038034661547215,35.34713732495223,15.290250842558514
18.69622907029309,14.015118473956363,9.967260708638603,-2.1428508958081123,2.7085995093979687,-1.0890750213878273,-0.5214783136102793,4.987451662301879,-0.5460082646535527,-0.0676484039845395,13.261888303388028,6.538147590390736,31.53538736075214,13.398344767528584
17.576352695811575,11.236624529492587,6.193701439941236,-6.169640791419384,2.6952135255859715,-6.099454038313576,-4.05341714452088,2.2009887132577437,-2.462041178281608,-6.530294322212004,11.88787792545703,5.02269620540784,25.749953982478274,11.53834718123716
16.241155292221762,10.71129136082007,3.6561930142489993,-5.021560650897895,1.1212546329469275,-6.696516280786195,-5.0946805916999045,0.7463686795573494,-2.8142996306224,-9.378242171227964,8.873671476058181,3.757907105825496,20.405538872779744,10.107330392087665
14.93854780006313,12.317284898386731,3.5109257264557527,-2.91239649024712,1.973861103560734,-3.475679161053057,-4.363167662757944,0.4216315240237804,-2.007089728527056,-6.734370035340064,6.555111490659479,3.0316339034173723,17.06102518595759,9.356209400240012
13.417321740693977,14.951129229818434,5.405043644100772,-0.7098676754927826,2.4351326784701683,1.5424885021629724,-1.5196945374422697,0.554559796796326,-1.770507245247633,-3.901696165676298,7.008595482003655,3.0354442881948955,15.143807678671235,8.412516258688225
11.650748065776176,17.023839725742704,7.735683867995277,0.1391400285796186,1.3990067564984008,5.378325427462743,1.8730150926083904,0.6506309230571787,-2.363059522418994,-0.8989913703255707,9.255216822082607,3.67984182435589,12.73403229899995,7.421577417598518
9.584569562331556,16.987682074600798,8.667982396007858,-0.9238270946674616,0.1448924578595522,4.905956905849691,3.447425755863402,0.6786035404128938,-2.2078935409682074,1.2854024442494618,10.480663648773971,4.500218909012148,8.59820317836082,6.5566877653936855
7.138837801425353,13.980994777941078,7.280780191722869,-1.461181041904304,-1.6088830930497042,1.1463618975605054,2.8398607438780994,0.8494679693040155,-0.8373783872077111,0.933837158135436,8.288627024489175,4.810787431929839,3.5510070753304603,5.685178709734993
5.848806577539527,8.48289536443582,4.136311098963716,-0.3055026613255307,-2.316215790287574,-1.929658790539396,0.5110613070456304,1.226595379033114,1.017116721551078,1.5008734869791638,2.795778071936125,4.101498010085351,-0.0884704650612207,5.816221823015841
5.81044315802992,2.4128705845521097,0.8739822781954842,2.2525893238746453,-1.2133704663905571,-3.412282993514916,-1.4268179738892346,1.6131334625601994,3.746254574859172,3.505626639415861,-3.826214003204396,2.444519470604291,-0.4298478495133508,7.033362409296215
4.973895023012843,-1.803380594165901,-0.9595073905675237,3.383959765311112,0.5125800251399113,-2.596094948444836,-2.114116760488032,1.804726539215324,4.158229219855807,3.771353628524479,-8.040431087325237,0.5621007231608246,2.3520506478372454,5.831921034201538
3.610223619663117,-2.8080049181416484,-1.0388437307616272,2.5926961727725675,0.9514067485673467,-0.0451992860530261,-1.5124678010306014,1.8423289707655923,1.4515222178115164,2.5218441997807712,-9.139937858642384,-0.6219098424704157,5.974383770348467,2.1760119364065957
0.3051956588453235,-1.3136990011772696,-0.4686595250943668,2.19372154632831,-1.6706393330056757,1.02119444384696,0.7766063022968812,1.866900862882716,0.038431726432222,1.8392293039492345,-7.145909507591764,-0.7080054960876367,7.47911188271982,-2.1249390833551374
-5.503214458939617,0.4206699225657218,-0.842921861589474,1.727787865098665,-5.40964758168538,1.689529283146579,1.826062360151956,1.6719708589849915,-1.695506056819948,-0.0791747263124155,-5.436649122324925,-0.2426912573928348,4.95766035582632,-7.885196606535101
-9.903300041033177,0.2956397657842586,-2.8762455175205304,1.6045353246712408,-6.765875982364992,1.937986526510668,1.3018937285354766,0.5485964748487646,-2.0659341301394303,-1.111469074411444,-7.220024078520416,-0.3743144299555752,-1.5255807848973575,-10.78285913965769
-13.197521591440912,-2.1878257210763365,-5.759730740702338,1.8019949514274147,-4.114171541273789,0.7331711864056718,0.4098381637592805,-2.1448682322258605,0.2930044847963465,-0.0347214277633002,-10.340662081097118,-1.902960648002832,-10.078114047162757,-10.331149680732889
-15.57913565657927,-5.944007351906237,-7.838451835534599,-0.7154191114293817,1.0576297791579932,0.0815702938517539,-1.6909928702156842,-6.06340864656012,-0.4469747031638858,-1.1616707952695786,-15.752804944770496,-4.496862163253908,-17.83967829812717,-10.590990416781723
-16.168236147923945,-9.559886209114325,-8.064057617041854,-4.21786511189736,5.867961675106918,-1.6875877270382875,-2.329673613534301,-9.600440320676562,-1.2993628998960554,-2.077874273811567,-19.928562989208707,-6.823693928171281,-22.17720456748971,-10.526898454125448
-16.68341289368305,-12.441526922839104,-6.943929510881404,-4.902015546222133,7.364490377125002,-3.218498761367496,-0.9078977229145682,-10.843105962890093,-0.7480339685893715,-1.6511649108475517,-19.403173791607877,-7.582167516984597,-21.9311622700254,-10.795009357965045
-16.86789061465976,-14.770585209171593,-6.10451977550823,-3.1694948063398205,5.303301046225872,-1.812399030258267,0.7180703389736487,-9.12076040613583,-0.7122904032257119,-1.552002038979838,-18.309177133282983,-6.5855139423260525,-18.220898663471715,-11.989943088338968
-16.93205258929934,-16.548480548542912,-6.821756702494326,-0.5354062899475212,3.5435142462453686,0.0933150866554812,2.881442092556976,-5.715829282809196,2.009413482069139,0.176163605560429,-16.63587597884217,-4.945822284171058,-14.10292094494875,-12.518092865939552
-17.193099779734297,-16.993483884265096,-8.846817750058861,1.5257854991946052,3.692900246695997,3.3262368000521385,4.216176342680757,-2.922880959745761,3.996014128643316,1.481699910023113,-16.260739824651512,-4.186046099342061,-12.842403082615531,-12.691125942159626
-17.83387790538431,-15.148765907284346,-10.625735006600667,0.7060336640790441,3.743152531375435,5.091034160802195,3.2810679476672915,-2.2069251728397283,2.5166096461490355,0.739806669260421,-18.91721620802525,-5.04993600414458,-15.701746697922651,-14.34716526770196
-19.101368071238795,-11.187978920832345,-10.733701400993857,-1.8155983094662311,2.298833313465337,2.477920582338093,1.2257131909272418,-3.151150278399665,0.1582830455980258,-0.2822472330314693,-20.12467465838947,-7.010623963112714,-20.9263781954636,-17.433136353933975
-19.422439252355293,-7.014713882679624,-9.19460879559708,-1.2766505922576212,0.0008895508902628,-0.2168637410671477,-0.7761714216523677,-4.154906527778413,-2.271662161285479,-1.0141283161291303,-19.09066831703096,-8.824695022946294,-24.970712670579356,-19.65354496108029
-18.841950752306065,-5.291222210346586,-7.458631495076019,2.190767417229969,-4.114606619701089,-3.170399785289502,-2.80993006334487,-4.127235951850334,-2.721339057764066,-0.1185493229191598,-16.183704908569897,-9.57611484803378,-25.206680484977188,-21.272205306331337
-18.76329668145629,-7.511617734969654,-7.089247478240969,5.573311398830089,-6.665474343747704,-4.028113087145263,-3.3584238852676283,-3.4753861431154,-0.393442462205451,2.0925810144098747,-12.09678863331492,-9.31418579098374,-21.9704103862698,-20.598000179616086
-18.92624274363476,-12.722163803322909,-8.413799728403973,6.668765193093011,-5.635017179632645,-1.0211067325455034,-2.3279582308440983,-3.467849751159916,1.7223966978815708,3.259167026391596,-10.098919437235743,-8.821361570056329,-18.21111733627317,-16.96045430198817
-19.904082870860336,-18.022149119112814,-10.344430122337258,3.2074984108427707,-6.599164181792495,0.15792054831865,-2.2856834753954414,-4.715635096799414,1.1794331563499365,2.3962786974668924,-10.190599532492104,-8.801248323275658,-16.98077749134903,-14.442273803370432
-22.003452855601854,-20.487428748920166,-11.38643541368414,-2.726112976848989,-8.241270435625266,0.5685745154802949,-2.507302114967024,-6.34599797127704,-1.591641671684381,-0.7848924923540743,-10.35842079601264,-9.208083914484142,-18.83656881824551,-12.618682474542318
-21.74376577818927,-19.01018347600924,-10.78580699480829,-6.0802635766704585,-7.508139402203,0.4502299386628953,-2.206477890573299,-6.674679079484662,-4.364104963020873,-4.193576931494779,-10.360367787073704,-9.266322275895728,-21.32325734588664,-11.668621834501844
-19.09061728144228,-14.729242447039816,-8.859570739167978,-4.355974228077444,-4.525672563992394,-1.1741621325869298,-1.6215212022367498,-4.698095452604335,-4.508567895944676,-4.80488185529831,-9.031749086085124,-8.154574806210682,-20.99543652002056,-12.483565098148455
-15.928897666767776,-9.964835904669409,-6.523474273289239,0.7693130612129246,2.162709698487952,0.3439223880432545,0.6700992046252301,-1.0274684012949749,-0.6856189034245299,-1.6256600806600852,-5.573927865297152,-5.7995219372645295,-16.375211000165045,-11.066418828020751
-11.469980726403715,-6.688245402766398,-4.711853401053304,5.790793847881567,11.793352993705842,2.4131243699156992,4.23836642387012,2.483354692529637,4.800220119025727,3.718006249576816,-3.059652352376577,-3.121718667326661,-9.471038298369834,-7.544888308680068
-9.918021271356633,-5.643978682399222,-4.122987542684854,6.449422501579884,15.61458501053961,2.2716723741929568,5.729742396136821,3.986652178473968,7.558680063724241,6.910986836330097,-3.163852240416867,-1.4852788437486382,-4.579618606415906,-6.294732735662198
-11.78355257721819,-6.439805227015,-5.079309640020341,1.150761938464801,10.579594331298743,1.252569496976189,4.287603074380463,2.746436315774041,5.547379453322138,4.91375335876971,-5.59579797987741,-1.7300122281947594,-5.187117013728518,-6.758072105065972
-12.607647712466466,-8.124851996733355,-7.2174894747349825,-6.54523123833936,4.155482052165309,-1.7989845361097756,1.8812862284304055,-0.5770173424519527,-0.0251616304759195,-1.5692204129242906,-9.826764379966288,-3.528526048914188,-11.287467939246724,-9.248336002975975
-13.366495038130942,-9.66022821563628,-9.280602247108868,-13.537411243233516,-4.38051250701291,-4.323627261607568,-1.5390208395282945,-4.425487255122079,-6.443515673657227,-9.148481252160671,-13.568800108570434,-5.579477677689937,-19.18351897510724,-14.71391398257722
-10.664352710741776,-10.130700627455766,-9.586809418991791,-13.966200775418343,-9.176104509903851,-3.576235089874185,-3.3465008425493,-7.1696224612242005,-9.039339730055836,-11.579314629164047,-12.963013224802364,-6.480951932063505,-23.96975314839664,-14.601284830032515
-3.4801501515945765,-8.906822961399243,-7.160206784805041,-6.535839308146855,-5.357170512876357,-1.094365870975325,-1.8352653780630976,-7.832907872267242,-5.708767616650775,-6.30098184004057,-8.06795602353766,-5.594911199784505,-22.82385682453763,-8.633247992746245
2.189441134977862,-5.891206688870454,-2.6136919089599644,2.461365475429546,-2.538270332518348,1.3204714482717592,-0.4518999504912458,-6.459850612029925,0.086883733667291,1.5838340537812616,-4.5869651768477455,-3.2791068626014805,-16.626645632425955,-2.5171072426778807
7.217925387517688,-1.6812296209344595,2.174492506473769,12.54003174136057,0.3192094566086599,3.0136970372328022,0.7931278654600291,-4.008975891406237,5.984714970009427,8.843811828044709,-2.0543248947375377,-0.4421961941427952,-8.81459293198371,5.675423317710063
10.248848875665072,2.5999815141579887,5.470137869819055,15.985802843106091,3.2740118045031714,3.056172323582396,1.492219620968208,-1.800430008465284,8.683614850095626,11.012177159205324,0.8024636777272077,2.0904985939298517,-2.60608893920778,8.82394590767172
10.004269199753594,5.805522281948868,6.935080487327454,9.71489922142556,1.7866901033673397,1.8386577390786951,0.1407100385468796,-0.7780184039357891,5.822838080965309,6.409414425274304,3.090083979527353,3.9027915137642566,1.079296705535285,5.705821249352914
11.752421623641244,7.31651883660669,7.580778905977112,4.618352172458813,0.0348173587056099,1.1638690237372655,-1.2489429099127325,-1.0044835629060884,0.9065354646497052,2.046221568957516,9.54288154483749,4.925869089069877,3.519296015705919,4.663060987419554
14.96609738232235,7.323117375005708,8.569263239998548,-1.623530258680877,-1.4478180143518864,0.1773895038120707,-2.3359181078171174,-1.6843624381510691,-3.629141786834409,-0.5994041925695435,18.21087901594352,5.269319764112424,6.40467923332416,3.9467626046075055
15.513194904356393,6.702535899577967,10.1192282621695,-5.734913921020233,-3.4694340520363736,-1.242901763821452,-2.703903378937643,-1.6596406973456936,-5.812158384793632,-1.780456709469569,21.17217256057557,5.18324289345081,10.171367954405923,4.365795927691639
14.087901167201252,6.556680614229705,11.542531878335282,-2.742734056462357,-3.0709129338211016,-1.8042234018333612,-1.3321673624268815,-0.0535206641860384,-3.984598955360352,-0.9185345320212944,19.55144338059069,5.087677141407411,13.804543934637472,7.291619144930041
11.991122431224053,7.581662583099543,12.168623826927572,-2.3801440481506635,-0.0512669814982497,-1.381095393356512,0.6749846838755619,3.2488991446173685,0.2655198234693971,-0.2768968471010957,18.14393062007901,5.445258597386442,15.923351267126035,8.977821162771056
8.568401624088537,9.53974415851428,12.02273379493944,-2.3508262194732503,3.220451663510325,0.1852730912592431,3.130134065787133,7.427488294996024,3.9363282145342415,-0.3686507735159393,17.01905574444959,6.426203830797284,15.883370911825672,9.967594892749064
7.246814279683036,11.196523937438158,11.532655957222104,-0.6655494613697126,4.72289583929658,1.932044541246133,4.02141676882529,10.928788895098124,4.83874809474473,-0.4440645822795167,17.48071688266417,7.613052654931877,13.94416250615211,10.307668861663467
8.40299908613173,10.962213766214532,10.721361005822558,-1.860712780111992,3.181392297416517,1.8485423612839536,2.06728478261687,12.114627396395312,2.499290144833476,-1.20205087765302,18.02803767996322,8.084197653292094,10.69727821221231,9.3239905752326
5.019190367943335,8.008216050452141,8.953228818199882,-2.5889499608428403,-0.8842364679093899,-0.7545069920917453,-0.4315159620927375,10.246608345824583,-2.258298117711437,-4.588934570327998,11.712547754241648,6.968821812469727,6.6436010866773,5.549051881385198
-2.480154986629552,3.101989975768504,5.67043036088122,-2.92970130365121,-4.384260713363601,-4.163122727817616,-3.802081185474968,6.272224329718156,-6.565903282430181,-9.5768488993744,0.4284504249819687,4.167701203715922,2.3940352137070136,-1.514529099241302
-5.392210719315395,-1.624286325982709,1.3858271387854728,-3.4461432717462674,-4.386107775777841,-5.471917295185899,-5.288367589711938,2.641317686253465,-7.211347666986348,-11.273863409772128,-6.395366640263287,0.7006288572546424,-0.9644600604107652,-4.41772471589003
-4.5319103578562,-4.014401812927659,-2.221194579739425,-1.3513419687772092,-1.3000077422616791,-3.265117371517132,-2.774068927439371,1.8719343206371093,-3.7004324937916646,-6.799888114237021,-6.348249225604002,-1.7054658579222632,-2.122878938280202,-3.1204568004362025
0.720331488360832,-3.3887405269029003,-3.4305729975237758,1.1836037520475184,2.042095029528342,0.8396884287512575,-0.3916228267063842,4.671750140258247,1.394761545833207,1.0286449569782676,-1.315363717383917,-1.6615104475782303,-0.5086477207077067,1.4863704770304282
12.42622302592418,-0.9519265791392896,-1.8870754147334097,3.430792447067577,3.240550998276797,4.369866377924407,2.3903027659370237,9.140210662672658,6.274843607641991,10.933618146094048,6.224575327783478,0.8760057021959824,2.932651739276757,11.402239375454185
15.847198008222112,1.3056823356902072,1.047400783002658,4.13874786561304,1.4524762586180058,4.86728479809416,4.012489665981785,11.982098287257228,7.59486634203692,15.383266798167842,9.223838076015998,4.427333311627059,6.105513166329672,14.498397468165228
10.77850664611927,2.2761897679312284,3.3836701060499124,2.109991634405052,-1.125245923416274,2.398505709016179,2.30967927330508,10.987600564086428,3.86464793659023,9.82317033002602,5.627798244649912,6.901176635957469,7.22422905607732,10.418520138402114
6.38983546522013,2.44045881415785,4.041311863030213,1.5859136282195745,-1.0623978448942568,0.560093298067343,1.69110940969504,6.740082873541976,-0.5891264885645753,3.703125713703449,0.6159707440634168,6.986026416319007,6.149279766887059,5.479680747707479
-0.5345407499991868,2.927427963331745,3.405052676425484,2.2267586866534885,1.6637873217659145,0.8414953302071582,1.7729752383320647,1.9995393825646597,-4.6802403076622365,-1.969881267016516,-2.250197178083294,4.949473475989919,4.365865530171462,-3.1841129193447224
-2.4253980078278143,3.855986397076201,2.4632591209896795,2.664965373046542,4.556557252875916,2.093255308540364,1.4195745315235817,-0.7471204591395626,-5.829784021723802,-4.58641159339372,-1.87961436911753,2.226903693509467,3.613397433461081,-5.657388108897347
2.2271785121824648,3.724733876087022,1.5291750672637685,2.4891813720383027,5.143426439667894,2.6115987335099144,1.4663446321988298,-1.335039251225961,-2.4877999479147026,-1.4115029800844734,1.786741012256568,0.2170241015650447,4.457943347519283,-0.7970649380084875
2.7992131840974093,0.7306374656072414,-0.0481379799455261,-0.7491777412800771,1.6696319158216073,0.6117193866205368,-0.2072307156321748,-1.6588700329008184,0.349881123378597,-0.7981350628126,6.030856483416794,-0.6339392657691114,6.091173959070193,2.732283404059214
1.0353443877501491,-5.027328859194231,-2.848984626826601,-5.858583392273961,-2.940634251385976,-3.745899768680304,-3.311406859677551,-3.397174122708334,1.9536291621220991,-3.547709491402752,7.371693891558721,-0.7415134279887425,7.361591763992791,7.3425243726340925
-0.0825829502144159,-10.647124065004348,-6.1490923163368105,-8.215368454539107,-5.117821073340491,-6.305442308864325,-4.702118946449746,-6.01030574948993,2.049190017223845,-5.342443336422137,6.118877784331101,-0.5866368832132931,7.869025837347278,9.003312772928735
-2.1656885561483503,-12.104484022777878,-7.933546755656529,-5.746297020581922,-4.790166509556056,-4.827903556767534,-3.651654067936136,-7.064997277965673,0.4688723093715471,-4.901845467332321,3.969035650594903,-0.1463813681995711,8.085004910678386,6.295495739245776
-0.1286466898917708,-7.456207088184529,-6.406010497476038,-0.2378717256080463,-3.1050113575883014,-1.8550560812860253,-1.4255253563627122,-4.647711360007789,1.0656478595941534,-1.0616255534827497,3.0442346831571085,0.8867473541329405,8.623103836873382,5.900350076384397
6.550471160108143,1.1440046857175603,-1.706869206601869,7.282213362603402,-3.8501853411269535,1.587058005479728,1.715763096619895,0.4694472657912383,3.7148988073940057,6.320201161152864,4.837598494467311,2.453153986777451,9.614502652959176,6.675685257194312
8.9807633667693,8.617432223824569,3.782161743358409,11.145234654576557,-5.365844210578,2.9078129195226565,3.4732580031774543,5.065676752212245,5.195974448470044,10.127089268854531,7.279511875254457,3.8491576007332577,10.784775563124876,6.804733210558715
7.898268757068424,10.663721173600754,6.964927338817907,7.573617801442624,-4.327166598365094,0.8639030157798157,2.457537508046199,5.982862720380446,4.089739754669358,6.502837811683576,7.597494103515237,4.175527356273079,11.87388835834072,7.2594523977436465
4.84849973448811,7.04450677128723,6.210399701688046,1.477061389864308,-0.9582016783954814,-0.2075576235727084,1.0342348140020097,2.650652091306241,0.6594045480422944,1.6026133120329005,6.490914245334388,3.06338591538353,12.715396911119846,6.029711543767052
-2.0616570254375204,1.6830165126631886,2.463765387719844,-6.28967179588921,7.2633887559400145,0.184330928385033,-0.432338829744954,-2.578068241410985,-4.282951734633684,-3.96357824669676,3.7894830132475703,0.9646077070472748,12.925522664557636,2.9003727507114507
-4.276937300960162,-0.5582714514360152,-1.5251656398812052,-11.164132460146634,12.339906593298336,0.8204746640015068,-1.7337148517409733,-6.417677204765068,-6.96955635526051,-7.0012291810763045,0.6984348578133002,-1.2155250340759487,11.829942548556849,1.1588567414485198
-1.5287020266422395,2.2420310492154005,-3.1971625513048245,-8.256598910572345,8.830104458578484,1.855494935020143,-1.601307271204088,-7.099420935328991,-5.505004968637322,-4.481837714619782,1.0323249836757695,-2.7260456445013848,9.024182677055656,0.5012374715616416
1.1269204984108785,7.721490976913552,-1.9085361842683335,-2.703224883868599,4.299402458619705,1.7858521325882648,-0.595919511082404,-5.283302115553568,-3.2801498381652388,-3.433283859230035,0.905513533078081,-3.280622089850485,5.068159471879223,0.3681065198048006
5.637391671113761,11.428386746126904,0.7924085486128369,3.401078849124337,-2.8371816733451083,1.0492220827886711,0.3350028154647349,-3.022762304742294,-1.2283731059172531,-4.761641888535725,-0.1364395951361906,-2.9573948097112,1.4244624646519457,1.441543243067687
7.190903807484693,10.57291536930207,2.432628089390736,7.314161628049719,-6.79266166144573,0.9843064723706716,1.443341621337223,-1.988101391992501,0.5312756058075285,-4.703316026882485,0.3355991857561281,-1.9887791248025728,-0.5334546843056138,2.244272228225669
4.995794862446082,6.164293485366873,1.472505377542454,5.28134641260648,-2.2120845549944352,1.188544957327551,1.862418130135612,-2.4170880640448225,1.1315974264281508,-2.7737472216122963,-1.4054957774059444,-0.7137611405653459,-0.5502262140758845,2.842221274116793
4.251299432033735,1.8860828863036223,-1.568924781961492,0.7228999227177602,-0.4897243817091011,0.543035749670013,0.4823653679588329,-3.3125859447139128,1.738505287731266,0.9840936113435976,-3.752640920699599,0.3771345388865121,0.4880553478101568,3.0124626566225823
3.7798099493038126,0.8695538593071142,-4.530842459525189,-2.119433079580645,-0.0273196487228526,-1.4086550460762763,-0.7467796718528079,-3.3918769116929504,3.930162697647287,7.941416795929638,-5.082275134050038,0.758327397102807,1.5473944787734195,2.386303043615539
4.089110226306258,3.173405992079058,-5.282702312870597,-2.5169612368851286,0.4306819967198547,-3.210304285380483,-1.4831228619702248,-2.0143307717133894,4.403830194392784,11.248838334973588,-6.838224301417274,0.194808592650574,2.377721679908685,1.2407825222614173
5.983031663412358,5.982720307202403,-3.4005741954964392,-0.4869927702463903,-2.597179750334453,-3.525304146096797,-1.692936881869994,0.388231739002137,1.962724863012808,6.927520879089786,-7.3538833257945635,-1.0075103158153276,3.385964086717209,-0.6654117527860417
5.6550099447551005,6.152769144552604,-0.5173360200389965,2.387209119248461,-2.0390252301015286,-2.33095244148741,0.0727229595871669,2.5165625854910054,0.3950817263942767,2.352137141652364,-4.800158953061062,-2.153906703751879,4.657510474352392,-2.3648927520402814
3.260064154173724,2.845737013610247,0.98976748776305,1.0427472431373517,0.3145382826025211,-0.0704559820722311,1.0428781862925798,2.970032586460718,-3.229993625943105,-4.423696859097922,-1.804240044199833,-2.68089369556019,5.326074225712354,-3.834899522454069
0.8606153249949111,-1.8730187194876533,-0.0543104150323685,-2.6432801090284146,1.3468672056341322,1.5901280403273423,0.8261529924553572,1.2223266016809011,-5.359904668144967,-8.546449146679207,-1.3118357835253458,-2.602432333724611,4.1556675935093565,-4.366027736709042
-2.2742971755180954,-4.79003055332387,-2.659323082804537,-3.9341833587052726,2.49430335099657,1.370863116822696,0.730639112938059,-1.839002023335944,-2.494786116866297,-4.707679243304304,-2.274776109444526,-2.4375965884126387,0.8504654903719917,-3.6117966212052672
-3.1352317746373712,-4.077514343146621,-4.525274997515052,-3.346454579029215,1.3243455651837932,0.645806283132237,-0.7353360544242069,-4.359100161339541,-1.2842245173541973,-1.7609196031142924,-6.40600330686865,-2.650481166131044,-3.299065492906436,-2.5516859363547773
-1.2431875615059806,-0.5807023909377556,-3.998743329079797,2.175887572236449,0.1068657994394217,0.7159098354148304,-0.951750974860035,-4.79380387620726,1.826679663366056,2.1198748199324795,-10.877005487522082,-3.144623559262332,-6.2759217132889376,-0.8887036357467386
-1.0781396383193318,2.997889952528002,-1.4525017246843994,8.064713151297031,-1.1116328604783612,0.6312486614532908,-0.1168884155413698,-3.063497720249046,4.611311608005448,5.042815301698788,-11.322187417760444,-3.351720631194759,-7.043384771036017,-0.9331145245924624
-2.0167958367473355,4.196856502665089,1.0809245662285925,6.872227099585035,-3.190182791567285,0.3269068449256115,-0.373446145796254,-0.5845608425350086,2.1517691214732397,2.2147897570159376,-11.026474498882305,-2.867764696854284,-6.512667158003918,-3.0123697675500063
-5.380301218345421,2.5019228156402846,1.6530269375803217,1.6981502377577078,-2.7920738528424853,0.3306018102115629,0.3703600217457997,0.8905484508395887,1.2675177637966557,0.2061960951936464,-9.28279192862416,-1.9860656119758249,-6.787575644260098,-5.301371155494046
-12.184812827685116,-0.5220025737930563,-0.023959165743804,-6.634008835665419,-3.4702291824930547,-0.889254423719664,0.3846934357609566,0.6092138692054476,-0.7753981190870839,-2.0755230927159944,-8.393136703687874,-1.5183655077462357,-9.28991678571285,-8.433926361219696
-14.033690572767188,-2.569150675362607,-2.4871378103253647,-11.70304696673768,-3.31512175618606,-1.3864240997280275,0.0052282587271061,-0.8330198143916121,-2.9552583111734867,-3.991949179545466,-10.418189058641987,-2.0115948055745285,-13.41338238909256,-9.024338099139642
-10.98442442552582,-2.261944890127861,-3.8658137772142176,-7.33068356244395,-0.2939994410761379,0.1610856091086025,0.915939200166892,-2.3140478962225863,-0.8432261190266468,-1.8070620362837573,-10.229716361044996,-3.1371192481416763,-16.892316748901514,-6.588285968049956
-7.291256721615942,0.0664569499419798,-3.374653805750558,0.2338800331742889,-1.28361524980653,-0.0931454758859803,-0.1265563458838269,-3.2396492523019944,-0.6820456223725992,-0.3512107688419136,-10.49359651366845,-3.9052813196478695,-17.554681520760653,-4.570191638288443
-1.1143802358751864,2.8890385001963,-1.6827650380555426,7.895785445630394,-0.9629374636573536,-0.5220693593615467,-1.57118468584156,-3.7670854805942113,-0.7840002208447507,0.9003059799300355,-9.79121578345576,-3.5209524806266934,-14.961952934600294,-2.127040648285974
1.2379150583789496,4.713148317873234,-0.0202585038251275,10.302673676424948,1.4814529712054303,-0.4905981804719425,-1.950939993008486,-4.10377886499689,-0.1871318303912207,2.208704215211952,-5.94264341386073,-2.0295862313980173,-10.6183832252624,0.1209601067010253
-1.0313509114367605,5.001896408042631,0.9857805925107606,4.744483554606852,2.664839659125386,-1.1490329332313358,-1.8083173978681244,-3.806468423668544,-1.1046135833046526,1.180253146616128,-4.368960839263729,-0.1373872793389239,-6.703867783176243,1.6460783049083518
-0.7201080072916071,4.175162582450675,1.666842069017676,-0.4996028232191291,8.790627078676238,1.06916004289917,1.2309054020677572,-1.9947607570093704,1.0432386966419798,1.170049955767903,-0.970017671784154,1.5239034629359214,-4.476928580823522,4.859952709357267
0.7720902777870244,2.914404916238807,2.6990333882567725,-3.562964344935043,14.301574109894387,4.164257963570702,5.007722020633772,1.6302809531397884,4.555869865531202,1.902862140969111,4.225919132707676,2.860148424005068,-3.6232936907104776,9.574498426425846
1.793054331417395,1.5263030609356747,4.295912259962108,-3.354891126404807,12.135358044495916,4.719183818083513,5.835862006571879,6.022410954833656,5.6830856321322605,1.6765030102376617,6.169539711876336,4.0566756119939615,-2.9147456896525767,10.415141366429705
3.35972548890392,-0.0880430126948734,6.037667328081263,0.4554889244684907,4.954448380914115,2.7990063118256794,3.286866300697657,9.202573228732485,4.310192541141976,1.117362287887148,7.934042896214953,5.014532014670927,-1.4508174350341712,7.3741543491701425
3.015917055021988,-1.9933725105722608,7.388929431912945,1.4847743076606892,-5.08534308555455,-0.9796020648795508,-1.2295925951355298,9.653092769535291,-0.4106789602688315,-0.5563762708600211,8.796977358296235,5.247374642173815,0.6092234079395844,3.5579803926698914
0.5605974858792091,-3.8994943711379775,8.231602570971322,0.2631897084066821,-15.612153752782522,-4.488222157887916,-5.66241529994721,7.513851215763639,-6.086571943077952,-3.2568005846690427,7.638319390441497,4.442780677323926,2.349218746201955,-2.2355221240294525
0.1049564595372404,-5.3275333389650665,8.807888198140331,-1.4403194602989646,-16.98629532998689,-5.037230227735719,-6.781070593207328,4.515561153252786,-8.043623299726391,-4.349976203591505,7.777001235291011,3.0652626344092275,3.0301434893588874,-3.788443258995154
1.3147506644400877,-6.030163555872615,9.194758050922056,-3.56596033865642,-8.816258206056228,-2.594769447436154,-3.7659697215016505,2.6992847457488898,-5.46565994518354,-2.855300765179324,9.340117597071536,2.2374102772204143,2.7709822182165094,-0.2746521117843433
2.5445478408087543,-6.140769672090638,8.987919231520541,-3.1334797905158114,-2.6717769279532684,-0.3862917633863077,-0.3191332305162758,3.0076043101893366,-1.2235678022879592,-0.4978754452959122,10.781975235767632,2.866536001704665,2.41070951067939,2.121253421175083
4.57926039558754,-5.87492638894343,7.642608382041123,-2.181627436019261,3.791691149241069,0.1273228177786295,2.421390873396328,4.856180966758557,2.2305190183770622,2.8335888736335773,12.391183120907524,4.801140143085233,2.7526062142468297,4.924142242685367
5.294858462138665,-5.178938801470157,5.159172088239711,-1.464777304907986,6.44873983911907,-0.5549353554976297,3.189225341444512,6.857979377458895,2.776000287187529,4.538585398608055,13.708800383548766,6.833903301595278,3.902265331582392,6.063870426224124
4.443067543395521,-3.811661123644528,2.354276955558837,-0.0398742585369156,1.7797317891262554,-1.326500357360771,1.2792397937581312,7.918041961442763,0.3156838257808165,2.434631228611207,13.253882420136629,7.590338325338088,5.257224888576884,4.498804284562178
3.037761755730969,-1.8197091764842612,0.3323502296751148,-0.3141385554378649,1.709207293160646,-0.5587919333555307,-0.4990965653559331,7.794448856559241,-1.4374105803798904,0.1231816844554658,11.734124476648567,6.546943253280384,6.095643556719489,3.3570906412581167
0.481517121184408,0.1763486783253243,-0.3877086586266012,0.7876423974183158,1.904873480806195,1.9832283104268813,-1.7248257543754506,6.8972044970207165,-1.108380163906037,-2.725245804239956,10.342126911694402,4.361556937555417,6.224719603769742,1.8556176054
0.3110600473580612,1.3458453036889817,-0.228484887592633,2.9874198441432056,0.6046982526167243,3.824232738609179,-1.694042406684938,5.79352266310082,0.46020397935949,-4.47354674604332,9.381693099197468,2.347128809795429,6.168845855460147,1.2727922066728286
2.822910189290225,1.4087311648469338,-0.0141307133511654,3.68524694408148,2.565123475695539,3.3712710180187653,0.3258769077627059,4.944484786080864,2.9724179431978643,-2.208714582365276,9.352002466659886,1.5934368850895622,6.787887316255459,2.123834672169713
7.1723316175572265,1.0096189524226933,-0.0771204876766828,5.59251840509483,2.048114867120744,2.1475247216100035,2.648186507821729,4.704267961019276,5.141901094224903,0.5919330881495208,9.819428345071978,2.366216344284008,8.617130729822913,4.143108643540033
14.406892231943802,1.2137215271747142,0.046501941757084,5.706960905783943,2.1112699783527704,0.7837678994561398,5.229489539385748,5.233189943101056,6.829934902259804,3.9209646805807967,9.282222913515636,4.04137908476177,11.35676228317947,7.919989799414175
15.299645618764965,2.503817925277918,0.9682445173130124,2.6615857268789207,3.5024010106648635,0.1800588106868356,5.80794523348955,6.174141436724581,6.596915289656128,5.753150726500076,7.365470113509392,5.4441548092977134,13.830114578839682,7.926988620747021
9.27480361108982,4.209279180204158,2.48428675109856,-0.2986358888924233,1.7384951961838784,0.7957492193416333,3.011785726698494,6.453645791806254,3.754708760293334,3.3826325510777826,4.4034440519160105,5.376276741861913,14.50446398999637,3.880419423490984
0.8355650859943944,4.9339506701296285,3.342382126857637,-3.0342689356006614,0.3348583773407647,0.4314554635660258,-0.4433067393243539,4.709175398464833,-0.5366830942498421,-0.1152404643207065,2.0060162952142515,3.1947868643998207,12.370907566600843,-1.9060566436159263
-12.425082629576693,3.6184386050259674,2.128949330743517,-5.0062813963502455,-2.622898809154632,-1.506971155825103,-5.033050672073868,0.3089287929805682,-7.058777650871565,-4.201442798305932,0.4585495868367779,-0.733449234751193,7.680936960022025,-10.880737170713235
-17.795177763597124,0.3080712733240993,-1.4388875734107724,-4.119923875171883,-5.529627631168504,-3.312517843029852,-7.241779321306964,-5.80971154087772,-10.365926444630029,-5.774809122747286,-1.2047754250789735,-5.022747168732327,1.9648829452321035,-14.407650436867272
-14.101336693024928,-3.960000188626616,-6.003463815225966,-2.1352006740080203,-4.4540864771695725,-3.9650106567825056,-4.766940597120455,-11.366251013653214,-7.93205486103414,-2.980855343995608,-2.3548793044316727,-7.937687772668534,-2.849570397251492,-11.78741780205166
-10.23324696910691,-7.882143249401643,-9.379538001927491,-2.583972492418168,-4.1416084109104805,-3.3652092907033877,-2.65782847975112,-14.097600141133697,-5.324985069817747,-0.28203419016258,-6.047114227422611,-8.47927687932387,-5.690780204780901,-9.345498763511054
-2.978742588634452,-10.488380734671129,-10.061741791938612,-3.0508874339466474,-2.734005509771129,-1.753999923282172,0.092330367691216,-13.268336441060343,-1.1856334216358435,2.1854220151171466,-11.214039906952928,-7.100069652546869,-6.999480123781841,-4.97630206474274
-0.093247069895326,-11.224613898485709,-8.20369727817081,-2.696264819984147,-0.057785828594185,-0.1322485287088312,2.185656611000169,-10.093577293860411,2.035378697648999,2.9236816661182736,-13.302184405246978,-5.3529583652150885,-8.178242187944477,-3.465491302378551
-2.984708077440509,-9.81917733210005,-5.340444901420255,-1.8820637536391525,0.8569229322659901,0.5725692283483067,1.1834333490889868,-6.7278099984196,1.1834192078862351,1.0339332892902802,-13.811069111670871,-4.631378526517263,-10.217302956563076,-5.848382989778568
