AF3,F7,F3,FC5,T7,P7,O1,O2,P8,T8,FC6,F4,F8,AF4
-14.396679514195714,-8.361718393640755,-7.54879943731409,-10.2354708591496,-2.45122599320835,-2.502746105353588,-3.5869749649772054,-4.799918820195649,-5.368455797854362,-7.954549614078697,-14.238277100851963,-9.95241183156944,-10.188110600054925,-10.659431183799464
-15.586355763750715,-11.109533306569842,-8.998041771362985,-12.228134011311475,-2.631885729667762,-3.3264698922828875,-4.063917155078561,-5.744085530486547,-6.533021053259457,-6.949459575535652,-13.688957076908949,-7.930434641531602,-12.646417178145924,-13.508799620419344
-16.13831171843659,-13.589795887670126,-9.397171072572934,-12.96311541016277,-1.530593694130678,-3.178373209987496,-4.528014391949212,-5.029266266502871,-6.348130934212891,-4.926010324441967,-10.935309614483124,-5.348714745311354,-13.269853386013894,-14.89675885215278
-16.31369498014077,-13.55962225500954,-8.834301771115111,-12.110053007030174,-0.9079253362590348,-1.670614436402866,-4.532882479627319,-2.274355548964215,-5.074836108684951,-3.4704066536832854,-7.623285649199298,-2.510090336027261,-11.457077894388874,-12.84245208611702
-16.06138006025282,-10.26368308475403,-8.166555547187954,-8.722034494483228,-2.2561938318707773,-0.2564585957312953,-4.576302211226281,0.9406470065111908,-3.85823259371444,-4.528931560787282,-7.858446748916197,-0.1398546469489994,-8.670267498754594,-8.10613066711085
-14.871619227939878,-8.046541453176227,-8.027414411804642,-6.941094859661571,-5.427815079216728,1.6412158400638197,-4.376059316502591,2.37035753599334,-3.8704633758342015,-5.424005628329098,-6.701211657840624,0.9405693907565408,-7.287328433328521,-3.7303786355109674
-12.166209372568414,-6.324120852696697,-7.96121088117405,-6.590361828279328,-8.656827046441526,3.461264840622001,-3.6344975627225993,1.1003708005608217,-5.324004772227071,-6.680266319849613,-4.810425039077288,0.4995077257953255,-8.40932622073127,-2.328196605524832
-7.939165558274034,-5.030332078741194,-6.592821635285361,-5.263687065374765,-9.988416447932162,3.6337116099703146,-3.5483412889253367,-1.56100261816,-7.159485220707061,-8.013274897532158,-4.774457076410302,-0.6535891425661373,-10.614232637659192,-3.597227821090417
-3.0697023577979072,-5.010181987526613,-2.8240661063724817,-3.731784017895208,-8.857650511571855,2.2548172880855346,-3.3967422141818817,-3.110701105327968,-7.73227253411942,-6.605604715840848,-2.252846637991316,-1.0153014309202275,-10.950700125893912,-4.431962373552056
1.0274877070433537,-2.637989764338601,2.91852523188265,-0.1980110220254698,-6.444159895545457,1.2040848090516163,-2.880246494669363,-1.907780101860289,-6.0409593329198055,-5.16673799324291,0.7718781536519559,0.5084313582102977,-7.495065515081319,-1.6701125118788367
3.203008994368337,2.022927187220629,8.510255537459384,5.76662688011818,-4.555750947053812,0.0548429647948103,-3.054927970271692,1.4871253098279071,-2.583287375295894,-4.247688967692411,1.7208714565648802,3.533767695933512,-1.3132043724939155,4.884532381346977
3.2390922202762638,3.870796438397999,11.338751340993191,7.726812886523273,-4.095292402302869,-0.69324984517378,-2.7877362354313355,4.740405757565682,0.843789039387854,-2.8482732780841014,3.59967864326815,6.16602120496877,3.948287645940452,11.806851139788042
1.9062395920842867,3.323359674596808,10.080851715858287,5.73374834445309,-4.45457251155108,-0.5420843093701,-2.9817686188299173,5.489864578788666,2.3344158679520843,-3.520147093270704,3.460321826265153,6.29938993050895,4.669753473108694,14.416570662430011
0.41026667436951,1.9359291275895905,5.704999241104146,4.013409483890836,-4.268022549989745,-0.986532562361046,-4.044566719227335,2.9985499140835907,1.2467158503263454,-4.824591376558945,1.188961304032012,3.358116818951748,0.0654965376258962,10.339524737851711
-0.3246021258868881,-1.3283136845495147,0.8849996037178531,1.2430964431966838,-2.754613811385706,-1.581190566828709,-4.400956083535049,-1.4168798736598882,-1.2437274651587362,-5.277986656948183,0.1864600203155244,-1.016329203675037,-6.9887192817345705,1.519689995830058
-0.0281358550245545,-1.890391574631016,-1.791949240499565,0.4876704962670798,-0.4479001379064371,-1.458075268708505,-4.565065930216371,-5.286558545052094,-2.889210372333845,-5.1247042059986585,-0.8612055374956229,-4.090873093608577,-11.742492671069614,-6.838143547565258
1.0458571704762711,0.5855320358253175,-1.5002617018191744,2.496959587045985,1.2540860508182787,-0.7005875503291574,-3.595709719101001,-6.473148541343077,-1.9603588684299789,-2.451809880262762,0.1397305668724942,-4.141713007530535,-10.668280632428896,-9.646468175983026
2.474270175845533,2.186441423617496,0.5007500772683079,2.0642880230793863,1.250452792282443,0.2496592926076815,-1.474498722544722,-4.34515889742246,1.4503570905626288,1.4237554607906722,2.784630394144896,-1.7152795913866907,-3.7172845788642688,-5.283105682552296
3.852195519240202,3.9388901707828654,2.0586612205499577,-0.1190525987885488,-0.396619239606216,1.3666539396247186,0.3432229428328068,-0.0914074580513575,5.411661037628029,5.4790450508336495,4.299997805888855,1.061714808891585,5.691286352502098,3.3617618652202346
4.72759466149587,4.880306328133737,1.8144405154628247,-0.5594311517833025,-2.557213781927365,1.531696813847912,1.6852353146686916,3.9173242999344047,7.500955578377473,8.292550103827244,6.382711076004519,2.423034021893127,12.796766731218714,10.826906973555612
4.590633641766545,4.414014614644223,0.0571656312945796,0.0698171620838381,-3.911614648911077,0.5714116370577742,1.68869724763418,5.432769752375389,6.567062052883868,7.731369040792657,7.156530369735503,2.316122617016344,14.31295972930087,12.70122208067662
3.2273710944169887,4.136786623153019,-1.7780028451080223,0.9225765014642492,-3.8312638699839847,0.0330697106964767,1.024236656359143,3.67989958107344,3.627442351673402,6.785696196181701,6.905431567314819,2.014890657081424,10.253381826677284,8.490367200927325
1.2712406186935432,3.649670341283112,-2.339230591928972,2.5403151917443934,-2.5896707578389,-0.4728600548758292,0.5007552259338423,-0.0349850611416753,1.2399937011224305,5.253514975331773,8.449020407093796,2.6167685223781603,3.807780383348319,1.7869427042233363
0.3144686697394512,3.666537902045158,-1.2113564399895234,3.193487397944533,-0.8794897569563203,-0.5135245982146628,0.5646761938317089,-2.9777796636260283,1.771811507125297,4.477378719169761,9.247837855655018,4.0569825825508445,-0.5550285076862416,-2.34604828772671
2.0903618243082693,4.454156992733342,1.164246410853666,2.744377450338116,0.8115037723098353,-0.0041998797306398,2.250196325590305,-2.669368528349984,5.732649994517952,7.959136235767955,11.084744674211343,5.52016053175024,0.3402034323501617,-0.8886224424738298
7.066075077694935,6.010913956031673,4.120798949398521,4.640889738200075,2.397738458443068,-0.4890992182577952,4.3040421436282665,1.4258746384082253,11.283141761471205,11.2204259245488,14.5654887409737,6.5422059558634285,6.538609982786564,5.257968404366127
13.573959646393323,8.670846481582354,7.170648958185319,8.698741178350904,3.897600106406334,-1.001104140593586,6.399857259470059,7.382065193741216,15.26465206876472,14.421883004769349,16.329590636234308,7.436043615620477,14.873527268888513,12.29470785461665
18.476711310883708,9.189120240472011,9.856494815366982,9.625956396969372,5.056656576635146,-0.7749919631768866,8.002373947479882,11.914621142662131,15.13464213940845,17.072120079937637,16.925299232115023,8.591316414861177,20.73707392767811,16.467394728956087
19.185510399920798,7.434070652315898,11.457076197261738,7.734335811749274,5.336447378158736,-0.2542728101409127,7.61740408060312,12.429483210657883,10.588778219968994,13.739361255662232,14.142657369705486,9.577070021094755,20.76432849329493,16.529580108397845
15.571862821462917,4.672316775434845,11.156407496200847,4.1225351493782,4.315129142002014,0.9583027515968728,6.881198436897224,8.672533763680782,3.800113909856572,9.338088837079455,8.484356103441353,9.246740937348012,14.875195561740105,13.923146362635157
10.151070297735028,0.0635667092907774,8.741791736858222,-2.4126513438255555,2.140331979250899,1.5481609327385757,6.063547522941204,2.8988026392179487,-1.921573721467948,5.145291675887402,2.6403757168445123,6.907248785872136,6.356260453497212,10.920767767338468
6.208853394031438,-2.8819216901145874,5.175148340592098,-4.87542863206702,-0.3814705253561234,0.3122784741732193,5.345738547499565,-1.5350882370960537,-4.1641863027098704,-0.2331658157828831,-2.191389410314829,3.335488605711749,-0.2168867631454032,8.621944017116686
5.289384415846623,-3.932550269915667,2.2808290616090616,-2.909162606557436,-2.193485542441516,-1.259626045175808,6.315332450601474,-2.246408942493556,-2.752272193855038,-1.0842948072123375,-3.4022203794790142,0.4257019240047004,-1.978646990845824,6.51782251512472
6.118331771791466,-5.679473114075835,1.5186296272811246,-2.034662019586791,-2.654433504469981,-1.5496974312839975,7.421585737103512,0.7396080901519875,0.4831286011884019,-0.9411505586984016,-3.5534383230750155,-0.3979119163673837,0.3319127205888712,3.669461299756919
5.906278857181231,-7.310513220411911,2.7523837467108274,-0.7081717032037501,-1.9984665507704824,-0.245681652081615,8.212224943657052,5.099658067230241,3.1966198773771546,-3.241160225653664,-4.23644799342685,0.4761432327978275,3.016601896329173,0.0733348718173059
2.9558055959562965,-7.7054472845514335,4.157542751934919,-0.1086835850381636,-1.184400044096516,2.145118423893963,9.074732070457376,7.798767795804498,4.07855728501672,-3.181152857926649,-3.865942304716796,1.1467441771914146,2.2648069885566224,-3.1420874155499354
-1.670152592891215,-7.0025329776031695,3.5734121814751605,-1.010580053046232,-1.1137674746260806,3.3832412707285333,8.723755515886289,7.114360134310731,3.3627227463560825,-3.730799891816558,-4.233975102314872,0.0109118383520688,-2.859994820575884,-4.7140189319372325
-4.897855942953197,-4.923315144385088,0.3307073331825956,0.2546875501594751,-1.746694291767369,1.3031320727253115,8.134389369136942,3.711999272798855,2.1299862942385315,-5.9704567848686105,-4.543823916055454,-2.585583730070046,-9.61268031445312,-4.334241027908535
-4.2113834870375335,-1.1661382866838357,-3.978520210210433,3.3631006456925188,-1.919248714878309,-2.2685413701090464,7.90765153951103,0.0015109140396685,1.1790287074437205,-4.629154402666151,-2.507749226416129,-4.5134526117880265,-13.647290579623377,-2.8288078556597758
0.1452548563480884,0.9092339550584612,-6.550520490423343,4.762074512934049,-0.2462313201774133,-4.647474694899548,7.131764627831595,-1.7385799983808965,0.4269169490484522,-3.911096915785752,-1.5273563292546457,-3.815266708641952,-12.397189147977972,-1.4276904011039957
5.217381209684718,1.200832559822432,-5.474348786546464,4.895407807878893,3.484757829196261,-4.120427150264066,6.832297015078954,-1.0012889670299114,-0.7723594743519206,-4.53508273433821,-1.516703186056794,-0.6408821720987516,-7.066530403952042,-0.8919981021879249
7.598513779923186,1.1845932722733403,-1.1996224958802246,4.239556358399508,7.689635041305575,-0.0369490931642129,6.677637838124467,0.8411866524713525,-2.7745102369151864,-2.087257524963286,0.0553097528260412,2.736089725687453,-1.6412986099207325,-1.1727405205481638
5.999282248426429,0.0249515112458968,3.796354236861156,2.0844341545986067,9.935653599334309,4.260502160565967,5.702755826468644,1.9708709266594944,-5.011810324466929,-0.8442318059011626,0.370132988647163,3.9149746501924567,0.2451627902262609,-1.6702741787893365
2.0405554500003475,-0.3007698421385694,6.789538717374251,1.1463121929422182,8.860200594160936,5.648024535591302,5.433720943064487,1.777273906735772,-6.122333754267606,-0.2180723554159778,0.7288215458301379,2.498201477016652,-1.971178241661004,-1.7438764137759
-1.2407148498942258,0.3440648473361851,6.562399961916501,1.4539676339955048,5.403251093575701,3.747108214567571,5.028531568451244,1.2504945521029514,-4.811242740986184,2.918860441746787,2.406700591579412,0.3255751203242432,-5.625886688915593,-1.12375991861958
-1.7899399528644309,1.7509956634111197,3.863314456275603,1.7979760531049205,2.149214115157281,-0.7232310739809829,3.97944484086612,1.8311025932643892,-0.874295715507452,4.911481584985917,2.9606066234822546,-0.3602400851042087,-7.193939047953221,-0.0496374999519177
0.1289745813937766,4.49316188483991,0.5122448333314313,2.800151671595314,1.2621294487308514,-4.454503424428353,3.9202032718826505,3.8723897839610704,4.3460565485932445,7.011485498644638,3.810189058688688,1.0146025391297466,-5.11311511419691,0.907716357202598
2.528944697404241,5.6612427864322505,-1.900246276392624,2.683278515703519,2.8249323679749008,-5.066093112115652,2.8345947278734247,6.186459152790459,8.47769518866477,8.542073114220138,4.420791787966151,3.0048196965127496,-0.7733690104054831,1.2479171118099677
3.4425195372273683,5.230421059679753,-2.755591190664725,1.2808617129308462,5.025007896117335,-3.0167834436445693,1.0613090201125277,7.067875875159958,9.38516615604801,5.315169971456921,3.5675552782040536,3.679721479612592,2.9391474868570704,0.8919126211082449
2.271006281693641,4.530428799283665,-2.3532354541366955,-0.5017435086921173,5.8911942021906505,0.5863364054991282,0.1085612299070232,5.790247511791558,6.437413413456184,0.9379546266840408,2.538980510672652,2.391934601672441,4.099107014755347,0.1878728484726561
-0.1667199139685466,2.8935982016965447,-1.4553205794562074,-3.136629102092503,4.8950593274483065,3.3581563010769218,-2.234099283996643,3.1838732616483405,0.9636157160256352,-4.385150282860132,0.7179689165677557,0.1092640792294412,3.0689196936523397,-0.438522359977515
-2.568822783168242,1.951499561583158,-0.8737850587076419,-4.266848368148435,3.01720518091617,3.8553251274675127,-4.079460868955231,0.8240952640037378,-4.450775621749973,-8.64887577323296,-1.3201021323175377,-1.760895135289916,1.7223860404447624,-0.8582344244855422
-4.10046289074791,1.8634411956661625,-1.2272318206687651,-3.6725403706453568,1.4732533755472683,2.4344153574758858,-4.923621996698998,-0.3609550322924162,-7.459020726331047,-7.645191328038037,-3.781407293954506,-2.684803534222369,1.4788844968085595,-1.3050164254531766
-4.710361153694924,-0.0010725548873939,-2.774228121322841,-3.2193565884587554,0.5477884164498154,-0.3094676720574575,-7.013231420088272,-0.8073277505395154,-7.329363955595653,-6.234834552028598,-7.344786115608044,-3.203955450104411,2.001833001291284,-2.163582021093588
-4.889583604239172,-3.3946169078925883,-5.2793011922370185,-2.333975162913404,-0.3202596437936071,-2.510705784509896,-8.20774863244476,-1.7952858935807696,-5.2967978873424615,-4.481413629037428,-10.907184678038355,-4.087275894875584,1.671857545224101,-3.7722492427113226
-5.288628628383142,-4.612097292782285,-8.005659602338442,-2.088989669280493,-1.489835481771597,-2.9429232978069995,-8.471156368529957,-4.229377592969263,-3.6035100456197897,-2.43311427480514,-12.923537677136446,-5.493732600460974,-0.7163536147934204,-6.348042090592648
-6.405426502093031,-3.8621734687609024,-9.94215941058452,-2.7814602623813016,-2.413098019632251,-1.6618040608400304,-8.765172908940645,-7.777544852035965,-3.856049972072948,-3.1840415409006155,-11.907665802402274,-6.955144044105552,-4.626390178684506,-9.815187768804176
-8.289729583080033,-1.9386859687877371,-10.24361522859115,-3.17325700185033,-2.131620582467116,0.9323696780760216,-7.706867538602188,-11.02294223873054,-5.891157703551894,-3.3893397454169407,-9.126466822840946,-7.976821829265601,-7.969785415269968,-13.41318686626728
-10.29729125756428,2.009181402446332,-8.70007213505654,-3.5811027046534853,-0.44472901732306,2.711218859231956,-6.04934741453026,-12.42130669793382,-8.021361292555348,-2.497417421608648,-5.258313610131656,-8.447357052102582,-8.564267009658241,-15.494215270270985
-11.198420001862358,2.9455323746639883,-5.960375499202625,-3.807680032971441,1.591199970494511,2.3870796355773702,-5.758304110715898,-11.284443813043278,-8.444568935447185,-2.012970133263616,-1.7064371591135024,-8.4192949954329,-5.595663330180127,-14.160724644193948
-9.881492307696645,0.6048056536899683,-3.29490509846015,-3.679394127932074,2.50051681754113,0.5396664577805704,-6.093676739245167,-8.11413544758976,-6.620717962159066,-0.5065502671154276,0.6889049189515357,-7.64213799619661,-0.0173142058444057,-8.746058732223332
-6.347082299285816,-0.4410246694052817,-1.9363762239916424,-2.4752402225809,1.7625804696346767,-1.341761277258334,-6.441610120385332,-4.190033096378263,-3.4758764309378893,1.494647089765757,3.6879184942797063,-5.564187666203909,6.154530025125861,-1.0492588715424314
-2.176311337838386,-1.247433804267178,-2.3742232349700862,0.0188273370357098,0.2518328874838369,-1.2858639003228023,-7.685199974944382,-0.8409855826484725,-0.4035812724386627,3.042472970688032,7.2819033863726705,-2.0015579152567144,10.894236052135266,5.076179951831184
0.1708197371353339,-1.8734235471055551,-4.104444221498066,0.4008874153851817,-0.7928973600087086,0.2945327107819468,-8.06575830099914,1.0829268430024794,1.857024315433677,3.96122869563389,9.14796933027954,2.16642796294068,12.874185986750046,6.050386839425589
-1.0237301905668938,-1.655740040414191,-6.041443825127165,-1.3467505182649475,-1.1975507994906285,1.3722046467810516,-7.954074128632881,1.3315413846894817,3.398784593224012,3.8789268458197648,7.7864283362554945,5.160045959127795,11.710633239355396,1.30730204552287
-5.3404435142437645,-4.189076336418775,-7.258294578555367,-5.242726547258688,-2.076247068642229,0.5197211019435399,-8.581547831633724,0.1243650698453207,4.4164478010896,3.2922079176521883,5.126449723179959,5.482985124361404,7.990356567000456,-5.806865006968587
-10.22368547438145,-9.53027984309985,-7.441116865985238,-12.244242525564728,-4.476647672624607,-2.744993561592002,-8.491019726741941,-1.993440046319824,4.588205488498474,2.0443654248297314,0.7116807418069142,3.214439200724176,3.1661286724588376,-10.044719610391718
-12.567095719721529,-10.476761201893924,-6.7461151844069125,-13.784919463250963,-7.833615833639641,-5.233555280373598,-8.013498379707798,-4.249637651800908,3.371054633677657,1.343931542014399,-2.9717658543197936,0.1648312213098075,-0.8661575577460205,-7.948232117369521
-10.81496680802853,-7.29821713718807,-5.34778531812252,-9.534977722882452,-9.988305904627842,-3.971446103372348,-6.458513362430511,-5.817345153314275,0.8603774661344283,1.913796506956628,-2.850161563532752,-1.4456316670945863,-2.5942963450645333,-0.4908164111432169
-6.024013945994425,-2.3201909126769102,-3.2387624461371267,-3.870394397625284,-8.99148415272906,-0.489540524405611,-3.643469507484424,-6.131811018892519,-1.8723162287880264,1.784003325951546,-3.2439780798468005,-0.7348226096362371,-1.754631397953388,7.4214918585202
-1.0658816356948235,6.083536026524228,-0.4877844197899779,5.307343695915861,-5.011867073652944,4.014519471914973,-0.7955765615457462,-5.200084592612456,-3.5004125951314355,1.8901325445099493,-3.927049926450332,1.2169875523569724,0.4165264600642173,10.3388970269716
1.4241744432062369,8.719257425929571,2.4121024010950185,8.906324030407674,-0.4244351776146451,6.007016137221444,1.5179949532573278,-3.627437177277239,-3.5378279842215496,1.948153503013767,-3.4800132393825045,2.427505802012436,1.898825534771695,6.0909337260312375
0.7800131737077285,4.902869019284662,4.614392773664721,5.974231845668701,2.1102757295885937,3.419104566827897,2.0632077604187087,-2.237412521233889,-2.65531072227379,-0.3117431937451564,-4.3279579365595495,1.7595866660158377,1.2021645021261405,-2.732032609651234
-1.5526541279913784,2.500799682370056,5.463381235831712,4.36860197924974,1.80210505674156,0.5862943657477667,1.8178011005564356,-1.4963239807485569,-1.900281650788361,-2.4882391507290524,-4.8174342482749815,-0.2339765022685862,-1.6230447093801303,-10.630338622414008
-3.4032276967994037,-0.573607563110752,5.018517649648292,1.8991953927444023,0.1433771408621842,-0.9670989590218388,1.7147022323372598,-1.1807365367150129,-1.697913451158871,-4.500214013261748,-3.659944364182525,-2.009372740194514,-5.032373039084969,-12.916419159638464
-3.522606801997796,-1.8014881729392027,4.033207718157357,0.9176124891754368,-0.690935900446576,-0.7864910744919231,1.1389811824161489,-0.6105237531049323,-1.6868785859208195,-6.51674122599107,-3.585866648154979,-2.451242344548674,-7.08122476927367,-8.618155811766252
-2.1809055161671718,0.0632555557085465,3.376591568523692,2.5788233796690667,0.1503875526356002,0.8635846929370985,0.7735466784610308,0.6627422206509188,-1.4273799169109127,-5.04409208109048,-3.817834825667459,-1.670063223689086,-6.769442809909675,-0.6979882463307514
-0.4997940261293392,-0.4898410939113611,3.4123575493376443,1.6700337348824488,1.6267325676058293,0.5948201393319807,0.4350982133896118,2.2666119399426217,-1.0174963498199716,-2.464937455743195,-3.0408759612779668,-0.6278257769905624,-4.650102664486012,6.240139605143801
0.591114226236058,-2.7061397063710637,3.86317670205951,-1.127173202335834,2.0413004327067483,-2.27896106024501,-1.0308012440426075,3.120220953609371,-0.852035913321747,-0.2714462653248376,-3.2490651229470235,-0.1724528634342484,-2.2874808287719928,8.9506625791396
0.8078868823149405,-2.6577407935722768,4.219001391127865,-1.667214634380256,0.7823408539101215,-4.782597479830347,-1.6056788546151934,2.32556889997712,-0.8907192613814341,2.24210564977198,-2.5031720109544904,-0.4088974150963554,-1.0366598770196735,7.285248772001716
0.2773615768056494,-0.9996067788913704,4.266598056643023,-0.5449375427107497,-1.0587396461711474,-4.448113922705158,-0.5147527605375544,0.1524360279513501,-0.4807004404586505,2.1447996021915365,-0.221974897164398,-0.7934146792429773,-1.1177232823024013,3.809342989267512
-0.7559518607110789,0.0923340269182394,4.252505133696822,1.9009105494782117,-1.6884894555519754,-1.0878485207280972,0.2199111795778583,-1.8548826618078949,0.8728600759282394,1.006145260625776,1.3801273488924897,-0.6699052196190607,-1.6659476614576303,1.8264853049870475
-1.8548567663770477,1.157977457155227,4.546948208895462,6.491365917446576,-0.2818529924297419,4.785667842964076,1.933747558123038,-1.9848012024198896,2.640231881786581,1.0391051281655377,4.181655106872054,0.224071969396205,-1.6230402144893672,3.153126778346321
-2.272471529819735,-0.5270074075002977,5.129089487504604,7.084825284819546,2.1499788145259093,8.367823885884466,3.563558761430228,0.1432639359971563,3.480003606570736,0.2714135257251889,5.8214957056625005,1.564347418975403,-0.6752816182397581,6.96542672238224
-1.3431013648581211,-5.576108128160086,5.390949592593662,3.3949269090404384,3.43880149809453,6.209247277689611,3.2112009564005413,3.085439792197276,2.571018618952478,-0.6322484731114539,4.5276177554855845,2.6379347768982906,0.5199636788642499,10.366597955719762
0.7473771474294035,-7.978923210812806,4.526340341341436,-1.0164610448809257,1.9397562813993836,0.746925757741838,3.4639459424487047,4.719779846210215,0.7153722178052755,-0.8353978686585692,3.753484752396708,2.8585179685855024,0.931425560652124,10.330992918410573
2.6934118132354543,-8.206666267104188,2.2725954126705434,-7.632429695251152,-2.131993209010361,-6.418881610004774,3.815706135883113,4.115477367841313,-0.1382401988396679,-2.524154448263812,1.5443877615574495,2.300066669786588,0.0170327226780999,5.820612305404364
2.9380862245794863,-7.827558054647966,-0.6056323406787576,-9.778936138901152,-6.757941295739547,-9.984558875486822,3.174915034858951,2.378286794834277,1.2737176743772491,-3.773073537372999,-0.1084486584381423,1.7784106581534649,-1.8503010098562536,-1.3269258610221375
1.138826779910436,-5.612654300829611,-2.613726853344794,-6.628097032321802,-9.48888639808504,-6.591757475294648,3.3061798151594752,1.5940329280014631,4.111746922547924,-2.819878463686928,1.6472655239094185,2.245147521120081,-3.6723140832101686,-7.400734582321995
-1.164316857608115,-5.418543545016244,-2.538594105813864,-3.1471308573446803,-9.039112879824575,-0.6472600927909832,3.345377314234449,2.8239432385493872,5.9750069976318185,-2.439040967263283,2.427779516940753,3.884848137719113,-4.534510736284338,-9.094960650559967
-1.5373116640050577,-7.403213749340438,-0.4408429698434433,2.430266420742928,-5.933891999639247,5.813625995326654,2.316566218550914,5.076357850862937,5.040575021157142,-1.50595718874447,3.644893212303933,5.73594700253477,-4.180633855319326,-5.554193494915299
1.3730789237569354,-5.458828377150245,2.2354815211967742,5.406306501181595,-1.9211550694975397,8.577727169976903,1.7609781295649682,6.241286625881834,1.7639621184728866,-0.6082957057822119,4.206804981277676,6.30829581741837,-3.0841963652217466,1.1377239380163475
6.577875339439834,-0.0729540117100884,3.660102019217444,4.948428933773711,1.176568686550132,4.693819488561438,1.0847904020436332,5.048622526188304,-1.5409198064659675,-2.441604103828753,0.4303723264594955,4.755499402073664,-2.0469621398902307,7.260994416135983
11.364602937599363,5.838804637260535,3.0004132097030176,4.947793859112514,2.307084111864408,-0.5800399203161669,-0.47791886181632,2.1532189220035485,-2.839728138265396,-4.329180360963522,-3.490717340135409,1.574857943012803,-1.6455900005802595,9.643345379626144
13.339838639790932,13.405683466687284,1.055792793088706,4.092501979452188,1.439059246143774,-5.469171206065364,-1.596504242106487,-0.5989128514246396,-2.131573793601913,-6.128258419813435,-7.971574325289045,-1.7961244966115617,-1.8831942101542565,7.380997524276172
12.215868856218066,15.225569731359426,-0.4331943061943999,3.5651657869661264,-0.5397039795514456,-7.234688693378044,-1.8117521199160247,-1.8597322100427367,-1.158682720191301,-7.632666439213504,-11.625164491985084,-4.106844137138431,-2.230521591268827,2.157981581005588
9.902745848803509,10.339651753638284,-0.2540032488026913,3.793382608515221,-2.116639203676812,-3.1756643373813134,-1.2962595210101255,-1.762974170384875,-1.5139569182535215,-6.6065938972480565,-10.531254720548272,-5.129732905702147,-2.006652490137688,-2.9220855539659745
8.882586095382557,8.541527825510023,1.2765223963870085,4.321745239377848,-1.8268056778225985,2.2230951376292776,-0.1334187711039789,-1.439534806133909,-3.150094558004765,-5.195402925949405,-8.897206485311422,-5.5327023137779845,-0.86235682563834,-5.255122332599728
10.197974037309068,8.266335228100287,2.636307759433804,5.618904539739227,0.6874147918240343,7.667840552985757,1.81148788627116,-1.8020291241997608,-4.719021011474681,-3.667102938810967,-6.768989311474319,-6.03822227561658,0.9330666058261912,-4.242611317588773
12.620926139291624,8.084510339649409,2.4407477493135703,5.161126493435959,3.945388603189671,9.870432599996526,2.0930133740398964,-2.869922843031549,-5.163117792466673,-1.8373364244330543,-3.925372265816863,-6.712138244254044,2.60129469207822,-1.437718992452243
13.603337359086057,9.661717946404396,0.6013867372955435,2.847747024248613,5.250514798201589,5.978619978482424,-0.1139689639901266,-4.099296367461949,-4.729151836777557,-1.3674989596250495,-2.9041268135068807,-6.986688278382191,3.3261374476343804,0.7546238109528147
11.256042206460418,6.071221650267002,-1.697768480623111,-1.136966355696287,2.742978128350183,0.1483511449146879,-2.0398137745460336,-5.08105251618797,-4.3771843613075045,-0.6067717939760737,-1.2511525081058157,-6.282873001801221,2.798427917590903,0.8719032779862488
5.874097932518234,-2.92328727443582,-3.09047118222882,-7.518402356736052,-2.6363548022927503,-6.746264812556462,-5.282792595312437,-5.760170321500771,-4.419279037750347,0.832247402351858,1.7600314093987417,-4.591065937367199,1.4648679541406828,-0.6711587143465536
-0.1037058909360872,-5.904885904444728,-3.1078987277158205,-9.057833784966974,-7.296140025728761,-10.359649100574169,-7.308907019130387,-6.070948657109641,-4.040148402801931,1.9560781999120989,4.383815500128389,-2.5084142449671685,0.2893020195410223,-2.186714808876113
-3.6630422848035664,-3.701147714104086,-2.276852050925969,-5.376780932742841,-7.704616816084062,-7.419501337129688,-4.86659944310138,-5.617851425667242,-2.260287054258166,4.170700268051054,6.799479185116319,-0.781161427843613,0.1685172529800427,-2.2546289214182007
-3.191020133367248,0.8054491423962551,-1.3068773168749743,-0.6171828652836698,-3.596603177281307,-3.1826978378165127,-2.8978049068698546,-3.935124794945596,0.7883653110651174,6.949395188589061,9.669234731079046,0.2006412974580032,1.3954313101753435,-0.8311489632217688
0.5097312757077823,10.040479130968484,-0.3309353164996356,7.009283253370627,1.3280502704972994,1.445593897308408,-0.1100645661947787,-1.1112335347176074,3.752752214007917,9.188181152508232,12.231598798153549,0.5724378755388333,3.5309936939581528,0.9875476786980936
4.831721893364872,13.219683080046508,0.996999455621042,9.777219035358751,2.301764535958715,4.292406921344594,3.71883111208862,1.9513245345125103,5.2482905455895565,10.431635436761091,13.061425562645915,0.8063687401247694,5.748872122762736,2.1968954885321352
7.131034952815639,9.769124037189671,2.756528255198443,6.765998244246734,-2.2333574954223234,2.527743857633034,3.7906516847856704,4.061195416983843,5.0313698215089016,9.512542957590936,12.97008625941844,1.3943128795900304,7.3762904271163325,2.879114354869841
6.423074463594276,6.32441523199766,4.317267213274869,4.093363490223259,-8.769092975858381,0.639848962835841,4.29366537274465,4.6493932939185605,3.940956609011806,7.346017989593235,12.097132379029263,2.591512472961117,8.229545299920531,4.023560922068734
3.867790482441899,0.3252879297604198,4.793297191300717,-0.2225704905531989,-11.230711623061124,0.3548797911583977,6.440821744151302,4.208421018967165,2.8510046231973085,4.353815083914526,9.136451722434543,4.261467564401328,8.528434418422478,6.378421702223678
1.7548979270334826,-2.375751955056951,3.9449620510834578,-2.0144466580285783,-5.9372818932385005,0.3090271309454398,5.583929344123423,3.801793156350829,1.9333832587782709,2.8905782716141077,7.375722379432295,5.848688643433309,8.526806368672293,9.452861414878784
1.7323997718655535,-0.8000523288025707,2.5198290940607784,-0.3085290072802445,5.187416927900156,1.2369815018139685,5.278630243626812,4.079735037886751,0.9882567493600298,4.238154874307805,6.544703855208298,6.591113941266222,8.22613575973126,11.649751938216731
3.5517811272650057,0.9912793202772184,1.6065564079331995,0.872034263305464,15.944135057438494,2.423364414987497,5.870215229529916,4.7267667923158765,0.204778277299189,5.385712862083028,4.031515498168523,5.995096227468807,7.436505454840027,11.471606531849057
5.252676822368354,4.663617943946048,1.6545088036427984,2.7472461874583005,20.583130692712636,1.5277087332519712,2.8853546089042723,4.854707339460909,0.2072091202505994,7.488744771779217,2.510463862829912,4.290145614323102,6.095953512655315,8.754587767569802
4.667810126212629,5.372896917259582,2.175003970688671,3.514345177387556,17.894654598326007,0.1574301469813737,2.685384688761136,3.937620806087713,1.2312230426217925,8.20868439695951,1.2308784905326715,2.409864107161674,4.488555407634882,4.838197588362962
1.1256023300244635,2.475248807072656,2.3824957827412234,2.5989299322544994,11.39271726230351,-0.2911995287853973,5.059690465077626,2.381517204401467,2.507122514811844,5.073896229870574,-0.1061209171740607,1.3655096263750082,3.100992002823225,1.5259065454320702
-3.9474971900990568,-1.259109986501855,2.019526987822596,1.6615390030435162,5.896890538871579,-1.5592440494206752,5.005660997538924,1.2163872134792992,2.8250821024551334,2.4474108390488305,0.2406969230373,1.4928475391495208,2.248534805583576,-0.2180580841138448
-7.982659707269311,-7.195549573448197,1.4788356881083855,0.0955152753595452,3.827384860445889,-2.1126932383680024,8.13473641470162,1.2533126219481066,1.8533900157863297,-1.1264073615373933,0.5003119380750474,2.283432568186022,1.8700915391524024,-0.6857238348527064
-9.02958256774933,-8.477549433528722,1.1922736149776458,-0.356373134008146,4.2845790101890175,-1.4339393807936816,9.8146885534871,2.493913862727487,0.7242001359674504,-3.8147604576137706,0.3903166952769431,2.98398015645068,1.7067170638242546,-0.7126696467029623
-6.990814679399241,-4.4299933618049225,1.0846436854587118,0.5790124360091536,5.035854113256413,-0.9201532901586056,7.40433510028618,4.226633756492664,1.035929205090281,-1.724668287437147,0.5522803929376037,3.342705806623445,1.6206135426149189,-0.7184615601839912
-3.495384568160373,0.2182001850624224,0.7440638961045192,2.074325843329641,4.930741934797412,0.3972009529863062,7.17693126406759,5.575709917680007,3.159423420431807,0.4297613218427768,0.4017515342593949,3.703007408804672,1.6321641330582342,-0.5468322690272682
-0.6701604697891241,7.227378792790303,0.0580564377417083,4.661537595386301,4.421516312416905,2.2047258274133763,4.864752009239771,5.991580947023715,5.651908897758631,3.1756589349578226,0.6790923379358085,4.366040540152714,1.618708110667498,-0.1489704860234759
0.1921103072460965,9.202697649009329,-0.5107478566484822,5.110485204657722,4.235593554263823,2.710178120005356,2.3927445021398954,5.432355914648486,6.566157128967027,6.063216315923961,1.1798400221058114,4.9903266777084125,1.129636139509417,-0.0931081824220783
-0.8042560200183484,5.090459069584232,-0.4105661052432587,3.172382590349261,4.130052837198416,1.846814888362219,2.5888823926474123,4.315788186230927,5.460882840802664,5.593731819720123,0.8913208598010619,4.792779889970273,-0.2576155750455129,-1.0454495648728417
-2.540450885277268,1.5150730069013758,0.2643429285041065,0.2227933566678437,3.1885662851598635,0.3565182093063501,0.861460766213406,3.330300924959389,4.0438992536145735,5.0399446945331965,0.5842426087171609,3.404980751636095,-2.2879706686617505,-2.687210505410879
-3.7779570689315527,-3.437577575747836,0.6442038502360443,-4.620934992124964,1.124853697082564,-1.5831910351857492,-0.2755279160707034,3.059045297415767,4.602507301144936,5.116174081854453,0.313819548333451,1.435038043699684,-3.8982495948310216,-3.4975432253005314
-3.974909351272493,-6.202352306761433,-0.2080355281232715,-6.834781182684585,-1.0948761982239184,-2.5728719137279272,-0.6579135421478968,3.490705182639135,7.56310234376779,3.2449238285529187,-0.94257469674249,0.0219184094366262,-4.069949586837334,-2.1271947371660227
-3.610714484692248,-5.692733602782937,-2.4184345425064047,-6.081761536901051,-2.10397302598132,-1.9559496972682264,-1.4042081397822517,3.8109423193187153,10.528704812856953,-0.3198132387355855,-2.888443749074879,-0.2605285644988719,-3.03694435360363,0.7568231125714595
-3.869692084169417,-6.699936966823643,-5.117861843875159,-5.148253887846599,-1.5074138362080154,-1.2892595525766222,-0.6619012524169622,2.8691609138575,9.927343923616275,-4.402507668144568,-4.848434747214641,-0.0344480492596632,-2.5518890416191784,2.2375363638133168
-5.821997902710138,-8.184640837749447,-7.130510233330825,-2.899420335088487,-0.2616874499716919,-1.1458605894032166,-0.0090286086355322,0.1405784041496538,4.039052620194956,-10.619742362097668,-7.899681596598814,-0.5639898152331186,-4.588927552827769,-0.6577108191547927
-9.555218436611618,-9.419393726559488,-7.8851783894364065,-2.598030567706425,0.2929465261260491,-1.0278771072677717,0.3919092520107259,-3.6275255694515938,-5.1864123886305125,-15.139012803172982,-10.39151069176955,-2.4787743952198404,-9.4186409279499,-7.997870927867783
-13.87375909797336,-11.031642694551438,-7.751896228479738,-4.69942456857164,-0.3392378482598581,-0.816097527304,0.6542405074646875,-6.798499257965285,-13.189312727767849,-14.095379309493488,-10.37629239559396,-5.009343659311082,-14.872247232243552,-16.057115301921677
-16.909667977037262,-12.115527748431424,-7.592724131275824,-6.113871880806296,-1.5313447670520732,-0.0342569956364989,0.2051438394600613,-8.069372500360704,-16.00031423232994,-13.077749531757153,-10.75643856868135,-6.549687132619694,-17.756585450680525,-19.750271288962125
-17.31493642898553,-12.683630815571036,-7.998042844882843,-7.646809799209456,-2.2686766450751503,1.8123927149765395,0.3861534787715994,-7.498314229536291,-13.047588304195308,-11.018931739590483,-10.857479215214438,-6.1150653155756896,-16.422003571144437,-16.617991771098197
-15.1488278534418,-11.493512675961416,-8.836269061724018,-7.22080137339224,-1.982954512967618,2.7940366718585974,-0.591034815609835,-6.40852589861146,-7.378692087650592,-7.849753273119124,-9.712182309755796,-4.3622880381952935,-12.261144693500784,-8.954566580212363
-11.729788005626762,-8.199018723742629,-9.375510651128783,-4.234929221645702,-0.7817022115216368,2.205471769028731,-3.5014085969313453,-6.24463658039044,-3.234731307861708,-8.810311249582066,-10.669253964630276,-3.1485385644792787,-8.692178426231422,-2.113028525492741
-8.568319683700043,-4.068162790977989,-8.785275969530513,-1.5717994242691582,0.7636037823748048,2.004761923226046,-6.484664134059885,-7.37881429355463,-2.987108262365764,-9.12801391066473,-11.72344276833974,-3.9035073350901968,-8.345407666149187,-0.318471136214276
-6.30029779511744,1.3141779135684175,-6.662189036253588,1.3607600751794915,1.7790447107506608,1.900244301137952,-11.11485326017161,-8.848354078054111,-5.773154934843676,-7.292268111798634,-10.950468031192502,-6.23599533661165,-10.810138953193682,-3.504126796441652
-4.516262975950111,3.0799805519049177,-3.31875390561275,1.8934627072942876,1.218496249817953,1.949764926742219,-13.797802704104532,-9.15908008201474,-8.62888996540571,-7.112433578180684,-10.618466726335413,-8.101687073416372,-12.90354801902095,-7.777793170593672
-2.5265628583359927,0.6248772403174947,0.2833987602697156,-0.6923173406926032,-1.6023672141484546,2.241125461722483,-12.642121848007545,-7.447435620470003,-8.935465331204528,-4.861872064882272,-8.566365956476087,-7.50632176200387,-11.30768626861684,-8.951609850653188
-0.2398415864543501,-1.2657730613050553,2.9623680039946905,-3.0560269591845586,-6.115681918079675,0.3532925645653718,-11.783720756364128,-4.1307180881360885,-6.187280102080496,-1.026869869045827,-4.233577722675774,-4.27897633442171,-5.40080106764372,-5.971680639964781
1.7038195030532606,-3.791628028366615,3.950943494205936,-5.98579742174783,-10.183210773491243,-3.136824423965609,-8.975802101277472,-0.6535981520117211,-1.923598842089465,0.6935392287199276,-0.6774686867064049,-0.2859841049692626,2.077689224804089,-1.3516697900409511
2.6111082006952917,-3.830620781948275,3.376787414252526,-6.473682628886145,-11.244095605240307,-5.353568661311139,-6.764385933577053,1.436923815776968,1.7645984459920463,3.835662974534244,2.2093325264736663,2.1685152325758352,7.091228169725731,1.4795907293045545
2.4876946270425577,-0.4299777948371066,2.200719243918975,-3.754812680714665,-8.457263359577588,-5.405799256203296,-7.208842990882214,1.4837922110201056,3.7653650958870273,6.986678416828468,4.827960314307755,2.324375988247077,7.409684343208628,1.2828129522111134
2.092950790966391,1.7465792914818723,1.5511983054882703,-0.8994457359293198,-3.9544293078168327,-3.5113165732585907,-5.856860132098125,0.1612981555837578,4.39062401859476,8.203332353994014,6.595291961578105,1.51178369893427,4.245616895205536,-0.2493886264248672
2.2373330192158427,3.583695292805525,1.9010072158700435,3.020805457293796,-1.615157148769029,-0.9180609686949276,-4.948961882139919,-0.9459715289589354,4.664841822772431,11.444834036951027,8.198242431514597,1.7770031331697318,1.1808497242073948,-0.5264201977983127
2.990342891936685,3.589009980342566,2.750099763477463,4.089737946280509,-3.9286753831954826,0.6756430878255966,-3.9814475002878535,-0.4183490882466323,5.265377102549284,12.33160971640304,9.432072393698729,3.895455283686093,1.3535965877213307,1.316717823852919
3.5377661437889287,0.8480103318015548,3.107300053928995,1.6069948179651248,-9.577232642314918,0.6400333210119807,-1.1943252131324886,1.961918527016316,5.990218780985835,9.67234396548913,8.884681696458703,6.613224671849821,5.1687034980972655,3.728701998703212
2.8399741678190864,-1.6184825109841092,2.372108654929072,-1.3011868579715575,-14.12509894432102,-0.0136172752394732,0.641969828097068,4.97775719412769,6.025207123607842,7.684849443523237,6.632889026864208,7.750006423928674,10.192156700730186,4.425570601322875
0.5637812394250616,-4.399372532641489,0.8468332348122303,-5.769166556727516,-13.519113730515128,0.7579485100322602,2.9375283557448943,6.789222995800088,4.638258330344389,2.3953630623850115,3.534822041188753,6.072168342681454,13.071107590532,2.591644740391253
-2.4612672833142284,-5.488119375726847,-0.5547221340823434,-7.320397827896779,-7.430352656550095,1.9867553163599951,4.427850779239086,6.228180483909924,1.7492053355420047,-1.566107532303723,1.5734058040328611,2.251144244173126,11.870633592610645,-0.5271217097577967
-4.6518167397372565,-4.208074354338816,-1.0969590185305125,-5.295636652830666,0.5408854325156192,2.8369696348105498,3.1714309229622044,3.5930998647272894,-1.9245270912260397,-1.3969260900816232,0.0500030862230233,-1.7941038006226293,7.183295343547799,-2.959152581078058
-4.701852767598936,-3.428125682478944,-0.7751365485581445,-3.669399751482172,5.943794566228792,4.47715428681764,1.719916768038415,0.3358627700542129,-5.135497162621398,-3.127714485462117,-1.6047396646976675,-4.390625080020033,1.4918285671742382,-3.726485158073515
-2.527748221910901,-2.5214398762375385,-0.1801917061807003,-1.2702568361971232,6.981568386756386,4.798481387976435,-1.0105991321370362,-2.0691834352357183,-6.6498104843473484,-3.3160500902428875,-2.337955012406298,-5.100914708841852,-2.5161008211947617,-3.314278034104426
0.5644285559316913,-1.4824560047037885,0.1000266844647654,-0.337106722923894,5.328613107351494,3.227073831884276,-2.9117083288024945,-3.1251338848515147,-5.892755671739028,-3.270596641980327,-4.334228048642737,-4.56871139119777,-3.496855539389699,-2.7599812446883085
2.6775051795883726,-0.7273705593949296,-0.0667705904982014,-1.5177596866089222,3.8446778373557,1.0041420253460087,-2.2434710034786667,-3.396680741783836,-3.4042943929358067,-4.786226980122495,-4.681803608564707,-3.679589784870093,-1.99950549460997,-2.577484891485856
2.595221105959837,0.4552323187308175,-0.4119889861586685,-2.1185566145643917,3.6968162779374687,-2.1827842626923584,-2.053463268181364,-3.7163185237013607,-0.719494647574944,-4.28681505745992,-2.7874716748788995,-2.923290580331461,0.1497597409040914,-2.594217663690678
0.6631497184076025,1.9316046889938232,-0.6400905156216865,-2.8063550735291125,3.6804010671415135,-5.760348477227058,-1.1422845656583562,-4.301755147544942,0.4777411843772157,-3.977329322501591,-2.4904054062232626,-2.377385853095493,1.139302009033635,-2.57111429636252
-1.3556854945501016,2.882725246629576,-0.6676060428616459,-2.50861976042822,2.0676988015079942,-6.463492433172293,-0.9690962894105702,-4.586340759579581,-0.4992416384391127,-2.8838934907777105,-0.466592088653173,-2.02862757145623,0.3184569844338512,-2.646173398979748
-1.3930415975665156,3.328584616679851,-0.521001710680018,-0.7688776401185443,-1.218519234169534,-3.806515424241774,-2.033096903729331,-3.8594455068171953,-2.7538881452820405,-1.0798151934497904,1.8292719894876024,-1.9303128182291327,-1.4992091989288667,-3.0163862008919797
1.5581329494984857,5.233004634797904,-0.1094691364594879,1.956747585724541,-4.3646759705201,-1.0248569165207344,-2.1805938378820318,-2.0631892708935986,-4.367522511954011,-0.0510746135098159,2.094180017790636,-2.056381945175921,-2.7185689477317894,-3.2862409792937517
6.70427708501216,8.573444987642771,0.7789279841359331,6.152071209869972,-5.386092342604847,3.0301711509491494,-3.2114705302071256,0.0193626443950307,-3.782317470446369,2.999385682680729,5.342750795152416,-2.143419587893586,-2.11081767468297,-2.3878886616420125
11.815145047897976,10.33331595566597,2.193948567772804,8.483795757055642,-3.859426511326099,5.405246867748552,-3.211989090307462,1.3500541500640963,-0.9335776759177355,4.11756267461739,7.5832899852672435,-1.8230300588035355,0.3880744031406458,0.593497186479798
14.491979818917828,10.741493952729224,3.7575739276681936,8.777703496605316,-1.0123913122601778,3.69645779956677,-2.4231694001219424,1.444994017005456,2.77032509040572,3.186138430032303,6.4740713812047,-0.9684009263364216,3.738042017909749,5.358962035369416
13.600084931466329,8.756683739446695,4.773565265379947,7.423765503551206,1.5369449593837563,1.956564914889505,-2.8713911573360824,0.6973091223350494,5.541967508649787,3.939288729574549,7.389276166258903,0.1268050434895578,6.572158961353882,10.17409668825175
10.00701296519463,3.554338513983543,4.728389573926501,3.4492407769244853,2.822973034835777,-0.9550681959023504,-1.667150684479862,-0.0060343751066493,6.429584093341303,1.892975207990656,6.475880072930062,0.9877284551147448,8.076398028035982,12.911683216989289
6.135893427256283,0.9365441000822572,3.7792710603752617,1.284113115107169,2.4806726261329697,-3.653153903318013,-0.6132830227308987,0.0254728033401701,5.720173354208202,0.4340823695975265,4.254946694572015,1.4172296154624269,8.370377673667374,12.6346644068678
4.532574680612689,0.7484514401265605,2.7415643944002746,0.9310457318899078,0.2913556345146162,-3.337821814557492,-0.1968814309769028,0.8517564263153865,4.400507350003121,1.7544029025103574,5.508699172655315,1.6961467022000123,8.185930060923646,10.396567596349868
6.282980451101506,2.5792867006095577,2.476548805318382,2.0785643136087515,-3.5740835377183267,-2.592667248017455,2.00571517310994,1.952213728644552,3.295771297861906,0.3761084333435688,5.027268516198978,2.270829757648269,8.114402765822092,8.48985733864308
10.279974535705154,7.889374686287765,3.1501279689813155,5.895034539877111,-7.745293741445693,-1.4985276708625717,3.5427875028653126,2.587033971585825,2.577894175383643,0.0074354746854659,3.403347124639033,3.212698808374797,7.992056251162008,8.66706410549382
13.855444606228543,10.08915583975338,4.049233021376487,8.05942514089898,-9.62697140776456,0.3178699869895838,4.946695769581802,2.2104596583051337,1.8616101759921408,0.9271105432276032,4.483961876684952,4.023047074326637,6.953142575500728,10.772936748098896
14.427109251431627,9.210786551660505,4.2194452332849,8.706004052176981,-6.973767538567143,0.8599590037522958,7.336556184971547,0.8098853147549034,0.6612524297185107,-0.7021988302849993,3.0842640057253496,4.051829020075234,4.2414138187065245,12.917877523751567
11.1344248041208,5.842644259561738,3.411639296902812,7.435087347290166,0.0240523557317038,0.7013323094832049,9.30035554998889,-0.9171994890054992,-1.1186301828257204,-1.150346217089245,1.1236917827273367,3.1577572386415618,0.2078541747176787,13.037089226910837
5.418913012285905,-1.71911644837211,2.42289918051968,3.122790712579301,8.291902307038809,1.190981875233136,11.69429933881481,-1.748681833700493,-2.896186052880731,-0.8384830884561695,1.9048215001648836,1.926508319371047,-3.4361572389671027,10.540682962126814
0.1614098921904911,-4.880861856084776,2.383198891762341,1.1970576865009308,13.907080575464786,0.828344319220615,12.43630876511122,-0.6268340365424301,-3.528757725826738,-2.2478496762682,-0.1552126502303107,1.1583323674766302,-4.59627258519615,6.738792615726247
-2.0950644839191668,-3.5631381044083112,3.559788673169429,1.4695771718671882,14.962849017263007,0.3522865030905276,11.025709390922357,2.4383442912924984,-1.9571293034246136,-1.8616077717468773,-0.6496020361914423,1.0878996502229723,-2.415482253972142,3.776700313718493
-0.7130275102549746,-0.6373187554526611,4.852475282400025,2.7645200883126275,12.605532081052504,1.824005649937044,9.022266239964637,5.992258471507931,1.837469845762044,-0.6214524037085696,1.594906917549931,1.1350191684466822,1.81135392671937,2.991782392021733
2.695255052602402,5.980517096506449,4.620858703653404,6.325573908599175,9.356723057336506,2.870808836096552,4.807572971944125,7.866639727044827,6.257934076858589,-0.8638010886623008,0.2699593669173927,0.5006257381003643,5.356464161829109,3.976119936944702
5.377540907858936,7.583108253117207,2.20687122897742,6.681592682358813,6.5977214152500245,3.0638258682595603,2.652621749401915,6.711979860336708,8.652765001298967,0.6085089008252575,1.4609638412596937,-0.939547211305772,5.958338100023369,5.012358366476594
5.266666831558798,3.660290755617025,-1.2720409670122803,3.639979981108927,3.8605607442089855,2.7205552645630267,2.1300319160416663,3.1559473887266307,7.023119436028768,2.408934487321164,3.024143738389222,-2.3511841447866537,3.3737613969497677,4.510729648208152
2.29074037437794,0.2576753533346755,-3.705135046807122,1.1238530345975184,0.4526368362805151,-0.6334461230500636,-0.1774518484559622,-0.4893851740564088,1.7590894111689863,3.1186499378413584,1.07813863334834,-2.61312978739803,-0.632321482931367,2.3445711068306068
-1.6985759079125842,-4.6419938340286295,-3.717031549837202,-2.051554792632955,-2.7481258572400407,-4.321871080286522,-0.2413830326021554,-1.878507590985976,-4.131993071346599,5.911797965410146,3.181216784967169,-1.339038804905357,-3.677037676367448,0.0291520375824703
-4.278306514848183,-5.79305417568565,-1.7792463933186582,-2.8093018035953623,-3.70664690666252,-5.268537288756266,-0.6619745676088629,-0.3275459294685277,-6.878303725761285,6.828354801761478,3.629927005671916,0.7343798947690985,-4.263521170465133,-0.4956179257488315
-4.13051483096578,-2.1323197641646603,0.2885521195847076,-0.4158867074261824,-1.6451318242491624,-4.111283881789165,-1.0188923661097429,2.841355758549625,-4.698666598769755,4.920853651173782,1.2966767594270077,2.366834105794503,-2.349242887430279,1.38706957296759
-1.943742826629972,-0.0835775369244686,0.8954569067099101,0.560373703463688,1.2854356071762183,-1.0643034321343166,1.8954387609454144,5.504074759957767,0.7118686337401314,3.8522256585420167,2.2065056614341687,2.829724391671654,0.9915361937804336,4.132470331038775
-0.0094675164288275,1.6781820003207064,-0.1577608028045887,0.8769029720566633,1.3632637198670352,1.7029742408400663,3.830606739077681,6.33957410078542,5.2974384733796,0.4305095517020444,-0.1123922663053624,2.34435915933156,4.124564756237781,4.975267708756618
-0.781711963953093,1.2724111359620098,-1.8903478528983653,-0.36643029481698,-3.18329791487146,2.1395467226120592,4.560853920729304,5.470305164459319,5.589483719816293,-1.985952390537091,-2.7420756754549767,1.5945500645716209,5.29703883095555,2.065750197020705
-5.229190516000898,-2.4932390959454453,-3.2842482124445453,-4.079041634370547,-9.887565619858918,0.9386536759664346,4.433021228629847,3.815951038195784,1.1867838487467424,-1.5649163062703586,-3.015954805761197,0.9141702304772252,3.2517509232592943,-3.9306673320903656
-11.94657779742247,-5.097354046367077,-4.103186115391509,-6.947460734103951,-13.501744691190552,-0.4349877999711743,2.3477789360544583,2.047718503363896,-5.115113042744461,-2.8743124862068825,-6.143589729382422,0.0292640704156355,-1.844711407501805,-10.199107274924671
-17.68871074137145,-7.221559547412034,-4.678327493452713,-9.367154068392958,-10.189570139943513,-0.3559937261152146,0.3762026690778109,0.2196986141864272,-9.471204249312414,-2.916353698574267,-8.31980586374185,-1.412513006663488,-7.860020144734079,-13.87713510671393
-19.25641742718797,-7.674830050244597,-5.146536634070458,-10.174052566738526,-0.8030932130086512,0.5527534481905567,-0.7176638129979336,-1.745072894203176,-9.612378124267424,-2.838533405706739,-9.15611136589061,-3.159384982933787,-11.56421204870857,-14.123018422447911
-15.705636481336043,-5.508852047490899,-5.156337169341441,-8.585509094874734,9.587637272959284,1.2056818071172204,-1.7527848809322326,-3.4890960369497748,-6.064697746183242,-4.20274428257597,-9.930634308903889,-4.326718618404684,-10.870468140229008,-12.42699442545512
-9.30830484389014,-4.198826115089822,-4.3996258584461145,-7.663192973674775,15.384637136098675,1.8265626934382089,-2.7593627176435054,-4.344736094987965,-1.4133942021517072,-3.6950683045067754,-8.726645619955645,-4.135657041147283,-6.776333414673104,-11.059817066799797
-4.2692709846075445,-3.2585971187577023,-3.289043155802318,-6.967272958525002,14.226806628285544,1.09349049034599,-3.893314667471981,-4.0378490863929954,1.5428889573675375,-3.5773546738740083,-7.472498851614461,-2.707739375522749,-2.9820152543844074,-11.183516522642236
-3.8261764396055193,-3.1793897744646946,-2.86625250443592,-6.454536576715294,8.036399622641056,-0.2135749078164741,-3.885734077910919,-3.1133567879260795,1.4748391937744143,-3.5996956358609635,-6.434823920487743,-1.0918345613299891,-2.97517502964061,-12.269823685708374
-7.8406506065518755,-4.666485720464153,-3.8578802983431615,-6.693202884424076,1.0999707655141575,-0.7165934000679945,-1.904152102597291,-2.4728650150853757,-0.8042305135152645,-2.044329942615514,-5.422082843947482,-0.4201558013235029,-6.9086626916082,-13.083337023836975
-12.879851170850586,-4.303452729485559,-5.7944845994253456,-5.278612740628615,-2.8903081843099017,-1.4647672462441164,0.9412933969675468,-2.4105181062674177,-2.92040623343334,-1.2552598255010576,-5.335109482453755,-0.9307964432846488,-11.261802646947013,-13.030796863631965
-14.875380436467474,-2.2564187357127654,-7.167668142290765,-2.2549615198245307,-2.756575433503798,-1.5334218961097863,5.240028945933979,-2.1935352635326666,-2.5196427397874075,0.1501271587548806,-4.172168618615999,-1.7501230741077904,-11.971880272453577,-12.527263872548076
-12.242833102738048,-0.2550433481490928,-6.608469495460696,0.3651941502621453,0.03310306064607,-0.2703874139594722,7.526652518282124,-0.7743421884630663,0.9620860187571908,1.959231172805028,-2.083665737703689,-1.6500802493964244,-8.348822048916311,-12.171671544535158
-6.869553579224913,2.354559344774603,-4.021483548943678,2.998427658867445,2.545345143138249,1.012061494108698,6.685788802423799,1.965797963629072,5.582694159785618,1.5339607597314828,-1.020456113924146,-0.1132056683581197,-3.972811433936186,-11.731791746259304
-2.193613582491494,2.97815500462739,-0.5933951051665076,4.929572253950115,2.091854037279276,1.683200895175561,6.396435946096513,4.725195563720391,8.108149673466741,1.5498116129365018,1.42763276155401,2.233999093416543,-3.3708829896072388,-10.06750403972785
-0.1424797240970718,1.2284292800253855,2.3284927812084817,5.755571335928446,-2.1467745731517027,1.5512283932552338,4.296211158891435,5.708711018282187,6.5942239432335725,1.756717545144672,4.41334930134724,4.179669993835248,-7.36468570232212,-6.142332651524527
0.3452948139497778,1.189530714428981,4.380953324067697,6.588680127790494,-8.244400140344801,-0.1446198334549151,1.7985294228148292,4.234674558570859,2.2835125571957064,0.8737086275728367,4.662200757298158,4.944273067627378,-11.59000978702791,-0.1837630583736995
2.00498530366486,2.362733933391726,6.229102922066168,7.131898005131184,-12.16952045738195,-2.070123828573124,0.6486151807461014,1.4911235795089866,-1.1127097889103794,2.362479044722814,6.64657486428172,4.73978634601194,-9.970565928488156,6.1311859229004
6.487637403763884,5.623037040081489,8.505914721397716,8.280567484515522,-10.150147555884075,-1.3248018618191106,-2.94557945683149,-0.3923717058795191,-0.5361870695046775,4.093804478244932,9.13602470732441,4.4178174692050405,-0.2567549156716566,10.723043562307474
12.730618039789803,11.904814107117474,10.782712843608628,10.251167069338154,-1.6097221776105215,0.8484641645799855,-7.131917131818584,-0.2044060009904456,3.507467158406186,4.393761354211362,8.5133756649624,4.608030944531194,13.408454451423133,12.529096922980337
17.838904976613435,13.325066451277037,11.703537904682882,10.141420090248456,9.558590497541942,3.035383018131059,-8.202379540405998,1.2490310931172957,7.045936459931895,5.695306909875272,10.10930363063841,5.170135697597914,23.369178888450318,12.085086269501597
19.48659185348309,9.827991213591703,10.24314633202529,8.013748045159396,16.973900962576828,3.728107565267716,-8.153586103287552,1.844597931403321,5.967054967937578,4.406772306074685,9.520221798257886,5.4157634539001975,24.33471370180253,10.817390601095454
17.586567619544276,4.5574535608297815,6.885024845135831,5.067469677363203,16.158146863618676,0.0435226697746786,-7.03250320815215,0.029167797163943,-0.2600111964938207,1.419892618039386,4.975274961259238,4.807335708281194,17.18923068565358,9.772783890207007
13.920060507331208,-4.364825818637592,3.536821505773723,0.656819797190879,8.104996587262619,-4.970652360407603,-3.195147757530243,-3.781980791215677,-7.836772457318496,0.029691449384485,3.4249657015411725,3.4537813714385277,7.730291710174278,8.998738547364084
10.460433577129455,-6.859083334157711,2.1914824582319774,-0.1185742206103329,-1.1419994579066142,-7.202035812824599,-2.999802236714441,-7.481691192156177,-11.586717541220947,-1.551089886218122,1.5015396679767417,2.007970606109531,1.914453737136526,8.088142943336567
8.16084388971862,-2.079011134951084,3.5003701086187995,3.2374613356794653,-5.056758501439683,-5.094440330122158,-4.997601662928522,-8.899425645691302,-8.997890772753982,-0.1823271754713532,0.6627190471139239,1.149165285038876,1.8877590950196712,7.175709392655827
7.106728392967199,2.7020083846672067,6.434283498070917,5.100007308666806,-1.8505239703955896,0.8293050401428194,-5.293416342259933,-7.370588167293866,-1.8927813768608488,3.4019592265698746,3.484298590303064,1.125422672430597,5.67098500516754,7.168738378040196
7.297126315685931,9.961338289337254,9.1536909218918,6.575007520123453,4.081464446576913,6.667679077269425,-8.910269513779506,-4.063666515409148,5.413661377233588,5.721925361641124,4.306190292892258,1.657617243098283,9.74111181811082,8.787969674252556
8.78062282566935,12.128580998358345,10.205849465088631,6.076707858772556,5.927045587341833,8.116264508952046,-9.777187433399328,-1.029120042107905,9.4767777908187,7.785761415875478,3.691121694252818,2.1627058979476588,11.611223762362936,11.338766546222931
10.943755022667863,7.834460118881549,9.131786183205348,2.5163504075035306,0.3721248268807162,4.159128210343154,-8.250409368859783,0.1331264643037624,9.640749291553355,6.897379216912268,2.3904204557647057,2.0871748683816955,10.515654504274774,12.635177734583497
12.075359443979025,4.123428427801459,6.322883092395056,1.0457333715217665,-9.386311746634258,-1.884315029078636,-9.812394157336994,-0.941559132357515,7.349777457371157,4.181298040628531,-0.7974643099880632,1.1752976570571114,6.736884918400605,10.52117702687868
10.252601715428632,-1.0716815258420125,2.5958726236143974,1.1798805951605915,-16.13028697163203,-6.540591243413579,-7.915924362797627,-3.4451124612382635,4.195764451930536,2.6095881055416505,-3.764888701061902,-0.4275317580441395,1.1567953116276684,4.832295805438736
5.085445558692719,-3.880611548669929,-1.1136025102270253,0.0103391101515121,-14.45733569071938,-6.903186645565866,-6.750656981984088,-6.015744358811247,0.7980253288649166,-0.2215597420554419,-5.525807868932262,-2.282004645304127,-4.502468396025542,-2.014095029133493
-1.4050950863703235,-3.169323268478873,-3.978076048322088,-1.6426509918618415,-5.008084391812893,-3.2638574012479507,-7.004135943152481,-7.4703475352566,-2.773322597911552,-2.367344631164713,-5.918447845298709,-3.915384662372212,-7.775449701051038,-6.56570737766927
-5.983337724729736,-2.863776620074469,-5.609304722130091,-4.213357849900159,6.278351664021521,1.0313182471876343,-3.3309566927234755,-7.346697153245259,-6.071668256761342,-3.658175281275347,-5.900191101249682,-5.056680269330848,-6.783016024643686,-6.90502685877739
-6.73062104752897,-1.7298682757950563,-6.365170521935745,-8.117486133247693,12.871883176430984,3.8001185670804025,-1.7371495084872397,-6.089677997701799,-8.164981642177011,-7.571641234031764,-5.812441760522285,-5.679978668540308,-2.041443765495288,-4.126206124288494
-4.735486252781769,-2.650009607191463,-7.235832025733089,-10.110410115941162,12.179082444851533,3.685262305237068,-0.8942961452624629,-4.785886058461529,-8.442311119344268,-9.306531238421876,-5.497354491000663,-5.888549723976624,3.129859545374103,-1.4465810919179063
-3.344443670415444,-6.2670318944187136,-9.15930365453545,-10.179429065885593,6.446944525473839,2.002630006599404,0.7653408182313003,-4.498509761679543,-7.282000658807505,-9.119707704310398,-6.862786174100364,-5.8404659909851375,4.567295098954389,-1.6637296903793128
-5.495678619740573,-10.084860500631905,-12.208419690659523,-11.257066190097245,0.0727403463742462,1.3860422795639278,-0.4354059146772789,-5.523397907907835,-5.728591811854898,-10.510095038651963,-8.617912067281763,-5.814932847880513,0.3348994261930045,-5.052878930432698
-11.33871572544234,-14.965624786505009,-15.372612459378487,-12.746167834184847,-3.7969732561499834,2.385139023369753,-0.8317075559122565,-7.067718030621535,-4.518934004874126,-8.857313851772043,-9.248352612508546,-6.244806343764992,-7.619231016661345,-9.376998617983048
-18.071387770464423,-15.294376609174025,-17.232941296888484,-12.563518241916697,-4.640366075453429,3.2277605530717564,-0.264760856585323,-7.680932141619934,-3.541335471169361,-7.449276125395321,-9.615138971752335,-7.471172858316351,-14.714619824737568,-11.853163978642868
-22.021748639453165,-10.313695504732996,-17.024908226684374,-10.976791460276791,-3.60999986020056,2.5206228412619653,-0.9044388033591586,-6.242994233448115,-2.275090170618654,-7.655294714242963,-7.93519274194468,-9.292245093826608,-16.953793617072222,-11.319091031895908
-21.203173332557924,-5.971783476196928,-15.16583034030593,-7.728093005010923,-2.0061119622442902,0.1251764523968234,-0.6352271940201905,-2.813310651940938,-0.6199743383487828,-4.828004985739672,-4.237570446215063,-10.756068194945328,-13.560697563720424,-8.844489561486427
-16.37021831030505,-0.9122590175557436,-12.748594741889349,-2.3312391293156587,-0.7546440874690177,-3.9198149265785736,-0.6874305051878997,1.3603618924596788,0.8801214927480316,-2.72928945046036,-0.8310925554010284,-10.58813128764821,-7.109733826907032,-6.516457919835716
-10.009857465588285,0.402889107851087,-10.445821046427824,-0.0393448818855034,-0.7680197955268966,-5.860836025641253,-0.4881842322528554,4.754698156991168,1.6522953050815232,-1.9255863837996616,0.8835275753835877,-8.085678955070847,-1.3430614733743766,-5.676760248388263
-4.397612432571805,-3.347058829929836,-7.873359418245798,-1.0557474870894987,-2.9707423351883904,-4.368030731902203,2.2753370071243357,6.6855039067883695,1.7739961542294225,-0.4650620634953071,1.117510061846593,-3.790761126075665,1.3985846569634075,-6.1401042343823065
-0.4129455951924399,-3.21322858770744,-4.1111110050745765,-0.7543169674090072,-7.434237550673288,-2.927065781822223,5.40209057519019,7.656493713351068,1.8718108220634235,-0.5773473187665152,0.0517849920094579,0.6680006000432286,1.218957636017933,-6.813733590834374
2.1176997300709104,-0.2179939595393345,1.004651093862151,-0.227219885318034,-12.527198674054176,-0.9750459681948696,9.255605878842786,8.616137093180015,2.331124995143341,-1.0779655965483774,-2.1455799448553865,3.521989856498152,-0.2334363275103896,-6.850825700921206
3.2688791594529505,0.7189422820612703,6.048168762668183,-0.270761324099867,-15.401384362232818,0.4354329214064897,11.48087229050365,9.836742780898902,2.7521177619323964,-0.7355193153743897,-2.1891008595896078,3.923074847877984,-1.4630900786740426,-6.197926610446672
2.4574575074949507,0.9596072538159344,8.605978824035844,-0.3004396476274609,-13.893700449878024,0.0424386978199512,9.623058089540429,10.558216900498223,2.3469572404429755,-1.5607451143397613,-2.4523662785885185,2.3797278671795823,-2.1020900358568326,-5.223260455701876
-0.845173031002588,-3.1089651852323232,7.040624047391589,-2.85511336609698,-8.343112559374731,0.9916081090769628,7.319183487637349,9.820976002923176,0.9003659563476845,-2.804923871345121,-4.046405072383093,0.330754991642749,-2.567937899253224,-4.066359123781183
-5.877432999764409,-12.510018250691036,1.9955589377218248,-8.136541227335487,-1.6309680171978869,2.7384652595788186,3.5464946253390304,7.663331137391765,-0.7738086301929457,-3.950819561552667,-3.700918142747458,-0.7841262295409308,-3.087652742601506,-2.487975355812921
-10.2828707436193,-14.810105872100255,-3.7040590698486815,-9.08068581376406,2.7523605014529267,3.1388941096729237,0.87156932508345,5.370262068425262,-1.4640205477382722,-4.668647075472766,-4.257749523630554,-0.3318616965846672,-3.246345079450748,-0.3207667132781751
-11.405128372124013,-10.264658583151348,-6.801842627886202,-5.761365356658257,3.0861720991107404,2.6996443720129037,1.6876962653759,4.364929827879365,-0.708582843427223,-2.8701092497074474,-2.8981426523076568,1.2908471884471453,-2.521849913611049,2.062778497783512
-8.264977694646035,-4.774193261557544,-5.687281373571153,-2.2227889541562966,0.3826080865700305,1.7784928218371785,1.6629905934301463,4.8031536775848735,0.7002981571729663,-0.0418953315780512,1.7245768560309935,3.077511478919803,-1.1359752713138391,3.8389744421619696
-2.477124449987258,4.35170034562849,-1.2629457723005544,3.0505107085944907,-2.663708884426427,0.1168920286980038,2.304971668922035,5.380409153867959,1.3949444585454955,3.0365095837798046,4.627061625559967,4.138924211719086,-0.1466659974373669,4.341373154601797
2.806125265200308,6.783701317272096,3.883660923236107,4.81002480746802,-3.7370641940721328,-0.83243621310888,2.74130386095577,4.676915833112503,0.6496842211988962,4.731594989853423,6.663755523722422,4.226593284350656,-0.5018456796436226,3.611594867502447
5.090980111885187,1.324792952337633,7.201805441664675,2.2410890439795783,-2.3693275463959083,-0.7195166868366638,1.3481641789497365,2.698442374188403,-1.0314819781157212,3.1650981402084497,6.63635414824037,3.713237682228254,-1.9838404969630967,2.374684629147339
4.0637500063218965,-1.6409151255225718,7.5441562836662115,1.9577756892220928,0.1100632539830996,-0.880416495547267,0.9839700916244656,0.9398115053423624,-2.480284562257708,0.8247601835702549,3.788262278971844,3.120670019544264,-3.2653502339707927,1.4687705478764317
1.3232460493593976,-4.503316512570961,5.468621471692018,2.7725203198101998,1.8708084012146744,-1.1152844537735982,0.4025184114950381,0.7918332620312754,-2.9684914664563564,-2.3181602564633965,1.5086268604127904,2.650599325642077,-3.204827337770155,1.24392955703442
-1.1620396213577069,-4.932497892574223,2.590746464762248,3.3128209098751307,2.0376426142670425,-1.1016273107716097,-0.2090239882521093,1.923690045941413,-2.756872053586875,-3.7409686228266494,0.7101046178282835,2.1295828965801604,-2.102911019902536,1.43438674364873
-2.3992582100173934,-1.1915482428119908,0.5552750902657237,4.5794264939374045,1.2189898582093974,-1.0561576439702347,-0.0744199128107367,2.42110840821951,-2.608398000359898,-2.13766179589799,0.9088104878329568,1.3514082658277289,-1.4873671573225522,1.550733264728052
-2.5493748275132333,-0.2046972657694272,0.1934620800574862,3.374519767650879,0.7400396381628411,-0.8486406288038058,-0.6029923191762614,0.6762696771280758,-2.839521865704881,-0.7483534176970422,1.6923869853474989,0.4013352085227097,-2.4583913520435914,1.3793631538150637
-2.20957934293115,-1.1498946754005763,1.2352858287541435,-0.5002332207657286,1.2138713138439383,0.077672630247447,-0.6923206897803553,-2.8573774067806283,-2.915555680172829,1.925448991336396,2.698731534451064,-0.3914777289111129,-4.25492489556251,1.1244228703542802
-1.7404669337692835,-0.5304919121745139,2.6839377053050697,-1.4595002644754578,1.7093625614308363,1.112469074708292,-0.6361905378477649,-5.886443519403187,-2.013461711755013,3.778859485736784,3.15412662225512,-0.7855511825809742,-4.686893602376813,1.1011266389885463
-1.1753748363091605,0.6182900380780045,3.606616654005777,0.106802687975695,0.4343366390481407,1.62295921002708,-1.0046599441372213,-6.330423931683782,0.0125882308936411,3.947051352365013,3.377402434213463,-0.8335510115524016,-2.2457157779729897,1.330415205656621
-0.4638280324747015,2.05510360489909,3.786314475196292,2.4533816241376765,-3.412593630968757,1.390340212075538,-0.7010206374038961,-4.19178518460717,2.2366165711474366,5.635355539411173,4.35203315064434,-0.7233199709793254,2.126170295483547,1.4688198265226973
0.4399768391740579,4.1841334270300825,3.727254403823672,6.737086234088215,-8.207124439221587,0.0050602329520914,-0.5855118901158396,-1.4328823049747186,3.2659720641056964,6.551541357810758,5.317029585425133,-0.4734020230969094,5.474835744981249,1.1596392312909032
1.6962431767641633,4.728692146493129,4.013755936531414,7.391229139911214,-10.442602081221644,-1.6609533182706098,-0.8392959684226959,-0.0863987017424765,2.3325029951156004,6.298404329367457,4.242981895549404,0.1051649763025821,5.245590393646289,0.4490238514158378
3.534954242495353,3.569581696123284,4.60053367274525,3.994710409398919,-7.244509703717719,-2.314601227333709,-0.6614200538262471,-0.5495148002936148,-0.0821983714307323,5.532210014315304,1.572293206668292,1.084078472007521,1.4539310619122858,-0.1824582785300401
5.858298779481171,4.424758911518018,4.707753459278052,0.87269426957655,1.0386718045360794,-1.3404447424387174,-0.8069137409037083,-1.66654383038318,-2.598488991891428,2.859957160573241,-2.0208660082346785,2.0984697515390813,-3.404923658619243,-0.2541375663201393
7.870618865442196,6.9883817287469645,3.4699847762605174,-3.2793421147583457,10.473803651371448,0.4441042799445313,-1.1153454993036815,-2.251668133868307,-3.9245408201021874,-0.5844608377486172,-7.722730211096371,2.465421713296685,-6.543160526187236,0.2126111954931246
8.336414593621726,8.57005720393498,0.81195439232701,-3.972075199611485,16.04215288681189,1.838782692021792,-0.3716255299884535,-2.265057053530612,-3.65525149259733,-2.13712201654164,-9.60766296954446,1.7356135431194275,-7.027674736365029,0.634960702447728
6.5349343486805935,9.756706508680493,-2.2024454663499,-0.2925683841135805,15.194123690814692,1.6424012640725096,0.6375915713994631,-2.412202993763671,-2.316563021783168,-2.378717481831695,-7.36153964147085,0.1960667804879676,-5.947497639714968,0.3741495672823305
3.167307031724931,9.713774430255464,-3.90247262688149,2.497843542874472,9.628410707234792,-0.0261251460794428,1.667692949946742,-2.800586583104206,-0.7580038264816267,-2.5253215142937155,-5.819906325454578,-1.167483849850555,-4.748344899053024,-0.6102325185143229
0.256340579084565,7.920742044821704,-3.1009065812058623,5.5785854705133415,3.843065740247084,-1.1497132041602771,3.719509938724476,-2.384489155852293,0.5200982743422173,-1.4311829238323357,-0.5503327929418018,-1.281917593869224,-3.665859385450205,-1.5601452064468049
-0.1591932158474094,7.345736180009187,0.015571043654063,6.45208181156003,1.65213370669332,-1.1672852308263195,4.494963664301353,-0.0482844013708927,1.5685807569933845,-1.410398156989266,2.6696238715249088,0.2669398307038193,-1.876298825126952,-1.4233859323623506
2.390428733725912,7.79011063859182,3.8493766367381,4.098870336841235,3.488358773410198,-0.0402583242276516,3.936579736260553,3.737711748244664,2.644006899493519,-2.2563166206632648,1.6340203471711665,2.881956754514192,0.9958320836500434,0.2893323831623604
6.289938314627989,6.95776462609573,6.2956213822484415,3.213106247125019,6.562132931369376,1.877944556464652,4.110718027749551,6.614568460023008,3.707950106144665,-1.5867039190173635,3.8383872289954697,5.233046110425676,3.876385006086764,2.979924128367486
8.948896203164736,5.308377072221176,6.019457184963528,3.0496286602881004,7.527811224594302,2.2972868647644127,2.955010238141095,6.083961334355138,4.283361230138155,-1.730870968307581,4.063246198079182,6.009823530437359,5.039004440394137,5.243584199845714
8.714365759654925,3.732716426625069,3.2582801371852383,2.5176104185840438,5.319986847655684,1.1106733843967045,2.642116639536105,1.869546675955462,3.86589185425072,-0.8367967052682628,4.137900810222418,4.728540276471335,3.9752082962645545,5.818331822969185
6.047235411328359,1.9309062478125447,-0.375943729879225,2.350701607350861,1.8585622670415205,-0.035554379228217,4.9722039827168665,-3.3959524211015832,2.5700287556582,2.401497454455408,7.788560050313989,2.1155645995200416,2.321687730021324,4.533242183293908
3.049212208602853,1.126442104461142,-2.9049253473176577,0.7800673718078208,0.1991729563170565,-1.196137247921286,6.44418855152012,-6.015163496313619,1.3917891102918816,5.009017705957554,9.208492391153388,-0.2253165249505855,2.674526950534073,2.535998697460059
1.8275930716444009,1.5454463390175932,-3.0699416254686867,-2.298447567458548,1.7709593648039572,-0.9352436839293564,8.748586222096987,-4.089987467502169,1.6952655674692778,9.025200776516131,11.075296301874252,-0.7450471171015352,6.271694706339531,1.5755536343165204
3.0729083190013853,2.744070186063683,-0.8240492479474142,-2.39636425436771,4.976228304728124,0.6468395862339436,10.550499216001423,1.0997896975252388,4.180393609900534,11.818407023374611,13.194998762753649,1.071977035885766,11.738930795469628,2.8018224402936767
5.862646764744909,5.135276883841526,2.898178882583352,0.4260932707832494,6.281421592263655,0.9012227722810772,8.66802387609634,6.327057992674895,8.132355182382184,10.25489252902364,11.868197125159393,4.350159173129782,16.112047142765277,5.921962461601424
8.569178991500735,8.325545451671829,6.765082089299312,4.189421465014022,3.008758578808965,-0.5216256130561076,6.70082003599889,8.994708885102796,11.656449094029083,8.72613776541983,10.483196822913806,7.359951416313834,17.172120191426757,9.3341627647917
9.959471909247554,12.395694313768256,9.571007576849638,9.910803297615551,-4.246776488959313,-3.6610912387973102,4.272411306525069,8.727905216818044,12.856933593372789,5.87039674480945,8.533546816684947,8.578846635015793,14.969954230707344,11.175032693371236
9.718588467059703,13.209240121318029,10.564191609348086,11.073084074916476,-11.464698030614043,-6.272537751235856,1.485848902067344,6.839130909697474,11.125175825602582,3.0934975195718835,5.852991452852565,7.546559055051262,11.35137188553631,10.557710105654223
8.301842354997234,10.295022972514408,9.636134561009158,7.027089259097612,-13.672548318713098,-5.859181118814962,0.8072522124007704,4.637446491790229,7.557909279290925,3.5569058039271626,4.1764606004820335,4.991849825728423,8.236317830369103,8.124484381247498
6.473214413339861,6.402974595999122,7.35510787414637,2.447482223890129,-8.488945278248025,-1.0337570732064334,-0.0349599159663808,2.436455808562528,4.177266251487936,3.2086396694179915,1.729452296852357,2.2568690546021344,6.354665194309519,5.515012608915527
4.852202954022232,0.38989169968318,4.708197859030179,-4.337618411806542,1.8380428466617784,6.633720625409188,-1.4999864501993003,0.0404905939201398,2.539045508301342,2.565424568530897,-1.326247422850357,0.459327670018979,5.337091816865609,4.13836072413369
3.6087611972409377,-3.077212753574893,2.5496729743781543,-6.778581796812047,11.65461693469024,10.400106388670538,-2.978537244028573,-2.222758062291291,2.7508276707129653,2.5234295440510555,-3.276776818901984,-0.1126367472121501,4.597013664782708,4.152291441773741
2.4094837606080546,-3.41963282550696,1.0774741063642068,-3.872292187531385,15.762160159516723,8.039534416780205,-4.973500565677407,-3.341415681534727,3.579051044966036,1.5296850049202002,-3.834253290811788,-0.0722479864350589,3.9026311944303416,4.411446787742989
0.7142165498564736,-4.465042482495641,-0.2142315987782694,-1.2999585235935278,13.041590856023731,2.2893009787408363,-7.104344351728423,-2.6082081474295364,3.502037092616092,0.9856708043304404,-3.570889369602181,-0.4387240830169503,3.2580591491087034,3.421637432449643
-1.693076663077818,-5.019766333207058,-1.9773648604762,2.687560704555373,6.894314073770374,-4.493599304587539,-9.217411490180192,-0.632981741495314,1.889831495491876,1.009602472815283,-2.435219622468539,-1.8386931662435015,2.622022167588341,0.5684506940045821
-4.3496228638665,-5.693688710611345,-4.263914963070988,4.174098006762247,2.1164811374100623,-6.293994367723971,-10.070937757691317,0.8539022947179546,-0.5651148194889402,1.4460739825102888,-1.2710092689049506,-3.932890927322092,2.012750344389133,-3.3241976851296613
-6.315709906761072,-6.916736686632814,-6.265598472031002,2.2053762515337323,0.969828893524209,-0.3893297271459357,-10.044571857658754,0.3793819329633834,-2.4526326783176278,2.800441544187149,-0.431665146545186,-5.570057440465234,1.80997596133102,-6.52580314623151
-6.839277594264331,-7.361457567180917,-6.865820351100183,1.5263850890112314,1.9546655565534363,2.6596173597061226,-9.827170983731204,-1.9939248509947447,-2.765178046568053,4.561183823572609,1.1370581113216345,-5.670333985049183,2.6216799705387075,-7.59198236873226
-5.919735715212028,-7.252723223757554,-5.611249296288406,1.0623313095940985,2.178438606114355,1.796768461198641,-8.103170620149584,-4.702354994079883,-1.6148820366130394,7.069306024788488,3.289315790441409,-4.161036975110619,4.563552945791685,-6.30239441069557
-4.2724809122988745,-6.839537790013433,-3.249411994159459,1.580589990917213,0.6696745269275652,-0.1102793982006131,-7.257217507443335,-5.979770700482959,0.0112524384812786,7.810363054512417,4.918849650367529,-2.099505616820693,6.663787136490214,-3.6860378709817496
-2.760656673587391,-5.922897144644464,-1.2646061727926965,3.835348101441935,-0.8768381844068927,-5.078122494754557,-7.22372423814649,-5.220709058690545,1.1589150576431848,5.769830874627854,5.549683831158006,-0.7787723751237081,7.263461032933378,-1.2260554833546848
-1.8324059224189568,-5.354017314156091,-0.7176250727598017,4.830360987005776,-0.6056080329607312,-5.926554024302817,-5.941255403954634,-3.2572838163359847,1.585158384210672,3.5557254923921646,5.788236849967848,-0.5956003378853438,5.373595246791979,0.0742182518398522
-1.4130638884945483,-5.187265029378918,-1.389357528552182,4.853347220483496,0.6778153564315517,-3.3054175729472424,-5.53273555390124,-1.4775998936376027,1.5847126744633897,-0.3870371795313894,5.63411315322058,-0.769535497917559,1.827265030554145,0.1062793678491971
-1.2047174913766412,-4.877509358239825,-2.034762986647252,4.199018335109007,-0.2216770039519815,-1.3451728754979249,-4.955166645135388,-0.7100105572948223,1.2510010715435556,-3.5362645628803584,4.224224130312066,-0.2266164361258233,-1.037800907762744,-0.5816805609368885
-0.9994333292396504,-4.629458601024205,-1.553713892315045,2.2553454261961656,-5.44072515091284,-0.1261053891570872,-3.9677444554282624,-0.8278954008977735,0.0925715258759964,-3.954448534387157,1.425397271130044,1.1960823138102796,-1.2071433821048458,-1.3088905021015762
-0.7311941754571762,-2.615969203667722,-0.0005011956452563,0.9398017885353128,-12.986274514143474,0.636687224380208,-4.030441351266735,-1.2292925181869805,-2.44613532861149,-5.577671907212093,-2.1964026994156733,2.430199975660571,1.1408082051639212,-1.6323615471363837
-0.351158418156956,1.384814238290169,1.508962538049218,0.1966665853256106,-17.553939929927537,3.104378368790427,-3.5929320551200328,-1.5644183490353498,-6.059007000576457,-6.750429467592882,-7.4650691901659325,2.1028127201302595,3.4930619493961785,-1.4207543097217012
0.2217723662149637,2.483682201788806,1.8585932713261852,-1.5217794731472698,-14.906889780917709,4.122523253445627,-2.9415645036632108,-2.0014366036438105,-9.344540346320857,-7.000317318971302,-10.912624495719609,-0.1560876253728338,2.969100013423372,-0.7821447090108222
0.986769925611668,0.8074398889345027,0.8952527896160518,-3.896475541683004,-5.795334237822431,3.4612307604079118,-1.9008006170235892,-2.873689825597125,-10.75297077435539,-8.190746024283538,-10.280296048690206,-3.2824942861187765,-1.1653650405701796,-0.0111899892726796
1.743871224557893,-1.473256405131581,-0.60245500271742,-6.515789392170831,4.305551793032407,3.659711223180065,-0.1482619093445436,-4.139019636801834,-9.934907122160098,-8.401776124459978,-9.8002279909618,-5.642849113897455,-6.67840260087462,0.4688478317029307
2.1639008997823908,-5.425025636009452,-1.7728240404645137,-9.592443007666176,9.405191896149349,1.1463538575868772,1.1733993898214936,-5.195893379391464,-8.133088835715569,-7.690501171476551,-7.907428190284986,-6.374939695516275,-10.109060225694009,0.2858422324056846
2.0196111668453227,-6.74659467596446,-2.3641403573311663,-9.991551099458828,7.345281719265415,-0.9784059464443589,2.400187726391286,-5.238588972993057,-7.100130911653366,-7.572915335981108,-5.667582123147375,-5.955068137106991,-9.639568772739665,-0.6075381228185961
1.3504117054735616,-4.98834185028734,-2.6126300949787264,-7.381521043573015,0.7095257894891347,-0.6226405709938694,2.699627416211748,-3.871405526040178,-7.507400831250038,-7.196935662029276,-6.670595115840232,-5.513833326155009,-6.594065085249156,-1.8002410577611272
0.3756711224635864,-5.979725965950481,-2.640935477580797,-6.024204888948869,-5.844334059114544,-2.437734007475576,2.1489945136314814,-1.509855230672969,-8.38789022479699,-6.185883843320895,-6.608368308415963,-5.62951560606453,-4.245940249481237,-2.637932527613259
-0.7607865957780575,-8.905892578767306,-2.21367900651569,-5.298875019095354,-8.977374615145777,-3.709921473443554,2.0294761073787657,0.7470169509529967,-8.167455931818921,-5.3604709299293765,-5.486796741286399,-5.8023979073271335,-5.017587410499942,-2.687676483955272
-2.1290864809393497,-8.604111860089356,-1.1620527621361418,-4.540881625613376,-8.079119297433067,-3.2094958578093733,1.4256669712247845,1.7386046200643648,-6.265441418819734,-5.324758147654939,-6.724351294012553,-5.114305442225003,-8.544780352744255,-2.064647784297904
-3.851887565146569,-5.6940910459525655,0.0766274867426375,-4.508989508996499,-4.473888646403481,-2.4877100808561625,0.9388679770222468,0.9987520486694166,-3.696822446411261,-6.108020891772996,-7.855986821498537,-3.393519314923168,-12.19700335917068,-1.30691946150165
-5.796891924438782,0.7358595552750253,0.5253861711095311,-2.0840273466184778,-0.1004565322336503,0.6529422261980253,0.8707628485544046,-0.8576508604571131,-2.142074078863004,-7.452120395462694,-8.886988837253496,-1.6870905569997774,-13.408078944679076,-0.9138945087581618
-7.489091522722063,11.9129866648889,-0.6279941574245669,2.8374615012756053,3.063543579151656,5.122725022670704,-0.2373310527950563,-2.4705429306726785,-2.472995114749949,-9.643387520270403,-12.411138143392222,-1.4953755160845503,-11.686942960615127,-1.017831287891326
-8.42189671448363,15.499840922925875,-3.360895205452465,3.921347116634803,3.1944088138323323,6.987080274575821,-0.8858036644468917,-2.696522417719116,-4.16652233369804,-10.394473311452328,-13.1242078132651,-3.4212052586912307,-8.703394814766718,-1.5309670911084725
-8.510459973337294,11.153886624907011,-6.782155665815079,1.4154115111799903,-0.5976694311892743,5.7420669588349815,-1.0098422930827913,-1.5631078084643093,-6.022879034193075,-9.329452137581049,-10.76971161020741,-6.4805198103493815,-6.675523684007231,-2.5783904507168494
-8.213099162736174,6.404705210394179,-9.674831379908408,-1.0652342572231928,-7.0513436941757375,1.0166972271918424,-1.7653476383606668,-0.4003347848912484,-7.2763543677808915,-8.64452369462105,-9.591869776333152,-8.73921683951671,-6.643428450796898,-4.641581395398667
-8.135704372945112,-1.5751375419442186,-11.100481844790403,-4.780618924385882,-12.55849275537252,-5.8455342059608135,-1.7259399863341345,-0.839892717767782,-7.938381610046736,-6.751140730045691,-5.621255568585067,-8.74664171014821,-7.991600400194379,-8.068643051329484
-8.474516074946571,-4.331764918393028,-10.716372303131536,-5.784296747888008,-13.065048768333078,-8.793853671485923,-1.912643112035799,-3.33621330889816,-8.202011170796368,-4.969412169318322,-2.7327495551112198,-6.55774849725956,-9.277973848607417,-12.305189537849706
-8.861528512135095,-0.50952211124875,-8.848238368818599,-3.3624023486972523,-7.107557580662714,-6.221686479584122,-2.4975080942492087,-6.4807318647659145,-7.80350001494476,-4.567563793342259,-3.2953103003824067,-3.561310854171154,-9.39240981668162,-15.67575855400804
-8.783213533409807,1.2071697925091116,-6.425354835844971,-3.749304893833713,2.565707795855147,-1.140897589270521,-2.239949549105455,-7.915938694571949,-6.209301071571602,-3.0163580577044544,-1.7078502485563547,-1.381147499327227,-8.118197225933415,-16.22279787419275
-8.138073593767047,2.9408256266150885,-4.668573183790258,-6.129630556992315,10.564584741148453,4.378304405344169,-2.470096311047633,-6.286659481882381,-3.453339304677129,-1.4456480101893296,-1.349083596003655,-0.8010228462605369,-5.953204494999113,-13.163302724872665
-7.329282460275209,3.297787347293577,-4.430755301774013,-6.909678498250216,12.66479242164499,6.126169964729087,-2.382597381599284,-2.567760411713252,-0.5890957324380253,-0.777809530148239,-1.915624414546726,-1.4609517414690885,-3.645896599143228,-7.788099236861015
-6.775718422965383,0.969479332039194,-5.515866189180045,-6.971879670458181,8.771741288814667,2.772248077305206,-1.6621156564104045,0.5544002538991606,0.967689380554944,0.250587833176334,-0.7055127016626428,-2.3383143098696024,-1.846994176123516,-2.8724202137486685
-6.365215329435955,-0.6967550903808462,-6.633674340679363,-4.656016783664814,2.581621798688758,-0.5557218252578021,-1.5187097043730926,0.8934753710160521,0.7383450491663837,1.0271872038723733,-1.0711626769618523,-2.490091842623059,-0.9046239719829998,-0.8304265171746579
-5.480580801157657,-2.3963060437776043,-6.291862374646485,0.7519057885149695,-1.6173665700680149,-2.0561383120603454,-0.6610009775416701,-1.3283575267987544,-0.1658109244448837,1.038524867519614,-1.9725818839382208,-1.5437811395677556,-0.7092939786547845,-1.980442093714544
-3.658542227376472,-4.4930289070772735,-4.043123672087688,2.1304897861701866,-2.124004578523341,-2.057761321343315,-0.2214248945101616,-3.642401201517714,0.150833271969077,0.9153150252016664,-2.014112180730074,0.2244519934215816,-0.711468062543446,-4.364503850905152
-1.25838202971687,-6.541456473920359,-0.9884629714781568,-0.4205757207457271,-0.4036593872053799,-0.3023207166560214,-1.1627579922211622,-3.5153834506043893,2.671675645099697,0.4709217530513022,-2.571781734834869,2.111607841579172,-0.331073396631524,-5.375135515385381
0.5708764733041676,-8.070476962899432,1.0396861151909036,-3.347713018251836,0.919420200587183,0.7220768660783033,-1.829539292744214,-0.6339586788364784,6.387460407108392,-1.0159936116290549,-3.5006841730480582,3.3417353860987475,0.3767257331682287,-3.916270333318465
0.7119355502361486,-8.911668614335868,0.9965936506660568,-8.194676121362429,0.4157252203075927,0.031767762679167,-3.1278794565683143,2.763655231349418,8.890403168668655,-2.910288154125627,-4.211740898438964,3.4324694742627457,0.4334205692178727,-1.2875030141747743
-0.9785507833854864,-8.994489448686874,-0.4923891803982201,-9.150722910474167,-1.4993725858943492,-0.2880224326384646,-3.672403632467729,3.819395591919573,8.234352947218042,-3.158776983281438,-4.010073914178401,2.459576629903637,-1.4152318185541048,0.0090308314762523
-3.4288346502891898,-8.06287268327922,-1.7005307873814672,-5.495997973422255,-3.608285577112156,0.1980289802514936,-2.353359668219412,1.554220599162193,4.536438622049673,-2.754977952088156,-3.6516252985307007,1.0897536361221682,-5.395680739639403,-1.4305946933301923
-5.039446701172125,-7.713228381338509,-1.303758382536074,-2.623709308181141,-5.057752382054559,-0.1234974769704679,-1.002501898891181,-2.2122990105305576,0.0289001749191015,-2.118331302016184,-2.719436517084171,0.3058291756265703,-9.8962912581691,-4.477704732107952
-4.732496162846132,-7.936283021403701,0.5614720432782576,0.8818378691863219,-5.514497007992816,-0.5787861088575319,1.1917374965563416,-4.244437075196686,-2.426828612671613,0.1793047781689392,-0.4583765154596199,0.8993940469017616,-12.167135961494296,-6.18933070062775
-2.537962951644801,-7.075062096185092,2.6224359469744343,2.2342251640052435,-4.726126950522598,-1.0923969638406834,3.242900631309222,-2.3695180588325115,-1.1921284845056164,1.7123235802595718,0.925499457862016,2.970197920541807,-10.274317403045076,-4.139163243407438
0.6365928138881713,-5.390111548860125,3.77876736304151,0.4731086030444899,-2.565310349712064,-1.6259869498496888,5.013020335778726,2.931603534306987,3.2026296757982777,4.142077096005787,3.7429356503281737,5.746677167424394,-4.753104502815404,1.5692913733033151
3.710456233331854,-2.983549365342015,4.088190208500862,-0.0548474030211438,0.3051946838347135,0.1605950838383811,7.900135395309852,8.952888159587275,8.477122398156297,8.647331128061115,8.431854495036234,7.935091555317598,1.5742780571776225,8.27662317127644
6.003505227153113,0.4511134071466718,4.519367907627952,-0.1670743636295217,2.2123674678116174,2.948892133577134,10.535579002052518,12.737891199727414,11.958989342538842,12.28318536749685,11.98505878610603,8.506427486109658,5.6394309259662805,12.729011895572969
7.386005044094674,2.3972959088267456,5.83629860210587,0.786023198583177,1.5530856550570036,3.8829412657614615,12.6874911103204,13.06807666166668,12.06689027267538,14.665642869802468,15.179919109840984,7.467279190217397,6.380043864159063,13.40726422082713
8.148836998578076,2.730110212645637,7.81506722633867,3.5811878001086965,-1.525652860721863,2.091751460718648,13.897232623700692,11.071436031421,9.163168332340833,13.869364543386022,15.858270918160375,6.01660625447164,5.314198103319086,11.388375947457265
8.82318590576861,4.069613008711067,9.553253976306875,5.877049144601625,-4.630888254169861,-1.339570526233575,13.695474956282656,9.131178588183303,5.298164804574583,10.57427668852539,13.884819376991466,5.803024129511215,4.9973185713695045,9.200699175545369
9.955625217370766,5.921868006031554,10.434261041123534,8.02037092362793,-4.752901636838374,-4.462545727113816,13.424879942714425,8.986000975465117,2.8768446446134988,6.896739207519381,12.413984513621754,7.672896964783462,6.74876314387194,8.763096045379939
11.756798166861302,7.526584438017096,10.656440409249342,9.343152702100763,-0.85195673119415,-4.296536701168328,12.562656442665594,10.461798816329363,3.0146511896060133,4.474106274996223,11.254712246943251,10.834252385181657,9.596871181351505,10.100985585068372
13.782917788327978,9.253594205229808,10.80549362273844,9.35283157933009,4.964853120574574,-0.3442005549399585,10.115425221302472,11.787545180549728,4.8128222437869965,4.838520955361995,10.423376351184302,13.207406645206078,11.25502747407502,11.709525493736834
15.030885534841886,10.01556486830078,11.04845389966377,9.472348782804962,8.955202504820193,3.188680217019755,7.292330939177075,11.213054848568234,6.268573341093997,5.765305899040591,10.350475798334516,12.865005139211917,10.18931460806121,12.012918431772604
14.582582290082144,9.675341331111325,10.91052456650931,9.395664669025328,8.768595293931853,5.121384136410349,3.278652370929772,8.577075947371142,6.131713169883909,6.591303802788909,9.369229432050997,9.524748824068112,6.99247530486187,10.583681706032351
12.34817452876733,8.542685443398174,9.867450088301013,8.303709474245938,5.346340131128471,3.848773923009084,-0.3381418055831175,5.4733357135972085,4.978892060798984,6.735910827629189,7.608164855798395,4.882897012805785,3.9597373339043713,8.208395912622237
9.197307614447451,6.283016929893886,8.027763482945218,6.314442721813724,2.001088806133524,0.0687709186627649,-0.6499087225555346,3.839489754046412,4.375513494864123,5.726631958424892,7.364511832644452,1.4291848468299977,3.287297933103048,5.998261191983659
6.269191058794036,3.279791644950792,6.100442305695168,3.5478496723544666,1.4924464254074934,-1.325606000952504,-0.7796408295946288,4.191294401925404,4.92097204023932,4.893413088723566,7.182040762293239,0.6244181595990455,5.401990018087417,4.49067783378581
4.084479397967144,-0.537690912948109,4.701362506827124,-0.1604629716549825,3.6793088891533614,-1.6018300735808213,-0.8018521320203338,5.082655790981988,5.288320237939004,4.0160075063241365,6.471890865306809,1.893647884709736,8.746408960084679,3.4862718159070027
2.333271631463049,-1.9288275153026768,3.807909012394738,-0.9695650561326428,5.781569306362876,-0.7838230316221642,0.0082448535780267,4.3123084514841,3.493561463735311,4.085444777525886,7.0125722342348,3.2525650893490337,11.10696132564442,2.555372404232564
0.5391969643653596,-0.5081219610224729,2.9613802232897584,1.4612474126240182,4.960684758437751,0.5076911685926778,-1.0363969654109586,0.8585901119581862,-0.7354265237845254,4.8715224801395465,6.638009164257894,3.032985446330912,11.32124417576145,1.5691716211025335
-1.12823068865044,0.6606267804219574,1.9278484494561423,4.205302418044711,0.9281047013864736,-2.007083201956505,-2.08371981314843,-4.10372440124263,-4.9927633906214695,5.4836258201809445,5.378203277622034,1.2551012287899823,9.956384448015632,0.7554730521238255
-1.8006988318655175,2.3884184710438645,1.0230963760591931,8.226391096708054,-3.664988846167432,-4.7139302066557125,-1.6181366278147995,-7.936381864944032,-5.901340537530263,7.1775906994248615,5.774202584126681,-0.4948311256709132,8.508950869433114,0.3596235187103289
-0.7460660140888109,3.160123532043597,0.7306126110839379,9.431513598207314,-5.335649755147209,-4.778734318039244,-1.815654965760372,-8.392432979365726,-2.070060719263406,7.807392122089477,5.722650658894728,-0.5385338173495029,7.98307044117529,0.3505380712888453
1.7117414172491294,2.439943240252627,1.057859260693899,7.143105091116391,-2.5481089630870866,-2.8280775637123354,-1.9004734816800384,-5.149735365688647,4.476393004773101,7.345618713371489,5.133379608540303,1.3591980395163985,8.178350453736142,0.4550856837796289
4.10668277165706,2.9974188776926645,1.3459664046401354,5.092150654185008,3.112596495666814,2.2050558413296097,-1.0109365146405664,0.0180403179766024,9.753817122042747,7.6391022927210495,5.841212399882272,3.709779630023141,8.22056578055915,0.4068990893474691
4.71485102796372,4.423995260547998,0.7373321082005206,2.171532926172759,8.179979490789623,6.948843650727747,-0.9060450709534869,4.379052407427195,10.800322226322669,6.6906964314450805,5.841945620798903,4.488452136046297,7.594057340493906,0.1116882748685321
2.673713453778486,3.950584406853133,-1.1474914391779103,-0.0497896669445706,9.785527368492923,6.980168956992176,-1.064476343981827,5.813098435156586,7.567964095570327,5.072941675050205,4.129509397730521,2.758223824401401,6.49291882366567,-0.4128808694866901
-1.5359633288990011,1.812009082323243,-3.900178891387714,-1.0254957491236536,7.408250938475231,3.1611635990441886,-0.9089512292871604,3.873767774852461,2.4057059215552563,2.8412225865873686,1.7022622748519916,-0.6291966835045866,5.168280470823172,-1.2075212862970943
-6.49614463617511,-1.741690072492314,-6.555927114069451,-2.77876068093816,2.7940821879011537,-1.5240145537500212,-1.3999782063618291,-0.118226939474809,-1.915556928773395,-1.078971510881857,-1.6442711471895313,-3.785252496326976,3.180826602412928,-2.439792793651524
-10.69566232746135,-7.34702355012545,-8.124047536246334,-4.816713082544393,-1.5174417354418424,-5.998611075717497,-1.992067348205073,-3.876697993566605,-3.777042140174359,-5.458172416961881,-6.46484260706888,-5.296581461601367,-0.3328823067992488,-4.254436074302376
-13.191257983846944,-10.240764455582788,-8.083476170209238,-5.656051639657134,-3.770294263515957,-6.76657296285965,-1.8508199135159515,-5.421599462901533,-3.039905274874492,-8.994816716615103,-10.191694332231393,-5.228928840690266,-5.439483761529928,-6.482498273041436
-13.81992419588515,-10.214652551168372,-6.62912673297388,-5.4058433339693135,-3.692596029457604,-3.3957675641442577,-1.4123660636516462,-4.209693913117341,-0.6748523900081125,-10.963719730874088,-12.314713184176934,-4.854598066607558,-10.592353379745752,-8.461847939891484
-13.09141065607745,-9.050143983057962,-4.563926166608063,-4.395555038122748,-2.212656111149876,-0.2141208672330978,-0.8436043036869337,-1.4972171638927776,1.571961026839567,-12.598668611936356,-15.416286755312491,-5.426104288464643,-13.474101475719486,-9.260741073123306
-11.959151037766958,-5.503901939558477,-2.8450300828277264,-2.2822163831266638,-0.6752409292046195,3.289397141235068,0.1632431150760335,0.4015011148024712,1.6028616607710475,-14.082074660490006,-17.87715872647616,-7.075909681195924,-13.10486621999243,-8.351334155600867
-11.48785422553184,-4.180492059279354,-2.0110576883037723,-2.073768426206003,-0.0866539176672844,5.006182709597057,0.4956031852982633,-0.3479767603260484,-1.9781530415439548,-13.965993995127128,-18.20548560853613,-8.75472047409125,-11.243883292535024,-6.296536753826025
-12.355868583935724,-5.335291026694473,-1.904898943529787,-3.9817258179793535,-0.6954127101266891,3.212476223565677,0.1009861140769178,-3.7287281527263474,-8.468320269080934,-13.213591951489724,-18.00074245782774,-9.208651274309162,-11.371352787227082,-4.715065220676124
-14.327453142552416,-7.662268310266694,-1.954375114386224,-6.817351218301247,-2.0094387789067056,1.9976604105317584,-0.2719715252663622,-7.720492921427585,-14.674909121134943,-11.506153749186849,-16.16668537702316,-8.109732517277031,-15.668563077559035,-5.185865104208105
-16.088114908656195,-12.408113142518973,-1.7816348583674395,-11.40757889565187,-3.1804838473138446,0.9644181079098548,-1.21350585813007,-9.655388214261931,-16.580895888520033,-7.454214550032435,-11.873065481176573,-6.336091525959837,-22.497093797245302,-7.747055285020892
-15.780554491455405,-11.974327832653248,-1.543220885319002,-12.06885751322942,-3.502765284665685,0.0249578919612079,-1.8577785408254228,-8.19411214549823,-12.285376435547498,-4.87953667458596,-8.554423029073563,-5.155932145057932,-26.824439422925053,-10.342338111730484
-12.098120430025851,-5.934913998466139,-1.6307847475612078,-8.363807562485118,-2.708818789822004,0.5992181798864472,-2.3808661801188014,-4.404748660242959,-3.8324507872280265,-3.171677275721044,-4.481080063287651,-5.059339311737489,-23.681319887556132,-10.04471864896972
-5.245008708733124,2.2122079358503344,-2.039692117071411,-2.6704154565397342,-0.9371463057658076,-0.1194620465285516,-3.497997145294315,-1.00301336171799,3.936085656931184,0.1935085554844394,1.8660435139923932,-5.317464747969879,-12.06929949745242,-5.334039619908381
2.9962544732311187,14.42577252342495,-2.13006487488569,6.573536321064035,1.454218782786327,-2.520762294837439,-4.271136169794713,-0.2700398460257247,6.865966164337209,2.102782816844104,7.570429934097351,-4.690813392057663,3.8421788766215457,2.4584278926467107
10.251585774488705,19.496126500182864,-1.1477510241328872,10.95234310213511,3.977262370804368,-3.86447657813738,-4.299236382809902,-2.306672528836998,4.476025267341839,3.76218633296786,12.07497910732149,-2.6328486684302703,17.305286494695167,9.910519332277588
14.934488465271896,16.424180240935808,0.947013874657486,9.843282501658376,5.996871335172628,-3.6246702043349392,-2.908240505931376,-5.065966185116849,-0.0788595869911006,4.838679002404645,13.42554744244458,0.1435186128354786,23.433625010611195,13.942775307066086
17.01674431955368,13.706027998253017,3.2063466892773107,8.411505373283264,6.833472122010974,-1.96428682480686,-0.3961397109145947,-6.124669054894241,-2.9303648379230083,3.4736420533542383,12.33539802449176,2.262300799773456,22.134623617339614,13.887672444585746
17.672502405781508,8.589526644867686,4.3522111744006935,4.542784853721045,6.104998063398142,1.6086252463937591,2.601475556069382,-4.674301850298306,-2.634955667900684,2.228184431928792,10.612140065913534,2.852127781918327,17.469638553089773,11.533516129772522
18.16640393522711,6.856369386136049,3.814171841564274,2.6912833105561846,4.0734186769790455,3.9825875230418015,3.86518371336023,-2.0482620303950227,-0.8311693364349395,1.5045127831930083,8.494939663637386,2.1709576385489555,14.221858826895968,9.361435429875383
18.890815604447617,9.871233061286114,2.177817475666558,3.531056608158085,1.6126389580578149,2.8790502425674207,2.338364190238015,-0.4080475047968264,-0.1436173269692915,1.1048435939816497,7.489157044945053,1.1596995703509378,14.483035184630197,8.697753397292814
19.22249804395082,11.04219027340543,0.6170853000042769,3.001731653867485,-0.2923349342310786,1.0148743185673494,0.3577914087079781,-0.8178973505949756,-1.5543180805708658,1.2852990824171129,5.803336541537921,0.4733074472398471,16.74120415537756,9.244705835668212
18.158137308920857,11.96557168484167,-0.1449016087490804,2.222991095004605,-1.1593341242069215,-1.1548932599684854,-2.8776731455246187,-2.41143885755082,-3.698995938979742,0.8581417999810279,2.159289699369862,-0.0078060836549695,17.747679140114442,9.91971714966268
15.153568691540473,11.41887356975916,-0.3677733760834485,1.2218791523364485,-1.2621726611942847,-2.505822013483071,-5.268834652714156,-3.32287706985295,-4.493313067009211,-0.3429555762119043,-0.5089701739392531,-0.7822418073022632,15.309038194880683,9.836200095438867
10.59419836069867,8.398889442751278,-0.8599285454109875,-0.4691125315366427,-1.363248535822528,-1.1078784095031924,-5.137372862777979,-2.48552226660599,-3.2805197915879347,-1.7743613280055808,-3.021047900725526,-2.0031503599144926,9.766057451720584,8.5861230756475
5.690689357963883,3.874500868123233,-2.0586413928741223,-2.0354425793281785,-2.162313104866243,0.5465407035949786,-6.0882007731264265,-0.6853846203896694,-1.4104610304807466,-3.700562591143858,-6.402049429621673,-3.2628295906023155,3.338572750589968,6.049923761160898
1.9401679484806351,-2.8964942326467984,-3.5358207665213683,-3.600806687840346,-3.827931587552172,0.9220124124130156,-6.708556140163908,0.0420846881780079,-0.8673601165835478,-5.921310294855363,-8.417955719252038,-4.07514487229512,-1.6956743402294023,2.3923473232618235
0.426724798209527,-5.760219462825638,-4.384712306819438,-3.9395308145935903,-5.845551403224448,0.4736445929775303,-7.076003225475192,-1.8554509091867784,-2.4336384653559406,-7.654361477680807,-10.756876450327493,-4.439093265764463,-4.363768552683247,-1.6871138018163236
1.2565656440865638,-4.280697704035398,-4.083725930487105,-2.788837041185681,-7.24751735107084,-0.42393876335808,-9.719781640151474,-6.051897076635363,-5.132046771859599,-9.339108103971355,-12.69833979837472,-4.810424849175341,-5.062362494426949,-5.038986484551394
3.423176616901188,-0.5944527735001071,-3.0085899036524,-1.665224157045906,-7.15981982212449,-1.0304454532533591,-11.893917621378051,-10.449225277592092,-7.290163607226482,-11.14413682700346,-12.85175402326755,-5.527398992501972,-4.7380121654229725,-6.797694137020315
5.287685904252683,7.0207217217385205,-2.1338301976645724,-0.2365165947877723,-5.4254207829135765,0.1134544752368215,-13.65899658631518,-12.710222190968338,-8.04386256319367,-12.536409153306176,-13.502774125242055,-6.380819560023781,-4.146799229084671,-7.140914887027478
5.528070346238259,9.762489202463245,-2.2231373001250745,0.3784697616399552,-2.879080688513362,2.02306467610786,-15.196762049215268,-11.991429644177494,-7.875799968704399,-12.327313799969552,-12.514604581775702,-6.846229654315657,-3.709314438722757,-7.104317891799482
4.002005755720056,7.127300216920469,-3.227552608439808,-0.1596229358578651,-0.9288081570834166,2.258915433056252,-13.650292485813893,-9.491554916209228,-7.871260922010084,-9.659819591050988,-9.981945138619396,-6.704166451111313,-3.7038861981984113,-7.388124665376104
1.865506116446813,4.536330108099423,-4.362340189402548,0.3894341276797408,-0.585426166723817,0.8889642879706529,-10.875445715804426,-7.378687132603559,-8.559762171276198,-5.475175499845123,-7.505300186236059,-6.286339794810182,-4.282468079728417,-7.361598363259986
0.7324904473405773,-0.1315085287036274,-4.727805370226481,1.7638728990840418,-1.6441960099980584,-1.9994481937097788,-7.921536167608892,-6.960432845824577,-9.40461348920331,0.3901285672872152,-2.408168837000117,-5.991741598285611,-5.20073224354881,-5.549012721037144
1.4006542145668843,-2.3359868332716403,-3.9483276233192086,1.5682741734835437,-2.768050252536707,-4.238868356444046,-4.579634972906154,-7.5791279252577475,-9.250302579308762,4.294864560759385,0.7373541551744682,-5.600831447703378,-5.681901060241167,-1.4036110160168285
3.0935764556441683,-1.3207456678388585,-2.3990127525463727,0.0200800705418959,-2.5373074642525038,-3.3020291955998173,-2.374447636953921,-7.137424910578318,-7.221205489989472,4.932757469376938,0.9812894555200514,-4.2651345604897095,-4.843554838127943,3.3945360830928166
3.851047351939074,-1.9106293190791848,-0.9677105802612154,-2.206639638722629,-0.6598807278139169,-0.1427014565531386,-0.36700613771973,-3.8396657912641263,-3.3750587582002645,5.781575003174234,2.5311611681467423,-1.387916400525974,-2.551463649019361,5.723662592328687
1.830361907701164,-2.9938566954982413,-0.5762819818431879,-5.603007962795019,1.695032182292195,3.676998141600437,2.599973184194596,2.2541206800879365,1.2371295006691805,5.220162532582939,1.7512148844048636,2.431536876924396,0.0310471698468841,3.5038937193320745
-3.426588322098395,-5.45410500519329,-1.7125964630100228,-7.336604873185353,2.774159124808936,5.064569740331231,4.488370995186592,9.098881293702323,5.066369900816346,5.280986735054708,1.4302250472303122,5.4892721445277015,0.9018141450175854,-2.3687352301329625
-10.659340136231872,-10.067959232498986,-4.135752891276485,-7.196751181820243,1.624050798680015,2.710504391975765,4.0915947217879225,14.02212791085094,6.881520418671576,6.5319625463225535,2.6057063301952685,6.273638680749604,-1.381243500228086,-8.586173413676313
-17.640617797753116,-13.482663209263302,-6.876451839383231,-7.919653429792063,-1.1627915478193165,-0.7097285272607713,3.383850527642996,15.463021099698231,6.532184763256288,6.068600570521415,1.246500989899346,4.859735134455356,-6.351423642813654,-12.091119796708297
-22.372538230768875,-15.99296225928918,-8.609864127638073,-8.89422715380635,-3.9264326539708474,-3.81071013765514,1.4218262680716165,13.792910080499407,5.161727936731397,5.9668544083787065,0.6239767786404193,3.0123826587827858,-11.534669607674571,-12.366357229066605
-23.893369466124987,-16.005136169645937,-8.301903544331363,-8.145905597693444,-5.183607272766428,-4.3929910238899295,0.2219056974892094,10.775942224212768,4.547233888068424,6.076438147164318,0.7943136813202862,2.747842323201292,-13.93592465693198,-11.238998423560933
-22.33464837080587,-12.617729431688536,-5.778472567358914,-5.881380937756942,-4.579041703456284,-1.840412505308871,3.005938600886636,8.302981819540474,5.869231298835798,6.964946019341803,1.471274073195749,4.613233609291819,-12.114588684867256,-10.562781615546893
-18.50080545623167,-9.947093215730412,-1.8161878111366736,-2.3896586845116223,-2.83778719635933,0.547985798490078,5.950460588580783,7.40810934000742,8.832593140756515,9.256568208108384,3.92590310522742,7.280900978383524,-7.2264371596152515,-10.21056979429584
-13.46306871454622,-7.468944427596239,2.3325916566529354,2.764070845185611,-0.9384941244967616,2.6256058756428438,9.026773152068522,8.080934925185842,11.932998740893725,10.949593533487317,6.080439689766821,8.814902060232995,-2.1593629599270194,-8.379749482100998
-8.384382571889546,-6.216604913253553,5.613652457371382,4.438162126931369,0.6446202676516624,3.3651424081687367,11.779735082083487,9.644988797914973,13.676392605642413,10.94968301724417,6.654021080150919,8.36042014712952,0.5333041820729658,-3.7972937469131054
-4.413736421928384,-7.11155870854427,7.5360599810139295,2.260722298242981,1.9989136335839817,1.6217344492721515,11.34731048177579,11.187957603750224,13.621709423110342,8.076184281546432,5.131351181931487,6.665495935396894,0.2102684309934321,2.473464281957039
-2.4269341006493264,-6.814685828985454,8.059756302777332,0.7792626088658042,3.26698839273832,-0.0235494269647143,10.432248318190917,11.802493621306438,12.270127755228476,3.3634937829480607,2.256533269062184,5.086386042096834,-1.9363378584489883,7.427638404392292
-2.6555177528016074,-5.773811416636721,7.307955706060754,-1.1736784507043432,4.24119232890339,-2.0244710539626105,9.700473619034998,10.769383788803186,10.031244876668568,-2.172961595174064,-1.1425017454960025,4.234055760169941,-4.249927443386735,8.320486438402172
-4.497153766495153,-4.9439831675633314,5.506192138943948,-1.1218397691042896,4.509685735690844,-3.3692936890356657,9.10349094330022,7.844457782424005,6.510342680513535,-5.719465431594252,-3.133323409166677,3.634597482673336,-5.857357580362688,4.667631897886931
-6.7400280003728845,-3.7838940398234495,3.1862538321047147,1.783362560529693,3.9492657883236006,-2.251116432632476,9.454694244219812,3.5414305152407906,1.0450716699960267,-5.979739079378206,-2.9599105881933774,2.5788365054249063,-6.783179227670104,-1.5454482866611483
-8.120263792728174,-2.006360901120953,1.289541683414139,3.3166795199222188,2.9891086400021543,-0.5381147995818004,9.686695255012086,-0.885692920695643,-5.9640965089967,-5.986992312924111,-2.5892040112153243,1.0861932038591569,-7.220056255405499,-7.305380007484413
-7.87921844218322,0.4381859550515617,0.8314220887461303,4.168646247013537,2.3448773365517326,1.5809908494968494,9.812711708163002,-3.916231243704008,-12.379702797249555,-4.816869420648621,-1.545827397224467,-0.0755681228488285,-7.029035077119566,-10.302226199897312
-6.018767238906449,2.767105577445308,2.23530647042146,5.084540931074163,2.490554640174725,2.7190646114182297,8.799426670793821,-4.511902641252032,-15.274865065836584,-3.720002753017084,-1.2419403489360914,-0.2387470104151852,-6.043244021608611,-9.799813469294996
-3.1819325396290417,5.033633468108182,4.8557218719592505,5.387768919287466,3.358351898103667,1.5928776004057794,7.038705579334096,-2.723984880075882,-12.940969227212577,-3.756411031599889,-2.219718901624223,0.4542694372906304,-4.642596109468371,-6.505427732447661
-0.2805398375183863,6.119257327250746,7.173039389266538,6.330995583817161,4.462848482928091,0.4963802012456888,5.4122471353904125,0.2258030186125417,-6.311119181749721,-1.9907536740559888,-2.23189719445842,1.237694674234742,-3.672269855743494,-1.9464700767828127
1.9508107888210875,5.721774142948233,7.677880773185919,7.898266075320395,5.237320400441483,0.2407426807169792,2.501441478130064,2.519565093539889,1.4452834443267015,0.2657054672831485,-2.647975599992885,1.5332313029950375,-3.5621504917098505,2.2142067860723
3.29607688636489,4.96980264436736,5.924315211704496,7.45238338563793,5.284619500289228,0.7937424306782073,0.9649887637814551,2.7447018162735937,6.901552201655203,1.4332692559035416,-1.849126978173549,1.4896394510264417,-3.570850954563433,4.788259406208297
4.108901144917084,3.495599685569895,3.00619485062413,5.033341477562156,4.4682611615454775,1.9120173397288511,0.939651336196874,0.7763027772407902,8.420329391574864,2.7054900586975767,1.6866067990617095,1.7390185105838007,-2.17376634805456,5.484842480442147
4.971801076388218,2.2058093692542293,0.9855764673364577,2.3236253002905767,2.935006691090681,1.1329997765062425,-0.0149936603513304,-2.0776934984511364,6.790421157179136,3.316411309802074,4.86475799266006,2.7117002610046086,1.4912603371264126,4.922799873624495
6.138204076229631,1.2869597859804571,1.485707747449684,-1.221863184425856,1.091535828011267,-1.6466130200352578,0.6429385085671621,-3.912105465619625,4.1743471900396685,3.177756646414865,9.44847313356491,4.224117864283244,6.423472544157363,4.152080735543976
7.225950209617359,0.8792625104706457,4.376233760059407,-1.9708920520629325,-0.5447232203680272,-3.6518431119780463,0.7462337853927111,-3.5747498864119187,2.397246463103709,4.2796447589825775,13.64297717702251,5.661401509660912,10.123038272119436,3.983215226613382
7.553325758224716,1.3411437610430996,7.633341563978519,0.6136952202753795,-1.6085980165833504,-3.518941515336079,-0.9998549380924816,-1.5412176121293086,1.9574718554005412,4.55503595968054,13.662552214785284,6.468035367175876,10.486338023003048,4.607803637224091
6.936274333224226,1.0738711646293952,8.710555187404807,2.68719082650286,-2.068611282275157,-1.2664107595908702,-1.2719784631584354,0.4450975373454291,2.3131153644800584,4.044746740925478,14.119137500461456,6.476596141657414,7.686726852396113,5.717292000456872
6.175457480009332,0.1652497829517367,6.507080625139334,5.154833026399673,-2.1501718497013838,1.8283606457068733,-2.2415166768633936,0.7649902873891001,2.815535270582803,4.61418303035884,14.401757580981496,5.893326761246474,4.296779920578626,6.8803737958083495
6.561711704084807,0.2483374824798206,2.3266871452986564,5.446248804739952,-2.075949434724436,3.075410641191246,-3.1711393923884,-0.7723991640223353,3.2347436149061544,3.5860097705442597,11.912785995627916,5.092121370368563,3.3439296688064672,7.794404948183699
8.632447550985884,1.108972261032081,-1.1047059877644116,2.758516589301259,-1.8916864083354028,1.642943286677564,-1.933470045275006,-2.816008678996763,3.502293216093687,3.3515322274844084,10.680390170686904,4.41329403116233,5.846763951446542,8.286667005995602
11.300341239462906,2.0927885235174237,-1.851224749291017,0.3931852793953582,-1.5336422360864643,0.0107326185528982,-1.1754142987138627,-3.6342083339441977,3.2832236368882057,4.603836987921509,8.970563898974987,4.023581299189701,9.94817897072617,8.237582991246269
12.345213931843317,3.4727840566325083,-0.3399419848144518,-2.4477981952057517,-1.0211689565551154,-0.0876350938504727,-0.0356585878034414,-2.522894833622076,2.149080915697697,3.524016614465556,3.774394071013857,3.8185189544414655,12.432717054617576,7.589673585436747
10.04879262493912,1.9106805454104243,1.081884782961156,-5.091581748971761,-0.5612834237228181,0.4965481624912277,0.415302126927855,-0.2716392463407988,0.2609011828646839,2.90490494815718,0.9163255913156017,3.4112558453589905,11.31884403041646,6.383834933815164
4.607633565876565,-2.974991403916677,0.2116444366536711,-7.034136383543915,-0.4987424398582316,0.7707365129667476,-1.961926273283892,1.5881047576746603,-1.3594064610989631,1.6839362923413796,-0.6573292376089058,2.284455498620707,7.272208939521889,4.690706407866808
-1.923073056674653,-6.68961777294739,-3.1329588261899364,-9.07084868382199,-1.191928253130106,-0.2323836284224298,-4.52647445668801,1.960289661713526,-1.585486279611688,-2.2396137350644194,-4.790570070354528,0.0814485345518427,2.692850974983358,2.494341257032122
-7.070065623749942,-9.9127409474684,-6.998382505436508,-10.84394170591558,-2.855318796225353,-3.569730465114663,-7.964094294069547,0.7856584468067176,-0.3559497989364146,-4.845813589035451,-6.460831711478469,-3.1257563660285506,-0.5205976166193853,-0.2442314221806398
-9.46507500107288,-10.120012184990882,-8.903522996735939,-10.71099568255732,-5.335750704809612,-5.397829930600191,-9.068919493884154,-1.2032397732833058,1.06635383588989,-5.556576921839779,-6.7724071266083685,-6.761639273463096,-2.367451480071278,-3.2747093160843965
-9.242968566610966,-6.194912130377618,-7.706910068510139,-8.499009738407802,-7.913693970516158,-3.1880390852901,-5.3559021574711405,-3.048398720715399,1.2555110619111156,-4.8443997196793935,-7.637605738055448,-9.90392199794497,-4.072735945844383,-5.798564250361794
-7.315574034013403,-4.1225574160027465,-4.248682933901154,-6.020633432041778,-9.423492794042613,-0.1579627243114648,-1.68312999947886,-3.889635669632086,0.1245011980404902,-2.161510664511822,-5.559463353109122,-11.590608562229498,-6.207847366527329,-6.687042123606918
-4.504163451058673,-3.204802041305727,-0.4927005273155469,-2.88623415984592,-8.88893411838824,4.376290069697783,4.208588885970819,-3.0811620012424026,-0.8850618969387138,1.5548401141055923,-2.3464270973875947,-11.186905500096731,-7.65258528119,-5.217207213032265
-1.3279643227881786,-1.82080607293732,1.8995873889293315,-0.6975234806475706,-6.3623316082647,6.785307261721052,7.563887732900823,-0.5037158534770136,-0.3262439306365139,2.098355894402569,-1.9498808101388756,-8.735790324657764,-6.561823934535253,-1.7951485143631354
1.7093017423900585,-1.0344327206837725,2.4251569437004434,0.1019354611209038,-3.220700175163004,3.925510329995797,3.593297408307861,2.932253150538612,1.4776875616221248,-0.9783259129684504,-2.4730888788130065,-5.135352362991683,-2.427321490097444,2.0164083205585754
4.027611089776832,1.0583179858413756,1.614719533067149,0.742784445581644,-1.406449934657994,1.347166846986277,0.6220140731594057,5.27198640866777,2.3312874233489764,-3.854940137108438,-2.446040402624925,-1.899776609324321,2.8663529996726123,4.342705756573755
5.337366947866559,4.533813319434013,0.3475373956689804,0.6669825082062051,-1.982600537023525,-2.012337949285824,-4.415171489720732,4.593529364440242,0.1143862784575704,-8.977066701400663,-4.328934281169183,-0.411598984966938,6.206635714592508,4.161270027410795
5.977649520518687,5.627042586606364,-0.7309184745874551,0.719436904800014,-4.1259542645272695,-4.472796668524094,-8.524709029614034,0.6951452033868577,-4.927997431952744,-12.229459380869113,-5.003462616872665,-1.016425321054505,5.7269180389705365,1.944275116315056
6.64550174668439,4.47960487691132,-1.372234120657918,0.9939268457151352,-5.514541009086922,-2.6924612194192497,-3.967585548874792,-4.134158504109504,-9.795861024700296,-9.926121702053898,-3.6221833187845975,-2.671330667604828,2.3668010085696705,-0.6724234173582087
7.630665287519713,5.610745439844501,-1.597465251806814,3.3733622050955523,-3.987035827493338,-1.218792753278867,-0.1404110682684246,-6.424400901711697,-10.878260673405958,-8.900423982528718,-4.148053572945589,-3.625014884858275,-0.928870843376988,-1.9584456121258809
8.327948022274004,8.51293649837336,-1.5462363111591468,8.31656454262485,0.7363553242373126,0.9373596851584376,3.832703682004488,-4.254680963397565,-6.962845511097696,-6.687975986042947,-3.8504887517563633,-2.7765324028000067,-1.6807088518001616,-1.2094753317568427
7.620618315846205,9.75778479552165,-1.4075791534942912,9.86412205324742,6.630017855850374,3.18273934668117,8.088945994946622,0.8858373974504636,-0.5329945099989821,-3.354293248861275,-2.39887141323168,-0.6270139976082616,0.1704135165793934,0.7610693675662761
4.87165470264759,9.978166771942451,-1.3631534449448424,8.197218077509913,10.633020517290449,2.273888185136803,4.443342216507229,5.00561543729622,3.902746306863525,-4.577153987478035,-3.1074866087729207,1.080052246427413,2.483172174671246,2.101391604949315
0.633327113580405,5.708889344352285,-1.4878058963615637,3.618986114896433,10.707031388911568,0.7060313101979576,-0.2436159867746297,4.80838576526871,3.240355181072037,-5.017812983549249,-3.206841652912771,0.8326591268014338,2.9639348032720587,1.2010731387351212
-3.557985999932174,-4.031592476186309,-1.67919126357641,-5.3879492843153605,7.169846113451395,-1.4828330070293614,-3.8022890352197134,0.4783396174468546,-1.771482115029387,-3.7933398712784014,-2.2564806320295467,-1.3091237793182229,1.1139554295959897,-1.9566504128408315
-6.087731801239446,-7.196590717932941,-1.7194794430522116,-7.9112954276030685,2.3624092810630506,-3.3367802606424406,-7.437530387726135,-4.467200534522211,-7.086013143165508,-3.9796885644226503,-2.764897245147608,-3.694132788669366,-1.5797835966500768,-5.384662566402385
-6.0897322267166665,-4.049619494017064,-1.4400416321302787,-3.5998083023751386,-1.0119282874705284,-2.356156608132951,-5.935038928590871,-6.184507701734094,-8.501552192863043,-1.2264487701133602,-1.8885736339446977,-4.394638863463501,-3.1251446498456783,-6.223137993081847
-3.6535712781743257,1.5400423070568017,-0.8318861857398137,1.1314835443058455,-1.5771723139177212,-0.013606479078715,-2.7161855838214457,-3.6963417718577354,-4.839895516334721,3.2782315920206724,0.3987234035207945,-2.691020461369225,-2.6353778436357445,-2.8693752269505177
0.4490062474866256,12.360614367683882,-0.0061038208880592,8.81626561906538,0.1794684244033071,2.51275220190975,-0.502855020128813,0.5293738050872001,1.4008069165795076,6.041440434206391,1.137805007184381,0.4949026015809554,-0.6859519768854554,3.48541623426389
5.030696647835659,15.717729402265766,0.9053816490707902,11.21824911027336,2.677290569351573,3.4502864179931767,1.5679713607156205,2.972037095726222,6.303965927976797,8.211701990632761,1.8586456218133405,3.4070512251640395,1.5531738197764169,9.350832752083113
8.577670519377046,10.796585563687636,1.744711485799682,7.149936358466091,4.464878953959691,1.571363313338289,2.491780106758539,2.11863337693422,7.624353068220027,8.392226839663707,2.41096666618004,4.654140454368086,3.271299223145717,11.334453149085792
9.500833582020917,5.779075513063758,2.226381538047864,4.506104439898796,4.913436546169495,-1.0139843858138895,3.144092538248634,-0.5298102732654275,6.07503113994946,6.384107212246096,1.3516176589133504,3.861827072507186,4.1772928267538525,8.591743099041546
6.880327469863433,-2.392835165747584,1.960224356263648,1.2264370225826766,4.128354811246215,-2.9950167850176266,4.411152500044595,-2.172109349672437,3.987513858301522,4.273773120650247,0.6025712575655046,1.5719829565910943,4.1112324312598965,3.2961354104549176
1.3899067375767178,-5.16217065272564,0.760944165524343,0.4474472349718487,2.5740460884364733,-2.872708568038883,6.27453835554974,-1.3385672795514338,2.941789430807475,3.817575468273196,1.2887418212661048,-1.1760595482785074,2.9570533910354,-1.203286061005482
-4.4961269463488405,-1.1327803013014854,-0.9502467163710372,3.47863340517423,0.9284475820881308,-0.5557981491686832,7.559927291263263,0.9899692299047906,2.693724736848793,4.670985712411116,2.00215704451257,-3.19454679038785,1.1214610627092103,-2.84290499999333
-7.6375240797061394,2.1739290792362627,-2.119780066286173,5.400407202655593,0.0994509623752044,1.1313387873120622,8.269299560030092,2.6038581306997006,2.1690407682171724,5.367858022892712,2.7418360018455377,-3.4753647515133643,-0.1444111613695469,-1.848426459706129
