AF3,F7,F3,FC5,T7,P7,O1,O2,P8,T8,FC6,F4,F8,AF4
14.816474877280854,6.709097972378574,13.083840751813216,15.857346425959904,3.511818930268532,2.807982393166386,1.2995495947154254,-6.099635053917657,0.9965667598376418,-0.6174224370754056,4.5732970764522936,3.110181893407167,3.7923202923708086,8.19532538711655
15.318599737571995,6.594526844582218,12.546290403619697,17.1146112069872,5.662107852068829,3.7019077230584094,3.547740347915647,-7.655172024531303,-1.1171736346800372,0.9735064877642958,-1.070464654870602,4.7895817096027,3.840336478678098,6.78001473011145
14.131206376550898,5.569755579661181,10.864784963203965,14.865072276279353,5.883993084695405,4.2082826684968415,4.752183660410303,-9.434250450899444,-2.3544158328902407,1.117655473287964,-7.864118305481062,2.159992123814231,0.5339768429812962,-1.7998519409386755
11.798689359610758,2.2553545814732576,9.334646262619252,11.538224574071345,3.838921948393794,4.418377560218387,5.674064407563611,-9.117544926194013,-1.8972422728523608,1.4475374972405248,-12.20354212521744,1.8387580706214492,-1.1516767576004387,-3.7230371542818657
8.278643151062143,-6.773872578472976,7.831597531882658,9.148222744346349,0.6097923824239337,4.185639153310067,6.256580522026654,-5.956138178958627,-0.4405280369431923,3.8106454360310336,-12.30686016683011,2.66262008754928,-1.377395125108194,-2.9520549003091023
3.4955820072551926,-9.376057470521149,5.418906225426289,7.841534753263451,-2.0978613369794266,3.448660426753753,5.721527531021259,-1.2418904764411818,0.328741873323024,1.7143391102336951,-9.606091996985782,-0.3310502902597744,-2.935498886967635,-4.325973106946627
-1.681803634602125,-9.84307549911376,1.8941437963643464,6.520023690196002,-3.1797845755870497,2.4650512247226075,3.59600702326758,2.92677744634009,-0.6915902448448115,-2.676955132328038,-7.401983605915894,-4.592491693268304,-2.6754269242178617,-2.48279845587553
-5.229373785849765,-8.164201765602161,-1.338368823129958,4.669178963653946,-2.7224764264660486,1.6865868731886144,0.6163937565739439,5.3160745227261526,-2.859139755239015,-3.1029907026681944,-7.924418657013349,-5.596532690661192,-3.89796021379945,-3.146704607278423
-5.094752751356271,-0.6960338999812673,-2.078501417339365,3.324179632531959,-1.6098299594481067,1.3940053515049318,-1.5308317686272082,6.1933763847621695,-4.210999079077665,-3.543432129908505,-10.398694948001117,-6.193969606037751,-7.266111940399962,-6.112614385796043
-0.9386511032701764,3.429332951771462,0.7437016217286541,4.033433328043832,-0.7083276087724606,1.4355760743836958,-1.6166223518316771,6.538996071695688,-3.1778970103293656,-1.6236932324724114,-11.86665471133415,-3.2383561729199077,-5.157696493877885,-3.7850560643347992
5.026182486359717,6.8671194242682585,5.720429405567864,6.840305435392044,-0.3919855504931533,1.3177156468336235,-0.2095773966181706,6.748366722592785,-0.0632491245539883,5.129695920070208,-10.033777064557434,5.59595176574011,0.7243568270197784,1.024997500387079
9.101493078585404,7.003620225654982,9.53399711398285,9.516073168161409,-0.6182966297264072,0.6015838880288509,0.4319051073332624,6.11213963767749,3.05945704156846,4.957358675354543,-5.542758741592619,6.572718549713011,3.920942553389362,3.274870549665922
8.573197402736835,2.977296963228296,9.215347108200742,9.198673244919842,-1.1895723119968502,-0.6889380320539025,-1.8767388738064272,3.5526539218373507,3.9681453087611542,1.1749212537506444,-1.5759438603192637,3.8293185180524656,8.385107019973901,6.443402397615622
3.7831969097452633,0.0626640654338092,4.40408603727966,5.157372385745828,-1.8309601268517544,-1.9811600262922004,-7.177695366997059,-1.104577433916612,2.0408660360670403,-0.4052363538015832,-1.1233396371928093,2.207674028750336,7.276192504665165,6.15278818204327
-1.928608034487935,-4.799669556419884,-2.213992696456404,0.0077796281625484,-2.1280039923306946,-2.509249339535595,-12.839673183926338,-6.550110488120878,-1.323329129071778,-5.458444728457744,-4.369706177127233,-4.598277279515218,-0.6378075217189092,1.606557363828025
-4.595243480955654,-3.949603077993277,-6.765479153280701,-2.111237558133794,-1.612381037736857,-1.886407639220484,-15.24608537790922,-10.711225686344022,-3.884399370869689,-4.543174118152287,-8.503225304856796,-3.1858632738987445,-1.0146467369727867,1.3717334748237386
-2.6072196820179645,1.3331519306382025,-7.014130185480744,0.9251931426937092,-0.0768165438914951,-0.4466976462768256,-12.49781610321404,-12.22847057208935,-4.292456416987111,1.6930330566895306,-10.0574195972111,4.375197392465946,0.3634131701205022,1.849370421106376
2.020767662029766,4.004729569473776,-4.011842890164464,7.082486537592183,2.147994137687108,0.9523044875717191,-5.961970972571953,-11.468977178759776,-2.976941834269083,3.282737625614944,-7.734508682176546,5.9539165678390695,1.7068030092769433,1.7893266524577245
5.155681482558106,9.708304995057777,-1.291469885458234,11.461436085242475,4.264378027744422,1.5339477701091817,0.6251203042007478,-10.233455577555851,-1.6048892936127688,5.754585461673478,-3.4057355690185025,8.19500451103059,8.364936573627386,3.878220694090614
3.6719533360913386,7.530502698268486,-2.1905756417592004,10.075040588845262,5.428759235584527,1.112435249104862,3.798244683664002,-10.380187146240502,-1.68117514773959,4.310871586850067,-0.6371539766803593,4.948748421401595,4.867036778426761,2.0022022000309856
-2.23803489229331,-1.8102728857991035,-7.302479089678922,2.9581040665848093,5.222731708885704,0.0920261661075709,2.6550290948061384,-12.423745626529746,-3.427871872436432,-2.242530340977611,-2.028580543911333,-4.906093213528305,-5.626629041476266,-2.457050454747689
-9.273767842429482,-5.98977607294562,-13.90824450681108,-5.905266377652577,3.8788809788284535,-0.9714485526563288,-0.8974679710936981,-15.126358478532852,-5.7088680289982445,-4.312106640159323,-7.337630232823612,-8.62503564265087,-8.493773199225549,-5.222759739358975
-13.410550464703563,-12.68655091825565,-17.736805305203053,-11.578043913455357,2.183844025998896,-1.778340417591643,-3.878885548119556,-16.3129937177347,-6.9117710510321535,-6.407929926521124,-13.56703485339504,-11.619814549425186,-12.62174445928878,-9.308524705026873
-12.536364736965984,-11.32953496741766,-15.767385452979717,-11.510465103287489,1.1411771349894553,-2.3086280995658144,-4.369494754320474,-14.28649079408702,-6.062094379481257,-4.927432859424187,-16.81796903236522,-10.498980185202084,-8.838804399177318,-9.128751766084251
-7.525339412160627,-1.2694919141206609,-8.204881963826484,-6.741380172863496,1.493974421680875,-2.585515580593686,-2.4263198302309408,-8.897378604831838,-3.4147486925092374,1.723627072265054,-14.712169035573504,-3.0691316992871,5.196993583007988,-5.165557519772185
-1.346210869610328,3.399236345989733,1.5472927429491232,-0.5623731670525824,3.242403641678403,-2.574049735991772,0.5636124495531015,-1.6349836435013527,-0.2173778078988573,3.2120791576982293,-7.932263383791934,0.611880065092681,7.485983151030059,-1.908804276782007
2.8465201147344485,10.460816118650628,8.799115549048231,3.799866439457173,5.429897758062776,-2.3522565028865827,3.17629404082245,5.253585388703112,2.1198761734487257,4.0880621966160335,0.0986509757167066,6.192945833907986,6.908222359621755,4.458783011457862
3.35439282865322,10.386767133987297,10.21069105408121,4.699756575968566,6.5137523208870185,-2.2459941075668217,4.782305094367779,10.046224463463275,2.899235030569777,2.492277549314053,5.342248250110466,6.833717779287737,4.4224057642682215,5.748351627114741
0.5647095633261527,2.4630968590219307,5.661905387432743,2.223774731411565,5.315504177730386,-2.5917352527000377,5.556202756345628,12.437072430627373,2.519179134927544,-4.202554813079498,5.815242751634393,1.2691040312840685,-6.55908895909357,3.0120639352051457
-3.4890468305751314,-1.1298774363280213,-1.724525521346592,-2.4129226637953614,1.9899120390221416,-3.280794531274976,6.035183557918369,13.465521024015493,2.128860580211223,-3.8369211967098615,2.9470284329637995,0.989887167384964,-6.668979458004142,3.250411873663026
-6.297764349861819,-7.547611366903637,-7.490572233947262,-7.485269262893912,-1.8096963180764811,-3.652043110544877,6.6801961275117385,14.51300035213525,2.7634204352524048,-0.6560114399121347,0.4634122611634472,-0.586724862628625,-1.4838547705694285,1.410192807679127
-6.2584233007994525,-8.372157724804289,-8.59711690059057,-11.24664371648147,-3.924601194103884,-3.042468186686447,7.573787204895217,16.058038820040146,4.535374571642713,1.529531091565718,1.419213265259064,1.6941844805830426,1.393366311827392,3.0092482726428686
-3.622643351023557,-3.1443412251387057,-5.273636654506325,-12.481862459859045,-3.2361476312709074,-1.5542144264564262,8.262493754755974,17.12998472084091,6.473512821952545,7.600735713888372,5.595977689689147,10.154192356881362,9.554286861966988,8.709480331432973
-0.4180000672340049,-2.050257341303265,-0.6711422908307236,-11.034323819605529,-0.5443262464807495,-0.2008084108350406,7.904235012227131,15.961826635655385,7.1773890680221895,6.434990073239648,9.436752548599152,8.684041250770672,8.725683232799291,6.308686425113428
0.7981806990995954,1.0795680535752337,1.5012406129016682,-7.845380086959786,2.0308500406811247,-0.1074862012862369,5.858399455584841,11.440302950313374,5.847697747047113,0.3854530271979886,8.793848887430475,3.0592448040153406,1.3227642772115504,0.3218666458841204
-1.2688486941847366,2.0509177733574195,-0.3164795477844149,-4.257202594304927,2.7312876728144477,-1.425911983619527,2.413577727215899,4.268933500440981,2.9411546469675107,-1.9608624432682809,2.4363913637818766,-2.2119069362729133,-2.6989554232658843,-4.125793125736695
-5.4901735371140985,-0.5769237183375565,-4.457778797057474,-1.0485849367457971,1.5599837849088052,-3.031519854278213,-1.0479900116800742,-3.1133618239004672,-0.0417546284870199,-6.71841441268891,-6.5264349003547295,-13.381549443197972,-10.7434760293792,-12.359545596762269
-8.754362804119763,1.6563875991130377,-7.338244286204984,1.914809777724276,0.2127053670669243,-3.392405935839485,-2.856032420765312,-7.911696392946021,-1.4958282400300549,-6.5844607451815325,-12.604860450041317,-13.22748578130503,-9.867065109172955,-10.891456465213215
-7.957381934441241,5.1438217160589845,-6.1083882367095965,5.022029200433565,0.5944991210376704,-1.8616810200257143,-2.319553930009992,-8.707802939797418,-0.7372958980668766,-1.4800950392686172,-11.866569427500531,-4.9729190648662485,-1.3530477543649746,-1.3572867749394375
-2.2783311991014763,6.13848715627948,-0.6572401233737954,7.888254758091318,3.184832484202923,0.7929451950959243,-0.3336485933288076,-6.298862119625783,1.538556671749514,0.3885447113112679,-4.804034664656064,-0.7467827206066244,2.993379388000822,1.889445075926091
5.947515607368109,7.987563349751596,6.425036149461589,9.111628300033038,6.617554197713469,3.0839453719952723,1.3354088540363849,-3.0445810142966514,3.628216182393433,3.764792726340181,4.091768650091504,8.310987621982587,11.29416401492113,7.268726268366523
12.57059672098047,5.218142212451313,11.715046509689842,7.313101067853852,8.755282253719475,4.020438300332568,1.5236842393178929,-1.225385217057708,3.7974657397944735,5.081143750906809,9.639887712335677,9.33085920087426,10.704206956353058,6.827594383259678
14.331772500670146,-2.0148010156686875,13.143268784192356,2.6424138093266256,8.273302168530591,3.716171838460261,0.5641137045055498,-1.621264073776689,1.3241872194632789,3.1930072737430013,9.500952115344116,2.9375213756952308,1.9286888976332115,-1.21006761937475
10.942253324227522,-4.8208949274565445,10.939155001289148,-2.749974924672689,5.451133813800684,2.9472262871444226,-0.2326263604081604,-3.2992860043720587,-2.9939945266415933,1.8372213030307851,5.263263902011346,1.163725268656338,-1.363497976133559,-1.9266186328166368
4.989778965991496,-7.603969876697612,6.892754730354133,-6.012671551272351,1.695906908158512,2.266246634671564,-0.0059859577623779,-4.639950931381518,-7.234415722930397,-1.0289628069911392,0.5619508095287555,-3.4771935374080933,-7.733531219306932,-2.180968216593941
-0.1307607000288666,-7.367721006295297,2.808076991983432,-5.779512020507365,-1.5729744674751782,1.6080054926202358,0.6897080354713033,-4.70231409650879,-9.502615108020034,-3.314406932294855,-1.900326834343942,-4.724828397941896,-8.62392836838177,-2.276950041583552
-2.507878620748757,-2.306988893632624,-0.5105339586030864,-3.368641743302016,-3.6780080075629744,0.6723886030414514,0.318994630615014,-3.846064668511843,-9.13607249879215,-5.154684862052619,-1.946858277583172,-1.8553731555882824,-2.997805603724833,1.570880535105355
-2.4739128751184567,-0.8435629111823206,-3.082540935783948,-1.796639707715114,-4.647622683257318,-0.4807764170082551,-2.171814033047103,-3.203271463787272,-7.085654703683123,-4.899978219361434,-1.1547462602769414,-1.5724480016797555,-2.645038331633024,0.9147227144263534
-1.5728999230815193,0.8191709878080293,-4.894645244656261,-3.265279970498793,-4.762155200926753,-1.3358781682308956,-6.17416438509489,-3.5439458198365954,-5.129624122977695,-2.331613080368389,-0.8496290306531322,-0.006364341656041,-1.5379709980200802,-1.87631310707536
-0.9855359375753396,1.45440118411019,-5.441351131780846,-7.192424301370668,-4.282235957159985,-1.4002034537337689,-9.591064710012695,-4.529744712550436,-4.494824059040678,-0.6411744366263713,-0.8443726996531145,1.0882452585950233,0.2627268593886641,-1.269281247904575
-0.8313786502907328,-1.2688567293810948,-4.212981554151154,-10.541417114846087,-3.524792177801936,-0.6961298591922128,-10.291951524014902,-4.974452984836882,-4.983079219192352,2.230938721123513,0.0795606709294047,1.1855935835470766,-0.031026903482053,-0.704907744055828
-0.6494509845286383,-0.4637437639322618,-1.593609534070518,-10.322150921278055,-2.961618471437979,0.2406598564911612,-7.724059034589386,-3.867065190507959,-5.293171781086036,3.068821630080367,2.6495124791496023,1.6687048442606138,2.034033761921553,0.1718587537467137
-0.2212759178476822,1.6666773707804328,0.906329865966861,-6.234266364532277,-3.0271824194064108,0.7839356225796994,-3.4261043542915552,-1.2806250213437282,-4.198308056013725,1.8458383381637464,6.098144280509064,1.531356879995479,5.661573962483504,2.879194797273994
0.1818490125210878,2.389106085397533,1.571154258256062,-1.1437373355964953,-3.751465337692219,0.5997456015374025,-0.0154609081587286,1.6172107211484612,-1.5347492486270404,2.0045067497557496,8.632906866832425,1.225685922509685,4.771351484887125,2.422681801380877
0.2193820194476918,4.520259140192843,-0.1245269858090472,1.204819116404459,-4.631851868062381,-0.276587228955536,0.6483006456513074,3.4961458957122096,1.7835371349235996,1.384652356664214,8.947811077315574,0.6039688624955903,1.6042365112658323,-0.0538080486129265
-0.0599228689145086,3.4755298407943247,-2.912477523340628,-0.5608387001444974,-4.9661278553530055,-1.52270778387715,-1.1968272252294057,3.9816108572683007,4.578507979430534,1.737168575750946,7.419785490699802,0.0515940454282772,0.7547319296842123,0.1827678661095138
-0.2574181217764,-0.5810563062442062,-4.567858388567913,-4.065402482807538,-4.398854411933977,-2.5670409867440744,-3.365921140823036,3.985932531260089,6.2242016987193,3.3106166965841464,5.896760682489786,-0.440002745617283,-1.184164016727607,0.5095883990205189
-0.055864927310492,-1.5958257400313398,-3.571761398161267,-5.107820299804315,-3.1955079097325725,-2.6850519046511483,-3.302959901581485,4.878291360957089,6.806432291714121,3.82869204659619,6.168823199103561,-0.5260676758187582,0.2087741085861433,0.8960508304630556
0.4818895419553932,-2.1465459775272184,-0.2484190536062867,-1.410717845989975,-1.992208637720812,-1.3817370114968286,0.0357615409953154,7.115287900701734,6.691078536084628,4.904507813191754,8.352153953829786,-0.062740626276704,5.7528391607298754,3.0042279077965044
1.055513299376666,-2.020877383497928,3.511420556298136,5.10711476817386,-1.2405465838293313,1.0670829092333325,5.363883789354163,9.523141775919044,6.075729576899144,3.034519111603302,10.570208481651488,0.5302124529983069,4.682545733472457,1.5410982992511235
1.4831056881131426,0.1616030137456111,5.623858149489839,9.742628612066438,-0.8336156822168679,3.470552057130021,9.902392918457014,9.984670811319813,4.95398181951993,-1.5669460433850986,10.299952907237834,1.5707295411057025,1.0975652854748783,-2.4877112678612403
1.8008602891180483,0.5124572177553932,5.121482981098772,9.012548335793742,-0.2465477670427907,4.367286305068407,11.213630715078358,7.100615818123642,3.394279594151139,-5.463778614039381,6.347056576793703,1.112400006302302,-2.759552083027782,-3.285628459381276
1.9607332943814444,0.0309700850575834,2.453404899556242,3.66061121805991,0.9053368000864654,3.091673096352805,8.664041768169344,1.471662762662041,1.7293922416419574,-11.322090558072976,-0.1582250917788767,-0.3803091541628777,-11.077941507314954,-4.022928949049557
1.5234126126840215,0.4243422699078518,-1.1894678714316913,-2.093677326292133,2.3586892358932,0.3376981777663683,3.549123067307721,-4.520686459607769,0.430678264775262,-11.806389677043311,-6.529893195049333,-2.603534309812072,-12.14011938751405,-3.5355111868443494
-0.1186480189929601,0.628902310313492,-4.706855378366766,-4.309291154127969,3.2279220507091404,-2.3531270577334977,-1.952094203167268,-8.29789831138663,-0.1752222063421947,-7.89744585307942,-10.316756072655952,-6.452508590904614,-8.571020984550419,-0.1476150325601969
-2.978182232302601,0.597549944155868,-7.3579341485489245,-2.514359095540189,2.6569113928839747,-3.758330818475051,-5.999930849224753,-8.732671516761823,-0.0443125110446527,-4.1824152528791965,-10.582888408458988,-7.346975858351121,-5.636373191457995,-0.4565130231505629
-5.8999938759563815,0.3616451884913473,-8.524248834502647,0.5255851817879914,0.6363099480797915,-3.7513442689743286,-7.66424002178242,-6.573503437971146,0.6829238702134686,3.126782533623893,-7.835316901201469,-7.262890542793165,1.356912485310282,-2.963061622361141
-7.0193313569308415,0.5030694104173856,-7.61500993171009,1.854881898862454,-1.7372360816665888,-3.0551365895534643,-6.838258500336292,-3.498412751269432,1.829103576419368,6.383519044131857,-3.1528194739285818,-3.4780581566033475,5.482427645652697,-1.5166307848504563
-5.223759410337035,0.8677495649899137,-4.522254957181327,0.9529995729501975,-2.930073424593549,-2.3509711912743496,-4.036167526270355,-0.7962143428634669,3.182579703381579,7.224652230457136,2.3408237961966147,5.414046381650736,8.306308596835363,0.8428863974541974
-1.4256528696659458,0.3261507680225796,-0.2066065106084562,-0.4683215692624074,-2.145883782500999,-1.6767433461854966,-0.3512596950117042,1.216288217825754,4.406729562219559,7.918082180626024,7.312298827054467,9.449286542647126,9.614538056360024,3.148405758191428
1.7487427109283362,-0.2644946970347817,3.4575545243743893,-0.7353473119402536,-0.0156954520294055,-0.6279025677309165,2.735668621172848,2.8148026001696262,5.083193190132388,5.446790436051865,10.150539919658868,13.280968129611187,7.807822781982248,8.009673512281074
1.9661718764793052,-2.085529147340159,4.86435678330329,0.1743585206805975,1.8938696187346509,1.000727786016092,4.043184623923929,4.17809429227435,4.971364478320853,4.937561923602563,9.768174184622268,11.249918988381207,5.562171988000485,7.359541961589203
-0.7308024292573214,-5.699011281720643,4.009131030967554,1.1980877683841051,2.4186280618264497,2.8745992407383945,3.534460285066564,5.104938605155207,4.24608624367837,4.708149125699966,6.774303688622977,1.2808403169472056,0.578832015621877,2.3765765939945465
-3.78860189724593,-4.896162062870367,2.604176357249984,1.7672656825282829,1.783037136435774,4.38496613377013,2.438224951156853,5.245621545361652,3.383314660253877,3.143340181392653,3.5476265234784163,-2.217553689906389,-0.4360238896332419,1.805693533271602
-4.347170001900183,-1.5278903414551654,2.563168658549699,2.2716318418600885,1.2641715273986998,5.135878357423469,2.230047801339813,4.44613439904791,2.6987383439185537,2.231819377927031,2.505027560630632,-5.204121131148581,1.7325740448337577,1.4609593329024635
-1.8947340983381524,0.9401871377970156,4.093653606705814,2.9982954889115083,1.7995628874024692,5.109142050667766,3.2551723444517835,2.863422366075141,1.98478233997336,-1.0915814543306757,3.8448564151600033,-5.966187557467854,0.4957496386838433,0.1632288580408979
1.1675827600035462,5.804461314586253,5.2942226615310775,3.23848921384816,2.9009961090564715,4.436958296917906,4.37869309630601,0.8758008859211572,0.7097667507429339,-6.54572921872807,5.06525826730651,-1.261628986538559,-0.1219469954607075,0.4695166574223965
1.7479190915129916,5.901340805421208,3.89676523633348,2.0539217449681986,3.029327971350809,3.1944114252742795,4.163174918598383,-1.0310889451401533,-1.3027966302085563,-8.52874587254177,3.155423204395932,-1.7932805747593354,-3.8288206694984295,-3.2721008980879
-0.9243015632231256,1.8978131637601936,-0.3453057976019953,-0.0814408489881546,1.1640562752645625,1.5257080291420495,2.4544217779908517,-2.37560139661651,-3.391377587515246,-9.59009926927527,-2.3394097823007307,-4.052496131325594,-12.130531698181883,-10.807502406678552
-4.381717729720926,1.3405980709478889,-4.975614628282764,-1.024446194388461,-1.9716919191520976,-0.1141284389661372,0.665189336816346,-2.874705894405266,-4.393667055408279,-8.12602498695104,-8.379136551915327,-3.391955915258288,-12.154394556452145,-10.697161224143349
-5.077054260682297,0.0461886976648913,-6.734414246822425,1.013303820371794,-4.346249960154995,-1.0878631853143228,0.3092459261771141,-2.6521124673575907,-3.6434724194793935,-2.358506084884344,-10.800983212454211,-3.268255946141524,-8.048879496443464,-6.971219828434771
-1.6600507388273202,-1.365830549166756,-4.3984026974207975,5.0782298033803865,-4.424754988486208,-1.1441567463713986,1.247617657027854,-2.196934901159903,-1.6950248419424323,-0.5471093803344065,-7.954893627617189,-1.6275657903647385,-4.659117879430501,-3.658866546413536
3.697462400573869,-1.1838321720806038,0.1045228437335863,7.569715097717377,-2.63540508524522,-0.8442330882432043,1.5800020974964128,-1.9519804451253289,0.0420640012849067,0.5398300314016358,-2.1643804434114635,1.9104657845646769,3.3575922444072583,4.1679019820587735
7.184549609122488,-2.9737355096165965,3.3900510772640344,5.304866294168954,-1.0213031875210576,-1.21562915146149,-0.5086471832105379,-1.853518514235943,0.5375684398448128,1.9801527291724992,2.411709503810677,2.352638158820912,5.857877587191175,5.931188084522191
6.68581074224638,-6.039330439292924,3.526532080678372,-1.2251742990450891,-1.338344028305792,-2.771523506292147,-4.731731867724258,-1.3601709447241217,0.0661275747108223,0.8419375444881178,3.432033116492149,1.476370270925954,4.383509797909936,3.2908076173417355
3.487741790289765,-3.7275303504435686,1.4515574430203553,-7.748274162693045,-3.397050368978608,-4.8375380830492265,-8.626865222025263,-0.1126285774414319,-0.1831273505058228,3.5040714410450025,1.999872177930606,1.947748338009373,6.490664858638835,4.821688910911411
0.8616392913891247,1.9211598541415784,-0.2849044035030066,-9.634560280889596,-5.24054724505616,-5.991867393981716,-9.651138466353022,1.348826640787467,0.4667945789809629,8.393389642581674,0.8225509184924942,1.9876936186937584,7.622809773526013,5.430280049784535
0.9536156895203254,4.563465115463189,-0.0639896891667106,-5.750363841271176,-4.988288470242834,-5.339076929959937,-7.48489731423007,1.6313632557328672,1.1545971986058952,9.12152785099986,0.984358818346931,2.201597850080784,6.7905558702897295,4.521261128309411
2.8997271830437024,8.401412827823162,1.4198837034013725,0.7669767732783757,-2.591953517634268,-3.409293577251145,-4.333075357778228,-0.4980183142802037,0.060870455709737,9.198566728070224,0.7338582050955509,2.9049539998994947,5.608142397376815,4.141183364009628
3.8170727474694592,6.237386734749697,2.050088794774365,5.316980020234952,0.1218085634511467,-1.751716502479953,-2.949685193854694,-4.919738108852138,-3.750939213228426,5.15767472134885,-2.5066725913974164,1.6515584325176993,2.0197886758121086,0.0885767894494823
1.619506347275078,-2.4849448097967866,0.3667094404349607,5.466702572328845,1.0963571194481432,-1.5621289863356576,-4.261056175800075,-9.908606286790768,-8.967764926475956,-4.944567931982848,-9.077381067306757,-1.157788288015594,-4.855651202970192,-7.954583631162709
-2.971295969153103,-4.946483276343596,-3.140212854329599,2.305489833009722,-0.1818123437850134,-2.636435982473734,-6.724598014582894,-13.174643405995376,-12.619610344947889,-8.754532928735895,-16.163462657922018,-2.5346928226930845,-6.5045507033509065,-8.558917711567823
-6.953495140904352,-7.130589662841068,-6.466812216380379,-1.0668700336324417,-2.3333557041453936,-3.593748067138081,-7.820252911528852,-13.3592037774158,-12.316124730509436,-10.659353449040395,-19.9332504848301,-3.758925787882445,-5.033805669252235,-5.276596437745824
-7.483944598772931,-6.1140538621510565,-7.575530969986414,-2.023529643447788,-3.318911828770652,-3.069242767498811,-6.1429774822691865,-10.713366903408415,-8.164381608954184,-9.240179324744078,-18.539617494028118,-3.5807543988576414,-5.131405640942056,-2.534382069592807
-4.023556813063386,0.9406869305152764,-5.598882683200536,0.1888513270221914,-2.048091229727817,-0.743490237593361,-2.2612679213185745,-6.476243800311059,-2.594669427681773,-0.7172422806808099,-13.123264541948872,-1.4810397654288496,-2.801927337358749,4.964370304801507
1.505075159152976,3.609617164851188,-1.0938591357505132,4.539745490480075,0.9693919801321056,2.583515651341574,2.116199712490131,-1.7097831511494133,1.7347515894309462,2.9230713736289005,-6.243354893278129,0.958228603562544,-0.7375159500855919,7.006339072297634
6.359416342088829,6.196938176062712,4.401611883258484,8.955407561554834,4.241724848306853,5.678573049729948,5.582881950501977,3.216433991617195,3.963048920589064,6.167533511900697,0.2307806334946045,4.811578870066747,0.5987358508947646,5.128903713230213
8.810089320799715,7.360123137402247,8.988480397759295,11.11902799502254,6.421332050573012,7.577145294923765,7.729235057227339,8.09210465563013,5.120118713289248,7.551820394970842,5.5937955921917615,6.829202265149328,3.9592284503891,5.755943249883871
8.747658882435632,5.435268858113032,11.011103474681624,9.449703612933508,6.977011703500297,7.84563092469286,8.740340260483382,12.05670125954753,6.395114056886213,5.364972348094732,9.206216301510771,8.65046756061571,9.403040158447084,5.040005505584809
6.979860333427267,2.743180502044232,9.683427119466243,4.1928264313068055,6.093833639467064,6.521230601640264,8.647964436391817,13.602049783949884,7.508555835999804,3.076188052749528,9.779621318648063,5.687649886179573,7.387263137188968,1.5831237889006493
4.2329753828267975,-2.744716363859783,5.566178481845562,-2.265499686029715,4.205042255990122,4.020871132395388,7.141452079626327,11.616510713007472,6.937524625403464,-2.287244483669136,6.367396764893631,-2.773386359621383,-0.0165758391114243,-3.724800293119367
0.8237382670476414,-6.365559041505782,0.4698023808019806,-6.692595805213875,1.7191843712334722,1.0645686260294225,4.086069160884465,6.568939496893313,3.7573823814568894,-5.402155109665942,0.0530187354351978,-7.293084053974681,-3.809278498799274,-7.499779470873567
-2.922922013644147,-9.818551967082923,-3.42066748668529,-7.291999223371342,-0.8901153231126431,-1.5121426283081143,0.1240083855693773,0.663643057155872,-0.8746590793078601,-8.22334382665764,-5.894562310224739,-13.0900167311957,-10.544238729022448,-12.270402073724766
-6.20057216373183,-9.182802337617783,-4.759463731195575,-5.003707661040447,-2.918874823546536,-3.0379740413869323,-3.3252025625980397,-3.346329340697835,-4.25874414309517,-7.19389441271232,-8.184454165195017,-12.167226431963131,-9.460458647693986,-9.468166450804558
-7.849613091752351,-3.6386005757222217,-3.735891491600889,-2.4416049513571942,-3.5506130853252893,-3.179507921005856,-4.763906918453747,-3.855569292171344,-4.349560121048568,-0.8773922149419171,-6.178619659215567,-3.4441254231551595,-0.0729876557864266,0.8517759979693894
-7.08472798432145,-0.1347249998009441,-1.7264337614833354,-1.3811928208100803,-2.294584007612664,-1.9142809340584384,-3.516497130385977,-1.3559766210812687,-1.5608369191734677,1.946577438050544,-2.4277001977133525,0.3113589691889736,1.4016921813550065,4.290370077437689
-4.201409786941892,4.832824592435127,-0.218134732772748,-1.3065493972556903,0.5836474013099733,0.5271558734346482,-0.2009737018035806,2.0373925478789507,1.5359114590745486,4.90358645504008,-0.3706808630460636,5.194174692893871,2.049640538046684,7.474315257455447
-0.6058585772541925,6.594340747128915,0.1089196982909945,-0.5049694687272459,4.038521857462921,3.5705100524218394,3.54572888922359,4.121497545330429,2.3574379659176987,4.935113764619032,-1.283392007378922,6.85571224610688,2.8209855701026685,6.476115084207915
1.9590392285462817,5.090259876798111,-0.501565023300214,1.5330020347487352,6.741917502011743,6.19957961508586,5.959117942156684,4.1174742927035854,0.3769486787128302,0.9235505308702556,-3.2910657950608613,3.746905845593664,-0.2775386469367508,-1.6517261630910354
2.481968302292748,3.827704099109365,-1.4188039040303528,3.139929126012695,7.81452308125578,7.218754269064532,6.178236602788745,3.1128705950440203,-2.62654871085548,-0.0202782127634547,-3.2378518305191144,3.646974291163645,1.079131358337817,-2.211615199875132
1.292692934633069,0.1486022321037493,-2.142274743487945,2.163075352925474,7.294760812660741,5.972560119571629,4.789591298499175,3.108871253005299,-4.184566981953052,-0.8535269673277692,0.470874021489144,3.002018628763608,5.396409763638671,-0.5887410033169161
-0.2165882577567587,-1.7394448056800238,-2.360144971041664,-1.4067026017783313,6.006297056476416,3.025618011528837,3.4278688419164096,5.323757664718768,-3.113285269870097,-1.0559003607472617,6.631860258049667,1.760160749481686,3.915314555930532,-0.0323967314776987
-0.5534532053138025,-3.0327653531936987,-1.756417856191109,-4.808584035587819,4.908020484172721,0.0662007994472873,3.546014725655262,9.00746884743766,-0.2495941313048514,0.5728569025128626,12.436180720694356,1.0557065333390654,0.2230213309245667,4.040532526664435
0.90152678677478,-2.85458518593015,-0.0588607272181613,-4.842711367026633,4.393729930994033,-1.177537715811745,5.165877034943097,11.752077945564878,2.432735147052525,0.8224590303238444,15.651036242235271,-0.0301447446311695,-1.2255636705420023,3.4270186466895627
3.559174427434458,0.4990775235473071,2.585268696817532,-0.9647539673681544,4.0759625618265165,-0.2907693729571215,6.653183231512623,11.18672168143997,3.394870335279952,1.8703660275056693,15.78735648632744,-0.2448963770634087,-3.044262783379614,1.1392874475436805
6.096063468556549,0.8573021079899475,5.382153735751127,4.013639115973177,3.232918840038847,1.3669974024062546,5.890278879504729,6.79583935756919,2.5118980148863823,1.558369113732777,13.621972868869976,-0.7527872514635472,-2.422496872470334,-0.3017309692840626
7.34769486422302,0.4297348910924257,7.261712954977643,6.441277570929297,1.5569368661732652,1.6646703402979697,2.0406751920262103,0.3946874095798214,0.862463568034092,-0.7291818973978424,10.086941900867457,-1.7281613173331976,0.7999356980079613,-4.7673088385382645
6.975120502191208,0.2822580886955301,7.630942296838972,5.127190068800817,-0.4482151411216784,-0.5025483881880033,-3.552448179802896,-5.146061277617092,-0.2843393136673815,-1.854065944305037,5.797446341352926,-2.4205170317589624,0.2590010787463383,-4.959251275998234
5.476953358708871,-2.072254960021665,6.764235699051667,2.1870498504064795,-1.813497195139964,-4.104898259437493,-8.177859724630718,-7.868108144968325,-0.4011925922803097,-4.12258551635752,1.3858255467072065,-3.9115065989018825,-2.3150653741158345,-3.2804644666082816
3.629089838839567,-0.7378087425362516,5.382310666303116,0.6798438981181207,-1.9247364727165357,-6.618040215224013,-9.67950980201018,-7.78093514750467,0.0974280867570343,-3.200094298516702,-2.226690478717302,-3.3944848716095555,-1.9633737630138537,-1.070102461091876
1.8608971748335383,3.337588960850546,3.845675899322549,1.4891524137120653,-1.0735810125231544,-6.027219955976204,-7.917898615377905,-6.294376727585803,0.3912726556276582,0.925369210784162,-4.287580358865714,-0.9791136263374358,-1.2229093160554911,5.082770289816808
0.0917472828067289,3.140083781860228,1.860261459936736,2.577471158265191,-0.2046919475168884,-2.559158481223086,-4.62090064596263,-4.787519679223809,0.0016318711514342,2.57330670285171,-4.975565351772095,0.1382078167678154,-0.1143402273906183,4.971853921352525
-1.8739622411103165,2.129396784949049,-0.9309172598366536,1.2732668436008696,-0.0861307720852426,1.383298168969527,-1.8922469601318013,-3.701175748954442,-0.8387630491241498,3.761381554311024,-5.431303659735407,0.5989547172521209,1.4897711418540016,-0.3190391771161048
-3.822390111674452,0.0118677943573834,-4.090859306671855,-2.7870848683996314,-0.7034510766168007,3.108024487037933,-0.723484038100056,-2.7918012226284885,-1.4107522945582696,2.8088039557347027,-6.70427121090905,1.123222990430958,0.9647453650529068,-2.362636864503691
-5.056971209563367,-5.5389957083819255,-6.268472893025478,-7.011877846608076,-1.4476960992871375,1.7636329353377918,-0.65275709817245,-1.930475364791406,-1.0747147050882395,-0.567602152217234,-8.542831332481354,1.4765439247197687,-0.2014000902607821,-5.801017889165308
-4.940934508751275,-5.118054124844506,-6.119237139272793,-8.108606687073246,-1.8344863329286696,-1.0993495710788868,-0.5619872401179764,-1.3950014485096658,0.2915841187752486,-2.290447911867458,-9.35067924490729,1.4164175549718334,-0.3118426357146586,-4.517649552278279
-3.5792415123866164,-1.1174775100064434,-3.496042164034295,-5.041515898258612,-1.944632010630697,-2.95389648740293,0.3183640620578798,-1.363053014109777,2.2851160278468097,-3.7550833206919703,-7.562500084812028,1.78457892798212,0.2651742366932119,3.12763230552614
-1.938933453520325,0.7187282964656435,0.2064353887896828,0.0543930567101454,-2.133702250284324,-2.3896587151084403,2.0268649711487,-1.3432219602129989,4.317973349932833,-3.3203237627037567,-3.1998562527841568,1.2333159450546378,1.1806732438298797,4.678473345231094
-1.1845696095933462,4.789867312708584,2.922121507960993,3.692121879920136,-2.439128791102814,-0.0859333414228513,4.122240064199492,-0.4144180448351731,5.951866924734903,-1.014165421257088,1.9099140830682968,-0.8465517806606591,2.3154311017846028,4.842065550976215
-1.7829752666384382,5.11966669186359,3.27076249621963,3.7736785661841568,-2.484154539381948,1.977028895835125,5.998677952601463,1.771283926238911,6.93864616766157,1.066584141220408,5.468111204031294,-0.1917635410723284,3.417183790352597,4.464182701319759
-3.1938993076468645,1.335983952008803,1.2897473254628489,0.8543330488272769,-2.084337504755193,2.1418899447726862,6.907196505128349,4.233474791637144,7.016949977540543,5.783963615749369,6.270489164813627,2.607883156124905,5.7248624415990985,0.9138816453592202
-4.420276121871138,0.420962174412293,-1.926469581103252,-2.8518941352208964,-1.8364084743865468,0.1122086097485182,5.957683175450722,5.095582020182032,5.807310782002833,4.905238862692426,4.572184604294825,2.248841104804189,4.288036959694435,-0.6000378496779788
-4.85221625300917,-0.8228694918076693,-5.147190806401786,-5.450942830872567,-2.8233978625822838,-3.177533084711892,2.5775626074308864,3.043522265667894,3.0830998860311314,-0.584841699837575,1.2365068584786592,1.1631470168780336,-0.252424780486409,-2.1147317523056874
-4.5748995775088215,-2.9037084903559403,-7.578144115369635,-6.476714225927333,-5.4881876958863565,-6.334841479245115,-2.6633542331354363,-1.403938597981774,-0.7297484131267695,-2.493589058800371,-3.0398575695169314,-1.4924359602197983,-4.261531874547792,-4.3011400955160966
-3.9095362310877952,-4.109302967502934,-8.725044817309442,-6.451257098700113,-8.76084352058315,-8.138165501561108,-7.683283037467112,-5.980598362979353,-4.364555799345317,-6.961841729271081,-7.452149137608064,-8.019521862338607,-11.591959436454587,-6.920786957271693
-2.793218193043612,-4.364558235785108,-8.038822799454783,-5.783651663777362,-10.49688747897127,-7.813605897282054,-9.754917774460443,-8.149356437495836,-6.2659311032902085,-4.229568540667104,-10.353595243464992,-6.867770059840806,-11.103631345850966,-4.802008261970782
-0.7839281401580398,-4.208314308591271,-5.077583249686929,-4.321648868610788,-9.091877459123552,-5.252375034956867,-7.356455050120871,-6.838519175078279,-5.661008341661536,6.325127658808184,-9.551226809882682,-1.041911445236493,-4.314356925943752,1.4200476903834514
2.209286680003524,-0.7035034808931842,-0.2610796599872116,-1.9351450086195063,-4.937031048439069,-1.2771130057691884,-1.6308546152408354,-3.130182339457354,-3.2886671885361745,7.245108944875993,-4.079809114904773,3.1762047781912868,0.6594527284318554,5.511307205333159
5.222685981410447,7.275336292160309,4.571167339787687,0.7219553329070221,-0.3890107629122545,2.4064994685612087,3.946697567667687,0.5064147759032489,-1.0369373584136374,6.219169407437477,4.036420471726336,11.632390707269057,10.107806362732736,11.70937814041419
6.428327773381924,7.6096956163438545,6.712634900580022,2.307737985616632,1.8175071499855424,3.9387797510505,5.744795712144664,1.7670566251042126,-0.6039251835674835,2.390998939812772,10.201679756774958,10.236258745247753,10.995574050977131,9.302445287436386
4.311619774535565,3.996510542952132,4.259389118206292,1.818180568045742,0.4611327542876107,2.451268418137346,2.461272985583568,-0.2108479999479132,-2.2152236551224944,-9.380879126535836,10.285507025211215,1.115690824821858,5.137497359729875,-1.0154555874357405
-1.0195236965415035,0.8407400610201563,-2.267941176230843,-0.4633004926145964,-3.4266958866926758,-1.2181139712187876,-3.9767226374930376,-4.494910821050751,-4.484333273641469,-9.384565697234953,4.057791533566237,-3.761000642948055,1.600024825527822,-5.627649560243998
-7.488849969418155,-8.045386473741267,-9.778216182723892,-3.122724006870984,-7.4231687730579,-4.913631036158317,-9.751894005445813,-8.923779029978057,-5.559157670458956,-3.1505552448085954,-4.101232328131712,-12.763150910106678,-6.676370057818723,-12.32255237610505
-12.070277689906804,-6.958962222737052,-14.32996170702021,-4.795125092413312,-9.379863918403418,-6.484847865852691,-11.651883450912043,-11.216600505005882,-4.587857899277225,-0.4306777295076918,-8.285121617829864,-11.557872614212425,-7.582619118840883,-11.14660592638637
-12.538107021920217,1.5286096473732842,-13.591553268170111,-5.1951460348674114,-8.643864932330663,-5.123963057790783,-8.903645888727858,-10.153577749944017,-2.286904272848494,7.234447664726649,-5.658326596876659,-1.0426148387417782,-2.797352912138537,-1.0301988500620571
-8.781449096704915,3.0819645404089853,-8.250072002324748,-4.959078864998337,-6.134016337690696,-1.7872262456722114,-3.269844328565199,-6.3093968004177405,-0.2250306147020007,7.015220519035962,1.274850535091419,3.5623555732969248,-0.9963178619352966,2.524211441030771
-2.8388548551571,5.800522335086511,-1.3702500947514615,-4.5413928536925,-3.482893700075264,1.5414165714480004,2.310208464314845,-1.852512571020081,0.4556200163564248,-0.0565947724665947,6.741027279895592,11.47420594579181,3.96202993037836,7.413158271852446
2.313548193105489,4.196687543260215,3.7042755346026857,-3.4950040389339816,-1.9884425343066103,3.179459096940021,5.428977020712063,0.6666697060153883,-0.2314501202693217,-0.8686885665243884,6.386057885138595,10.789853164562713,4.487456580246496,7.81072562405761
4.455336547444422,-3.828180721112505,5.334470912132344,-1.0554194328744182,-1.997512561083846,2.746977410761714,5.307341546456043,-0.0814865532072259,-1.419750894105897,-2.6662698815650256,0.6244735546863991,1.1628821388566593,1.1473083974615197,1.6129534040311728
3.327314808614348,-4.19047497600522,4.16835196517874,2.5483932044698854,-2.917322064399858,1.202825359490952,2.90064805140163,-3.3056431528798846,-2.255707797102927,-3.14779814838179,-6.045652537208765,-2.530160623222816,0.5856555280877194,-0.0400107335418971
0.7225565734371122,-1.7981097988393169,2.242897518919759,5.635960592371736,-3.686568519527909,-0.0226519318714417,0.1433410766547418,-6.6106415732862125,-2.46369180061824,0.1032802135294761,-8.866517885460357,-8.723900163407503,-1.161209954265304,-2.6153719957655066
-0.5760931174064332,-1.9487177650371856,1.5324036227877582,6.311963164093472,-3.393822801758234,-0.1002172431405112,-1.230280429135064,-7.584881103337832,-2.20560336298079,0.0867119947223429,-6.313497622796566,-9.045469373804716,-2.0078958516558645,-3.574776180475616
1.5124374612532852,0.0246498627816711,2.9445621245019025,4.391746536181737,-1.7408498181278542,0.7299355513597834,-0.6596177046368059,-5.283399233165864,-1.5997340405985845,-0.7113228578978288,-0.5009635024453454,-2.3438685182053804,-1.3874914239800358,-1.179564373829562
6.939943421819852,0.1349091490712636,6.119036300704739,2.013101869360068,0.8595299934029657,1.5857679193785714,1.0654701230658217,-0.5970453307004235,-0.5371435300620191,0.8082849586991806,5.209878933897079,0.0853449567936291,-1.3181205807565903,-0.903175965526624
13.27177844647695,-1.1974356894784464,9.784238631733572,2.0135548178043203,3.584591405614974,1.815998870112882,2.554361846217128,4.548564113854615,1.018345804729756,2.7429255442457983,8.818854713833982,4.961543292313639,-0.0960155538745131,0.4555198806738931
16.944718804093668,0.4119990879963341,12.30916702852979,5.347844287398081,5.690511843948331,1.5353942905315208,2.9220940676651352,8.385910681720988,2.677293427004434,2.4429930205333643,10.346795945427614,5.940377330621801,0.829424789360393,1.2108872875134271
15.487233050260013,2.807597968164621,12.354363700654512,9.98649992604063,6.860260998018658,1.4192473884240595,2.375445445069862,10.101183705023418,3.7645167296406754,1.3076464688839071,10.724697150648064,2.05964759950646,1.4454799675568413,0.387232124750612
9.260708328859987,2.5887615723842625,9.512851990453449,12.453453904499128,7.1903962910378745,2.03440515797802,1.8393007251151012,9.944587861020482,3.890782305669908,-0.5036155696021615,10.56478979936279,0.8896040393962968,1.2165210686232852,0.631839090543181
1.3761242645466654,1.054938027438407,4.629413565604236,10.691560356770664,6.910392427043594,3.345821940498011,2.044575699720373,8.850678801221619,3.342322703234955,-4.45776253188772,9.968633021392746,-2.2635568940726163,-0.5696592273321157,0.3805214278950682
-4.318416728429383,0.1147486013817369,-0.5493069027831936,5.676299939740842,6.144807870512291,4.776842152757284,2.9276721431219896,7.874416835689952,2.8239808317532864,-4.413106261399823,9.049132480351568,-3.077179460955696,-1.1659264647394096,0.1903557366725097
-5.7246635239814125,-1.6810003939948523,-4.3083692653820975,0.4047918796577895,4.93731788496296,5.687428004195601,3.825357409286269,7.682030063278209,2.809824346671056,-1.691643496026386,8.211287284386461,-1.036665065327134,-1.446326827273537,0.5553296302338331
-3.574406043829017,-1.5243548038642984,-5.866095351189821,-2.631525385162898,3.450881949953727,5.812466714540347,4.133908124065207,8.281863361204069,3.190239154053911,-0.992935462631116,7.844194065099584,-0.8285233589406673,-1.380356904335617,0.3306609830788402
-0.3705998680734523,-0.0710754259000536,-5.576554282077338,-3.100656733259152,2.067738235329272,5.3506402298471,3.769047515090363,9.12995622804626,3.5445762206378872,0.8691600267277904,7.909981427900697,0.2958105324911482,-0.4547045840237037,-0.5724892848923298
1.7283328321019884,-0.0528535529621288,-4.367580320319833,-2.3307404143719204,1.2349029987362052,4.720641408586686,3.093947443278436,9.54739345141398,3.638361525406349,1.5499121587816482,7.946880331899614,0.6303369181714513,-0.1428436900199002,-0.8038032703132556
2.2184103744008903,0.4806699274116766,-3.013043837970307,-1.5862232327615615,1.1759771500090688,4.215490688247028,2.514662729553849,9.154988116790562,3.545189825251025,0.4779049149262716,7.43897126067661,-0.2895189976507442,0.2664575820252958,-0.5552846495389892
1.8918378852283229,0.444767308790683,-1.8347903497792128,-1.0376670930767893,1.7408781974689655,3.825310770025477,2.1743487957763925,8.035904533019803,3.360317289754369,1.101820721904024,6.189055813143604,0.1022884996540897,0.61642863752642,-0.5089681680678834
1.594479271841383,-0.064548292814171,-0.8532240242612401,-0.2478005431642738,2.53095903646808,3.3506252300587143,1.9540221666220263,6.589194973972836,3.019537046194868,1.887133415196156,4.467427250721539,0.6471518080750148,0.7783604857318774,0.1964665122917996
1.4946417845285982,-0.1904337422624761,0.0166665570494073,0.8130713902634876,3.191484657682013,2.6930065352198103,1.6660941723112552,5.24740792420716,2.516874410806886,2.350400202632161,2.875166040017225,1.4355009311937,2.0065730223074705,0.6802127754586402
1.363124725232831,-0.8721421613005697,0.9417575162824634,1.6228214372694638,3.63547327948356,2.0236780887115136,1.2327752338416065,4.235590381146772,2.1353978751322327,3.153889281709424,1.9205256668671904,2.9203891069806622,3.634281755105332,0.7774800430183629
1.157716280597909,-0.7546529356367631,2.1175505211460752,1.9287696841073747,4.035291144411094,1.6066449700155638,0.7385128824775573,3.4539280445772693,2.1755607195703206,3.59280587695768,1.496215238394773,3.12202004194964,4.380025227747747,1.2300205345586153
1.065475370894219,0.3695706983092542,3.4991238833908773,2.304556952389645,4.602341729465116,1.412857602676193,0.3481810986611005,2.541383549709165,2.385095856615064,3.710398899112068,0.7600228137249858,2.1027737450606594,5.000179810580899,1.7513830660292349
1.0597378176381431,0.521944492481319,4.579250710036228,3.525439182418999,5.330176554948176,0.9713180443455056,0.1384645798249848,1.157238396850964,1.92539552757949,1.5394755368610102,-1.2014094343204276,0.5803497789928018,2.1722849092914758,1.2710074960844482
0.7210045147840161,0.4289832620299668,4.664508301847253,5.412238184043456,5.9161133471627085,-0.2541579369005866,-0.042078383001086,-0.6543317889598601,0.2423699034793571,-2.3822867441969717,-4.348071123792542,-1.8182665463016487,-3.733356307799253,0.1881318880904199
-0.3049198039023661,0.2933937033733791,3.5966469288490845,6.652656270935412,5.966713147553342,-2.2414873338597694,-0.5252071886566696,-2.3452230972365884,-1.978117812562231,-5.42757331421053,-7.387784521954318,-3.655511382176889,-6.594242588066255,-1.2856689764955778
-1.7227990355074403,-0.8179019480445251,2.2063312885726027,6.077687830836961,5.363413192000062,-4.198251133995829,-1.5407578519078071,-3.2072991608072856,-3.008533975068276,-9.424392214483294,-8.765457404096558,-5.1726838963805415,-9.462686129866274,-3.8064980991182154
-2.621824275762024,-0.663094720556908,1.8535614209876063,4.075702817596924,4.475139596720045,-5.098893849379987,-2.909903484815807,-2.9526406928928925,-1.5726234060892272,-8.130528239749669,-8.085808181334256,-4.91978212828976,-8.29764819587368,-4.32555514717762
-2.1883168160277946,0.4886692215549536,3.2911907153619664,2.433972822356906,3.961317633238712,-4.5465359484855625,-4.055998720702196,-1.9952449693912708,1.7351893877549218,-2.22414174068528,-6.461412422796235,-3.01203983933218,-2.0908762719667835,-3.643922609157728
-0.4259564514970475,0.5567284045661893,5.840346051212005,2.526799663826941,4.247429067160672,-3.147692438462567,-4.45445341691026,-1.162868255894665,4.606048940749601,1.086626105585934,-5.3869243025304,-0.8310258226471827,0.7290681200090638,-2.0875072248979527
1.7510941849991952,0.6759454841329318,7.693004745725874,3.71092060467283,5.1081447013591,-2.0274046647200104,-4.161455262685003,-1.11549700782288,4.7597143883259685,6.90341527570672,-5.402564091372351,3.8164396794167463,4.8367859739300405,2.0082439514118104
3.0705643204677338,0.3065215075429203,7.156574037454815,3.754393250638256,5.77192640787005,-1.9355451295246728,-3.869583412891578,-1.9963840701137656,1.7026540681707991,7.147941157961199,-6.00482671120125,4.659143676599959,5.8490303034196645,3.0964851243350666
2.659834879276745,-0.9583268968749894,3.86280251213844,1.0199800635476883,5.516863200164309,-2.7391343220140376,-4.309134990370303,-3.5014359704270843,-3.030973519039671,1.5245951369372346,-6.677241243378806,2.502537368656525,2.37351442798787,2.590571556893363
0.5674326709005109,-0.9283854840335766,-0.9551983534609988,-3.800058869475168,4.257266658184519,-3.660898530615784,-5.48473119668187,-5.121952553320696,-7.179756411591924,0.4725864860226317,-7.570117998990063,2.010654125292658,1.9572694743923764,2.6063795252415107
-2.2299575197503865,-0.4538618197516224,-5.275684008723442,-8.2103920235555,2.5997661025962637,-3.948100143494911,-6.524996992467125,-6.324570328733114,-9.309949906627985,-2.0635271227847,-8.996137968780804,-0.808985192889314,0.2077672734065067,0.5262686647012831
-4.444183792639959,0.8948939853335917,-7.605858470649167,-10.175783484748894,1.3308806632996588,-3.3834964846793705,-6.407691316675685,-6.729246502890547,-9.424761649737205,-1.3144350602774575,-10.62907639235356,-0.2490659471077447,1.3385323287625606,1.4797864740185804
-5.4589398689204405,3.7405103018311423,-7.9144623475460385,-9.829968928354964,0.7960442512124344,-2.328712773426071,-4.932425496706967,-6.362768447055105,-8.505433143597088,4.3414553047135245,-11.732941432745037,3.7837675197010223,6.372207523947501,4.7259010810197
-5.9004533217555295,3.4361117585130314,-7.513586147411288,-9.002896470298467,0.709752042446822,-1.3593624521848788,-2.9367213864108543,-5.742723943127926,-7.631957808200337,4.323329431318715,-12.207424086426863,3.188170759586695,5.811104692836443,4.361945703003347
-7.051492844858445,0.9316370509580084,-7.896314719457363,-9.228304677607182,0.5041979124759286,-0.7854994022825734,-1.44742835701752,-5.482047405256434,-7.323763211757387,2.2087813719325435,-12.900005662261073,0.9919943960820128,2.668781333131361,2.6438129878255388
-9.394845989826438,-0.8152012273136677,-9.387258250762216,-10.348554771120032,-0.1308138056283394,-0.3925358660428398,-0.5985307865913185,-5.63936723216062,-7.343900246251787,0.5459172327072249,-14.465188648240256,-0.5188240555767809,-0.2772527183482481,0.3681925367810614
-11.740458153403363,-4.054547930115495,-10.802075936024798,-11.011571977985826,-0.98913190064973,0.3402133590296052,0.457310754830622,-5.562573639228178,-6.990476189301713,-3.519863303938354,-16.14606250530474,-3.751659158657796,-6.050716258296758,-3.9618885501230743
-12.133918509457391,-3.708181202246656,-10.557082921398967,-10.25687541865493,-1.543020094067002,1.6194039019428426,2.387708343712969,-4.612264130050522,-5.743825407997955,-4.695023240215937,-16.27150096269615,-4.111101903291159,-7.29240951406531,-5.659828594027277
-9.907481464045048,0.3179348586047893,-8.286909620634344,-8.39763798900836,-1.3882283624769027,2.831616713809796,4.453765096619938,-3.081663951334409,-3.847855494286483,-3.356376143691871,-14.17325799258322,-1.5226760883638006,-4.341811345074127,-5.30624133018335
-6.699854587404696,-0.5259167872363162,-5.351777868352129,-6.457468774522521,-0.5741424253971228,2.7760225245008536,4.730394610570436,-2.1520443027561944,-2.268187507983719,-4.143308485769749,-11.180712428263256,-2.357559491196756,-5.754884826374177,-6.084072519370135
-5.048201588338244,-2.6605455130665856,-3.5781992550614232,-5.027082455987614,0.426941309155189,0.6785139275159249,1.913936793766561,-2.667758312988095,-1.8904780520056432,-4.917365337035751,-9.167684822038009,-4.195978938563397,-7.836543630958935,-6.29832395948177
-5.776464056378321,-3.087173020727905,-3.409856912404136,-3.83086954817864,1.0773574445306917,-2.8351287253102293,-2.949807004682725,-3.964644162950929,-2.6183019817973854,-3.4876231684676964,-8.15637541321719,-3.4426708495743004,-5.882887462623885,-4.127007977325851
-6.956122481825464,-4.564936102199908,-3.411592797843584,-2.289549859378692,1.1720715489233493,-5.855374904341143,-6.749604578237658,-4.198578057010417,-3.31223179681026,-0.4323862501966339,-5.93773363785124,-2.142268594950771,-2.147480564567969,0.2830155352183831
-5.726772812531124,-1.486519682772404,-1.747762149417678,-0.2500190530884048,0.9670541442525422,-6.519803304771481,-6.694315012240809,-2.09974851986102,-2.776658357895668,2.6082001803373567,-0.5219245493250355,0.6933963114124218,3.144255672696492,3.7702704863846574
-1.2040099274594969,5.611201236968165,1.8346161948983413,1.943148766020233,0.9258124438710816,-4.4599621323173455,-2.705472038945685,1.590921687370873,-0.8841582870970033,6.554040936442968,7.173361847130813,5.9170507533451415,11.663250679625294,7.762740277423601
4.541508779303937,6.7013303534751705,5.590632371290491,3.9061311030668406,1.299467907032067,-1.04028974195114,2.483491697442838,4.584692937667054,1.2962274560152505,6.952440203132305,13.54562484797598,6.6809187216987365,11.798889611337469,8.02298741443953
8.40416091499749,5.461428713564649,7.369429533970972,5.513450166096989,1.906964892251916,1.8077230194414016,5.663043154565591,5.053598169975279,2.516681988935474,3.652336163364008,15.4559361479035,4.506987946070101,5.198343323234674,3.884597337311473
8.986110501623704,4.328214271425716,6.564140706101544,6.741869374282948,2.2938430860959107,3.03120850261513,5.701801948558562,3.203140712378456,2.4753341250106606,2.550571724346513,13.042142510005307,3.549084386792181,2.7494032571299445,2.118303743414774
7.422267405587288,-0.0867981720436215,4.462502580166212,7.418990818118178,2.1079484698704984,2.9087037627556662,3.989034026329908,0.8842120910865363,1.923232560464652,0.819597425911427,9.316324517539597,0.8100034593306504,-1.8321726719185285,-0.4007764920599472
5.797188387407045,-1.1194967669455234,2.802155169630624,7.285457981913261,1.3444982091441913,2.3442412975451816,2.646417891360638,-0.2395769993918319,1.7404387852847512,-0.2146186496526262,7.175674060941706,-0.4764613780259458,-3.2249989269908808,-1.896474622250679
5.132462360750968,-0.0421417197772481,2.1695240381774346,6.278900128058038,0.2680367475019924,1.9309906931284275,2.5377769144348985,-0.0529164940539687,2.046845741587344,0.4173725598326309,7.059802422745981,-0.1941105794402313,-0.2991684026231225,-1.267422012335429
4.9551395121799935,-1.5238114976627128,1.844775602273592,4.662031204136956,-0.851913466127785,1.6784159843474078,2.983396471910246,0.3619100931082375,2.287767049836291,-1.032024793555331,7.4163049362594355,-1.5928536088097405,-1.5597965316297062,-1.9662262041227807
4.415603614199264,-2.8408311095559333,0.9789289051118212,2.8545721660671086,-1.926243841031661,1.3816610418196476,3.037832175788586,0.1441787934704064,2.065827490671901,-3.160537506898415,6.917465282760037,-3.172810289728444,-3.1011262554538246,-2.361328485309797
3.3653778543161126,-2.9420846032564776,-0.3785674574489452,1.200171985092397,-3.01177701302388,0.9916459647642116,2.6246092997681973,-0.4964232355466125,1.6700758020356306,-3.2571606627796803,5.774166760649049,-3.090753369985011,-2.6996733904273764,-2.144897055069949
2.300854976945496,-2.8116210377822384,-1.497988766643786,-0.1379954944763697,-4.169869033157729,0.5982238575598395,2.3403753677319354,-0.7911848431238973,1.6726238319173454,-2.475566862433143,4.993587092512116,-2.2248850997475844,-2.22747069429178,-1.8384926533256216
1.6040001325532347,-2.212373906064232,-1.9996928413956487,-1.2181370878826936,-5.395679229558907,0.2401020449807309,2.481624043924429,-0.4934028945000781,2.125823427007436,-2.5131359526738364,4.910000065965611,-1.8809617589736156,-1.0217144756389358,-0.6973604149574578
1.1429722233098136,-0.6484565520704266,-2.3793450777885963,-2.3514149768819643,-6.65438299868861,-0.1129203445962154,2.662903088339448,-0.1965023047429408,2.4148573113243943,-2.074075908904677,4.869720012893309,-0.9512710870773116,1.1623174454195455,1.0966211531239494
0.5660320862682511,-0.8651374392478162,-3.381178366071992,-3.9350652678648266,-7.929122515806519,-0.43755342348312,2.454401546013488,-0.5421836214975313,2.044314411111041,-2.5434488991610333,4.253694536370941,-1.0844869478197865,1.6680754719742763,1.656931184213609
-0.2607916855104673,-2.8874861283613678,-4.93236038081335,-5.964017008569471,-9.219556312710797,-0.6662438548242995,2.0997833909303347,-1.279404106998677,1.4450375257112853,-4.925475951513918,3.365113556989849,-3.112477725485677,0.6988618844342535,1.309216061567272
-1.1836508128214789,-1.6170238349780357,-5.874347063922885,-7.601052586115056,-10.530500154101688,-0.8620087378791057,2.2886859282084746,-1.3144221035146677,1.7085992337049225,-2.2000677991473463,3.032615448386898,-1.2527839510489769,0.623659371049925,0.2903635094283381
-1.949809767435972,1.2341396193308496,-4.871446614003073,-7.468288918309048,-11.891247337547592,-1.2367829991609565,3.231699041585306,0.2119528406756297,3.367561698913704,4.0574782886504845,3.4879488016678177,3.103521879059372,0.4605190864844286,-1.9834706922274847
-2.293509035002918,3.258315634747516,-1.6468693408771389,-4.732078754835003,-13.33719262229118,-1.83721393100567,4.211994994907597,2.9196556817636576,5.555397822655333,6.192035987996393,4.002618859485166,4.410022670627006,0.0769335668556861,-1.5443515695004713
-1.9032573690462105,7.014707993379287,2.625981555259477,-0.0591611615081264,-14.77446070459047,-2.2239713998004267,4.257061070614136,5.3130341309204345,6.625692847544325,8.828928636498146,3.7949578099387,6.264263119792431,0.1044422434645525,0.6823556645672094
-0.5523878800126862,6.690481424462687,6.115982988644226,4.588562646020629,-15.831407984342087,-1.63891523094113,3.2098377265762537,5.964208066212251,5.756348808855798,6.571265775455799,3.1398500453964626,4.6089437875907535,-0.4490049231093708,1.930803932925512
1.5726557359117752,2.8056293462810937,7.562618254305956,7.2740173572792575,-15.961529090832595,0.3167745799089694,1.9529299122722772,4.653422431403941,3.870731675817847,-2.111055197681783,3.272401125212501,-1.7328253018122222,-1.4456662349460578,4.373277449605091
3.730077216348199,1.2588622797913338,6.9111331165747965,7.312411689050302,-14.905620157414514,3.090286555954334,1.4759777944789896,2.4438757149010595,2.80592874211688,-3.765822868451727,5.019852713451185,-2.835793450270764,-2.025131668018604,3.022211918527672
4.994279740963778,-1.1947514725923545,5.0077598645254415,5.328794052981559,-13.19149281469846,5.3010179553508845,1.7791157692734867,0.7068852806339514,3.4897747973341176,-3.123268229404039,7.603792914995921,-2.2365280815745017,-2.105735142689677,-1.3347901928854249
4.932234540924604,-2.511690341896941,2.856848373188729,2.3795339013141774,-12.09986066720478,5.576138271327082,1.7890219081086478,0.0408324519633858,4.981924843057675,-3.315855200431973,9.024181004928824,-2.174838868340092,-1.4441381512707814,-2.449675654627557
3.984509014828337,-1.920212613861194,1.1428226411713265,-0.6925608821523959,-12.85601962381996,3.4557155721692183,0.3810007831262361,0.0081006118451547,5.3742342245997445,-0.1909614566241421,7.824237694965799,0.4597402167580655,-0.3336088279636757,-4.075332482699761
3.1633331821454096,-3.036300891267904,0.2288632007311122,-3.0481182479253874,-15.557342369001116,-0.2979397240487209,-2.518912006241475,-0.2210712967992147,3.6433346837645786,0.0956843730238455,4.529190874048162,0.6529868395631827,1.6700316770019643,-2.882576885711807
3.285699019435091,-4.442532614425857,0.3126791211514561,-3.4612043288984307,-18.78251159443611,-4.128383096642906,-5.776741658790131,-1.0126832705801885,0.6211608116574183,-1.8243970878892712,1.2719860157217475,-0.8510151515291051,4.5733330445977565,2.024884793593716
4.352859798392275,-4.106811309501636,1.38894829118291,-0.7905214823976685,-20.39431713129488,-6.487738908390538,-7.899806294326183,-1.9783344510654324,-1.8109815407279035,0.6573428083748406,-0.1166578077564999,-0.3896189798040164,5.24104391315906,2.2248672170056225
5.588037188351734,-3.065558255767117,3.107648567587521,4.792619477476453,-18.98044629818006,-6.537192997651991,-8.060111646728124,-2.410028107033924,-2.430955936500516,4.994775172858486,0.3050027467988556,0.1942680420917089,4.989445463498488,1.3505591076908456
6.10499205244728,-1.3108572077703768,4.835061055789064,11.132921140398317,-14.74411274249594,-4.454074809138859,-6.489821380162332,-1.9694099101907288,-1.6461362993845956,5.530828121823417,0.8733765722148608,0.2145115521202369,3.295870902614909,0.6444140437063124
5.674323144533627,2.219826453518779,6.011363222415158,15.071467808905089,-9.102915683050306,-1.261899516807249,-4.112947617353413,-1.005884085131738,-0.921237780276762,4.492115995555143,0.1541384115949746,0.3790101533749809,-1.7860153381816757,-3.17603601659912
4.915065294696653,3.5002741220284785,6.482474688045281,14.563481970315298,-3.461137366495569,1.7209058830943746,-1.8704500210646489,-0.2504852126359722,-1.336404499006436,1.5499491813579405,-1.558808430861177,0.4203448083756297,-3.261584793700722,-2.136650268896508
4.678267156900834,3.349187972705865,6.439977084792266,10.165881516323765,1.6436454217238818,3.5318712584793097,-0.2629702045033149,-0.1699046860729964,-2.644238597395182,-4.777105904890829,-2.588657837762076,0.2474941215960412,-2.838966567715889,2.288056742608733
5.132846580079416,3.2966675067245306,6.031702259973013,4.589950313000319,6.314632077542278,3.9369709585459134,0.6808715046169489,-0.5366880043434374,-3.60576528002848,-6.42529525724545,-1.6516156489606164,0.1414581484471187,-3.728040300388842,2.1654463873566567
5.453957681700512,1.5887851271016684,5.125936390164704,0.7272000993041701,10.486757502426634,3.323704422334224,1.148948014518389,-0.5840007152007338,-3.1876413028900075,-5.229819705970197,0.807763971057387,0.188205395949127,-2.56745467215423,2.1510848308554
4.528344202611983,0.4193218900584751,3.5685141746151814,-0.1999020508780802,13.621366186726192,2.2893478170720627,1.2915474063867052,0.3699753630770068,-1.4923264483823218,-5.161606209646236,3.057759667171496,-0.4739996265413806,-3.2673035908352066,0.0498407405943068
2.13344214532982,-0.63258100970652,1.7047711820266578,1.0151329942906244,15.326140378448727,1.3210243216343756,1.1724552232953016,2.358054620367352,0.4124966304625417,-3.102713979770147,3.798900392746493,-1.8003661423884216,-5.91043556584652,-6.318989126656392
-0.5642237696130152,-1.7650977017401277,0.515656995926669,2.693956565499086,16.15026350818166,0.7555399541859629,0.8963205456825882,4.725926793133787,1.537827137726314,-1.9456634327066389,3.357066125697081,-1.7403651048038804,-4.14530794790935,-5.787815537725747
-1.79844680793434,-2.9491762173616243,1.008130975748255,3.7127956653505594,17.47602667250751,0.8393008559200936,0.6888651812719786,6.62946898874182,1.8548394099759875,-0.5920430817338849,3.20361699074326,-0.8289571668216001,0.5259790417590199,-1.3727375319326525
-0.6483185211017215,-2.565979495009496,3.3006427469360347,4.0877040032924015,20.37670004744434,1.6338834257117512,0.7648643101036541,7.608620187984215,2.1562037362933677,1.801737965947134,4.414083440570984,-0.130487507428681,2.7945185946042312,0.5318906331346308
2.186777822132761,-0.4493361808084086,6.310042345860282,4.449967688135278,24.5097874622849,2.8444627206324604,1.1184198871059827,7.754909186265113,3.078228025681156,3.760377952329369,6.660696488148915,1.2068831574916288,5.345431713821338,4.680919643179646
4.951273076400799,0.482264055329179,8.455011630768006,5.094341136679809,28.20821138194442,3.870173045189098,1.490350081546957,7.404617554028562,4.328175381770159,5.01731624205012,8.595714965794656,1.5961853633898373,5.581571003190073,5.23698546696948
6.162998329879351,2.012386895300587,8.802753553158208,5.527794846998905,29.768620634901083,4.193522204820894,1.6064559357692048,6.747985222328893,4.939621501309265,5.092024719327947,9.04362436523468,1.0924693351599486,1.9256748499665923,1.8327940345083304
5.520580500701776,1.9163415953029252,7.609229235727849,4.909034598620593,28.75006833617584,3.775969946223313,1.4321497761360895,5.760241922408962,4.253309168052809,4.736188109247186,7.806084290158946,1.2458940808427936,2.0428010279105053,1.8043835299523123
3.7579347260622136,-0.3061341475005785,5.795274264072013,2.9318868406723944,26.12438210642353,3.0172307465407044,1.1207592312041823,4.440977952334677,2.5265224928360475,3.735969520333066,5.525959839752183,1.2425195787223622,3.403160938087384,1.7822214597716042
1.847118785656857,-0.6394863426493065,3.99460891458428,0.2533373196936956,23.293625213366013,2.299837951024834,0.7286944191721645,2.989679777773663,0.533137994396153,3.0352569534909515,3.0316209131107428,0.9344746056182388,2.638943061248005,0.9523217508668984
0.3386773353912744,-0.809967657709785,2.187490190029638,-2.054231509727749,21.01286752750585,1.625179201866498,0.1135563357698252,1.660009000659752,-1.3000498529456903,1.8343649078858693,0.8273834946236107,0.3482913589214032,1.8423973922127688,0.6844629430379882
-0.7839027472889839,-0.9086756672222718,0.1809565794141114,-3.571257813481747,19.14522026566683,0.7645056012955322,-0.7902619248602605,0.46692062151131,-3.1579120387986563,-0.4634037770714646,-1.0411528385050488,-0.5814808328007806,-0.8202884255673413,-0.4213920790621031
-1.9098674196524212,0.0413510083202587,-1.8221177852665384,-5.000244695398951,17.19497327525889,-0.2622172238689515,-1.6560708453415067,-0.8277716422714789,-5.2209802411572745,-2.824594343026232,-2.886674040075043,-1.6930790357816796,-5.311856659382448,-1.8936866089244944
-3.499102335932568,-0.1722396126068615,-3.3651907664279417,-7.331891878118057,14.891465950672668,-0.953869829760805,-1.87967584533585,-2.2941768769343334,-6.997349290975974,-6.321185739500947,-5.081464061234016,-2.3103776682329005,-6.528834135482021,-2.98087366886802
-5.729929088464461,-1.108837413534688,-4.4220015103770685,-10.339438303853411,12.30578788111071,-0.6607644904329959,-1.0951730222407503,-3.397827176927029,-7.534734656970139,-10.86786973510697,-7.57094693181266,-2.511306517964188,-5.9582782734464566,-3.8670934227438334
-8.195365743833197,0.2954878062099987,-5.65448455570035,-12.008908371460002,9.642922196154773,0.8248901440457068,0.477473350658304,-3.1685139579661143,-6.385735364106196,-9.906420354374706,-9.537658013964078,-1.525034024589426,-3.57510666344066,-3.777508868262861
-9.979397860471147,2.7685774647887693,-7.729112117793544,-9.951105301275025,7.106391650058336,2.99606089645607,2.2499312313342905,-1.0724283193410482,-4.255043357847969,-5.723951244997763,-9.78218917843455,0.5950903062632067,2.001422630716986,-3.078957856385674
-10.33974635167285,4.398509011691027,-10.41586329731924,-3.947529920078592,4.903258344646801,4.903172605413445,3.7250396051142687,2.1231281758281177,-2.562017287337546,-1.100381035824749,-7.864399046056265,1.893138140360336,4.485729060848987,-1.2986118895086194
-9.590268605881873,6.847578378634479,-12.655504674897696,2.723125189148419,3.1433856404778595,5.6842761690180446,4.579080764160739,4.440821888133687,-2.3332628752730558,8.030154648558542,-5.061356378453976,3.55849068939468,6.722010645448847,2.0716040066491024
-9.255351041799232,4.036617201014054,-13.716006630255258,4.946748138950674,1.5789370440732746,4.933645374290773,4.34152347639295,3.946421127827618,-3.5238585058627905,8.690255006326316,-3.933831535746682,2.51485486145756,5.312885033925068,2.698001652708134
-10.967011045678962,-3.180580931694309,-14.108697045298758,-0.3362555320760467,-0.432251355574639,2.790342106780038,2.37727454349527,0.2551026169283066,-5.310253568292005,3.324268903827319,-6.414634497803083,-1.1789045470722042,-1.268075980347519,1.9513775106233768
-14.798876229487776,-6.3452944326205305,-15.009551453192712,-11.125197872561271,-3.4252120966562547,-0.1472853812024706,-1.4061222813646772,-5.0276862958899695,-6.872781076291353,2.205990943816313,-11.927611942028005,-2.3179679893945395,-3.3231597886224296,2.103533048796822
-18.58847956348048,-10.20447052868657,-16.60396916107858,-21.075042271138567,-7.089415390278698,-2.98954963129434,-5.76151063314884,-9.373059509372707,-7.816041967600539,-2.197671203023732,-17.345076064152142,-3.770791249646684,-5.602379827176458,0.9838021873350202
-19.23316520128669,-8.108549025824228,-17.31206278682249,-23.84523716677034,-10.12569903001569,-4.868462223478816,-8.430754756552368,-11.058524485485066,-8.02858979255887,0.0987636396123925,-19.12532938764824,-1.9350764967627927,-4.363898633517572,1.6465696654098314
-15.195672295234296,1.035483801194799,-15.158088380702203,-17.782167389164997,-11.140916599914744,-5.356582203202389,-7.800399525203987,-10.157835558653558,-7.480675861024684,9.352859983790829,-15.99175195795756,4.019637278939734,2.5593911078498057,4.053626538470164
-8.112009232291346,3.437043778583485,-10.13479683371141,-7.112618426387179,-9.952962967636012,-4.7282721021625465,-4.4697695735025,-8.12316988109805,-6.371238809065856,9.812284252284853,-9.96583590997644,4.874543845515296,3.463233394651403,2.507980996223996
-1.8914653777939003,5.677221406011989,-4.9482718914581145,1.3621295593399505,-8.044799246466479,-3.790499816224586,-1.0178180620428026,-6.523878920829018,-5.362935410120436,8.64971244755633,-4.936125282194623,4.550262394645484,2.765316426657224,-0.7908028453578331
0.1958197173171338,5.312033128495948,-2.919196136985258,3.340378628239897,-7.530179368442948,-3.3321889699492653,0.1012247187753492,-6.049447434325275,-5.32677273004482,3.395303488715061,-3.9147637352018014,2.2269016576247243,1.686327929455251,-2.64486021263958
-1.9392717006344975,-1.2084140163544248,-4.843421053786401,-0.2547720592265854,-9.421775150953808,-3.6140225095978096,-1.369520251251494,-6.380934066623529,-6.553461329015785,-9.642807379932131,-7.043329959385012,-4.849823890657704,-3.2061368183355965,-5.8075002674879705
-5.243734115704392,-1.4078683613492142,-8.000119971387388,-4.852697962210096,-12.758774130533164,-4.287125780338494,-3.438800565499193,-6.703786337144299,-8.150891578528157,-13.652567422295624,-11.661803818317065,-5.540760118369678,-2.939683778681958,-4.668728495368382
-6.140180635567241,0.1325512369865176,-8.511976470795377,-6.367895572924251,-15.437709182601353,-4.768186555778172,-3.8592632549964687,-6.301848733019945,-8.422732014080658,-14.57260889383475,-14.227593086132696,-3.3851149052097456,0.3808590094941167,0.4837276701462837
-3.435981258257243,-0.0907932373036342,-4.871545126212784,-4.231106489781023,-15.98596389403538,-4.721404006065317,-2.1756588474058827,-4.910943588824658,-6.130072566355336,-12.286467496709983,-12.661557351739557,-2.08326767788022,0.9151132575086952,1.7210515052527393
0.9850695874965822,2.100398266174259,0.7818604787532131,-1.0512376250074027,-14.656434387329217,-4.272316602769379,0.0886685769557988,-2.804153196037184,-1.5928978384848715,-1.7408228702192694,-7.54458974769566,2.799776397253513,2.608555670901317,3.1309434651256
4.129865059350763,1.586254478585006,4.791765421113471,0.2598845025760354,-12.920361882466857,-3.8278212007059977,1.0807065560759703,-0.6300516605347966,3.4098851811587387,2.4630088685361846,-1.4334574658438086,3.29851600251036,1.9859090263617256,2.819965595947424
4.540848247713395,-1.1025210908203558,5.288914233434676,-0.935649043792175,-12.00184684244428,-3.6964294830461313,0.3300422052325942,0.9725345310032942,6.92475076307562,6.231132197066703,3.0770646270407056,1.327029762765859,-1.011178008669089,-0.5217385063266627
3.1936059490886493,-1.1252117031680986,3.469286768965169,-2.8868074706254774,-11.923952586543386,-3.837259285831976,-1.0715890879807797,1.7790472098651977,8.169371133549072,8.100985550530854,5.004733050226712,1.1816625935357064,-1.1614900523680711,-0.8572473324104584
2.10312896288254,-0.7711424629343929,1.9403469362348744,-3.4502870617248647,-11.852052350412055,-3.946987027171311,-1.736085636197501,2.062920023735593,7.800913798173433,4.0105573246701045,5.1369002635096095,-0.8403051354251205,-1.2146112642027636,-0.9015826933299134
2.3108164118043177,-1.026818428236384,2.168881478158344,-2.037022823311005,-11.14776022885183,-3.792458344948336,-1.2603526874818949,2.2622711023500663,7.031150509430823,3.5048549757951264,4.832763252152013,-1.5064179677488323,-1.4518319128811743,-1.3297981309237206
3.2693105669143456,-0.5332765653960019,3.5851351634699853,0.227763665474999,-9.953452898503867,-3.4661644129021383,-0.3389074686721898,2.570637861843533,6.564303873262254,2.320137540219888,4.789998029022641,-1.2667789380629313,-0.7914333114205279,-0.8070853933048641
3.928723271944179,-0.5601770346159494,4.808321594612202,1.9402689495116403,-8.814346453984392,-3.274439762391758,0.1702052714364299,2.8854278336832486,6.3188618473610525,0.9980975807833046,4.88191048396369,-1.6387971521639455,-1.1930314515869964,-0.6260381637596466
4.027484284461863,-1.0583060738659746,5.268696136540793,2.8225211078311645,-7.958608606737542,-3.3516258568465678,0.1375266137978386,3.1155663568730105,5.954250329658279,1.5631492009858323,4.860576987453065,-1.1537759455273389,-2.02157049061607,-0.2739362977135761
4.150807214765187,-0.99750647359985,5.500175393948801,3.725791059946168,-7.112268565940923,-3.4503811614092044,0.1496064505291627,3.3861554129100853,5.414906892493331,0.7736284640832655,4.832435804468993,-1.435753221759856,-1.346926048397192,0.2016321148839281
4.745263484880432,-0.6791105717014234,6.157321607817849,5.423310232656185,-5.97010334211005,-3.233734526043605,0.7244846887232654,3.834539237245252,4.899856187824618,-0.2266448544936214,4.958819743561044,-2.3778442052224404,0.0062317136498648,0.4696460076127844
5.487025136341082,-0.5729071206418982,7.175427006917644,7.592787271466783,-4.652715276004884,-2.782882254226529,1.6266180651389064,4.292002593487574,4.467713520184574,-1.2334229799932344,5.017970843840338,-2.296776424590261,0.0929507404617676,-0.0155842890099594
5.8202106359556325,-0.6496916332579982,8.02580026420614,9.057051895106738,-3.5384049971664737,-2.641899657423089,2.0054530676484674,4.381797388301891,3.938901992750488,-2.6093314908954626,4.727851039596075,-2.134790208394532,0.0320267500677491,-1.1412517810682583
5.943722465803326,0.7648792253258829,8.578194006486157,9.018643908816614,-2.65925668840552,-3.125148269531806,1.2492651972988398,4.017098715429079,3.2550899615310414,-3.1893852872553468,4.57918422049044,0.6282246760751802,0.5406431912223011,-0.6623960677270401
6.9027615062647385,3.2803528181802597,9.442696956613132,8.006383747063055,-1.4137711984351355,-3.56678195266214,-0.2754839935542605,3.6545650209667,2.7912957898671,-3.2407342825930856,5.916617233244296,6.211819055848803,0.5185037903919818,0.7538625702421621
9.494371322309805,3.728264307242042,11.370615107275192,7.557799661586131,0.9724589337566414,-2.541345973644184,-1.3787665395647153,3.801924337937266,3.085516290003028,-2.0728187916095435,9.62416559102801,8.569620135308055,3.711229335944049,2.2349308328834234
13.137972667300367,3.657733388105292,14.355515982342055,8.87446338224894,4.607441331382283,0.7875667090868177,-1.0704195610716027,4.195186977013584,4.167193830740366,0.5292519548846857,14.551472693202768,10.316959786213896,9.809579437660776,4.805207540468439
16.00401668452889,2.309037609340372,17.332762964749072,11.664698462655892,8.525757782795438,5.400785664992384,0.454276928234357,3.654913712254917,5.25602701297089,1.451490427626482,17.600045267892884,8.012437916311658,9.280007887864858,4.448279521864517
16.37157142211963,-1.2717944627546909,18.722507887403992,14.205653850589528,11.141748785722754,8.722303799178981,1.8500069655398332,1.0519022995430447,5.286549672192216,1.6414027715388049,15.934029683444038,0.4638764865616379,5.690383930935372,2.1609791710835125
13.919944940169463,-2.1582680197163358,17.348073021341776,14.574629605228203,11.229860667801384,8.577243006337397,1.7665578610973682,-3.4228489123890995,3.823752871533671,1.568575071448722,9.482459504003527,-3.851053870938672,0.1171557612327702,0.1105702969458156
9.799012070710518,-2.015336500249792,13.103546144554862,12.031943713478867,8.675052223759863,5.136916808643811,0.1038581104338476,-7.993406564443532,1.4872491287648018,0.247336822596324,1.3087381687203816,-8.939530526761008,-11.3862066510889,-3.860345698267517
5.613359001885904,-2.6418402528218787,7.065831516937799,7.45517909325298,4.548740362358856,0.9630634610263726,-1.7862673154990176,-10.447428539774911,-0.5645374312737914,0.0481648638460958,-4.589822055992805,-10.478117327996252,-13.045234037958672,-5.23729183182641
2.3675154369364364,-2.3035136579993627,0.9950493433342515,2.6487612476251385,0.4463443402213798,-1.01573251143504,-2.219299868817018,-9.755043029727156,-1.508113474018394,0.4228914631199506,-6.161573342066546,-7.46171350023599,-8.807989504191958,-4.99457282009016
0.2225668869282486,-1.8154524790259472,-3.4988378410658925,-0.8339538484227802,-2.365505863472727,0.2084825851837664,-0.6048334352226945,-6.732015018710229,-1.3343534781174853,0.0483224365455618,-4.341047529015448,-5.212963657862746,-6.047258044794702,-4.1410921441519575
-1.0680771460378864,-1.2555369476076552,-5.69271135114861,-2.4632819836422186,-3.4748969083433536,3.2132546554655903,2.120144593168888,-3.256479364344216,-0.6147447624564961,-0.2791099151897062,-1.664646007454181,-0.154456580538997,2.3476951984494505,-0.8187664627075011
-1.7233475379072516,0.0751255899172863,-5.9606950700384544,-2.6887000310341023,-3.286755597198457,5.680810446011957,4.369890377591545,-0.85760784340345,0.0545309122736483,-0.3630559543432392,-0.0696139093589351,2.4664188064350068,4.586549688162626,0.8943076549096672
-1.8877146310134665,1.601613154749197,-5.3339672042206345,-2.3423823388660736,-2.562509406495849,6.358591741443007,5.199105594556201,0.1084553020392533,0.3914584897388948,-0.2550777147570144,0.1552293300262803,2.9666844288677097,2.423431268774574,1.9068843119830672
-1.783335667808558,1.7557617498143256,-4.755492729003098,-2.049201421383927,-1.9080200121007136,5.678357690226484,4.830809976092915,0.2204848388268416,0.4092078565621442,-0.1070661917213778,-0.2159417091844986,3.8017883157901182,3.353408750937858,2.538826891613488
-1.707500661326737,1.3263052387863492,-4.585947937684068,-2.000837956480275,-1.5292579967634694,4.808527505381413,4.1185650358295725,0.200470401969806,0.2590672185181759,0.109854689178057,-0.4996686810487141,2.693624607658721,2.083901361181681,1.8515327658867784
-1.8349152773089517,1.0912744047878962,-4.643516427232626,-2.0777494982835627,-1.312425211455018,4.397881414339206,3.664786072876496,0.3656121153908067,0.1175052361164716,0.2043497332684962,-0.6144049412627943,2.440310563769762,1.5991450241473193,1.729740561862375
-2.085490101880808,0.5564423908706293,-4.593353828841888,-2.0981043671042343,-1.0541447317091972,4.245719947958268,3.468626793748744,0.6440006993788074,0.0958304614559644,0.0077085866892246,-0.7676661830038256,2.593935637831478,2.2655923832982543,1.6555508930617953
-2.2450760918315567,0.0936231015612576,-4.296155423060359,-1.9951594880152896,-0.6451474032787825,3.910607102837416,3.2471681246978275,0.885583868947105,0.1515108194446792,0.1076381459537814,-1.001982127214415,1.54671317234072,1.1089971219916697,0.9408288859171092
-2.2160624881465303,-0.455988127260062,-3.880326198678484,-1.8414527336342967,-0.128015386876644,3.332118296361763,2.8793676695052257,1.0665608215271245,0.117977892637473,0.4535055611528518,-1.16544517180664,0.117006821961001,-0.4846710021632773,-0.0965331831009242
-2.119603582561558,-1.0254274144222286,-3.5702013653392246,-1.746467581278064,0.3576857554606922,2.794600946726819,2.475535081947841,1.2591597759031845,-0.0958250550905877,0.3644854413200836,-1.1833949482619603,-0.6338516936488692,-0.938874137371136,-0.7226309198209792
-2.1409417389548158,-1.2532088976600608,-3.452902281401764,-1.7339194985375208,0.7051205036859058,2.47367347975221,2.146889685479547,1.513324652336113,-0.3498824005496734,0.0496237821401042,-1.1695644073464426,-0.8736633503508029,-0.8961045221522421,-0.9472431207029556
-2.30300470264055,-0.923002255682972,-3.38286328253479,-1.7194818447180724,0.9595809488300384,2.2268761754280284,1.865700270059607,1.8115356993571616,-0.4172499100582358,0.0134157074533263,-1.237530369974638,-0.9427634277005502,-0.9058269705350814,-0.8135470842151553
-2.433844866432945,-0.1575784630100364,-3.1259606666356934,-1.612913501724794,1.2968424530269935,1.8445166744668635,1.5653296752994184,2.1108476854412697,-0.3072407563082855,-0.0248118609636902,-1.317430959632114,-0.5288161751720266,-0.4125120409425042,-0.1547440329914358
-2.379620397975565,0.2557320443297625,-2.6368964287512995,-1.4341041320656274,1.8225831214682275,1.351582123598817,1.2601088057377223,2.39394271088333,-0.3207353711496807,-0.2132288259302071,-1.2592962142194466,-0.5388831486736091,-0.387911167876927,-0.103610025619888
-2.208001220571994,0.472406575797127,-2.156624824906462,-1.2948703233559442,2.405204437914193,0.9470991220857172,0.994287024678755,2.678797290093911,-0.6681027548733525,-0.2963305118777859,-1.065616593114946,-1.0275576071975028,-0.8590265567339921,-0.5660216164398022
-2.1428218658948808,0.6025362611774185,-1.9492254200926415,-1.259494610367554,2.7950898860920645,0.6994890793524391,0.7345546785064698,2.9980163207228543,-1.1119645268461795,-0.5077892506301939,-0.9024293931151206,-1.1224350036880335,-0.3588078601760295,-0.578903175089188
-2.2812593894206614,0.5019809419577775,-1.935498913761279,-1.2532010138856435,2.9568498984285227,0.4464290779102526,0.4148483882455025,3.370170734947706,-1.1980938172328024,-0.9814594217833326,-0.8515223406200008,-1.0076092821513811,0.6245314096259325,-0.5131335050782709
-2.437014810507023,0.6597297372144335,-1.7200001592570118,-1.1416952066872454,3.1842782804114838,0.0430263268519297,0.0739120549034453,3.7752699395012215,-0.8987812560805324,-0.953508422921712,-0.7649216240971981,-0.9286034433665352,0.443729184529874,-0.5834897083369689
-2.345630407578476,0.846239295094254,-1.089437852636472,-0.8952053906820652,3.746744601164984,-0.4032451281987477,-0.1668399542235477,4.159860355659632,-0.8061768351806009,-0.4433755943546613,-0.4726886288918734,-0.6854762961771061,-0.2107253667716964,-0.4685895100187769
-2.023255135485435,0.1104887231682191,-0.3752939051108797,-0.6424766547118423,4.4586373574121865,-0.6772226684818108,-0.3056575569222062,4.500234303967076,-1.4252194414446109,-0.6423666690290658,-0.0658600291098707,0.3653642643301275,-0.8709857577938334,-0.4120099844776851
-1.8349052898745413,-1.1121929810169513,-0.110653086024925,-0.5713260600706889,4.8227316792263935,-0.8088655313907225,-0.5242174252326777,4.874022060450244,-2.3168702975356013,-1.218954158738791,0.2090669098296587,1.992102689899218,-2.3600214700470614,-0.5950335614725258
-2.109323321714939,-1.6328174279193868,-0.2824739747772753,-0.7868474980844553,4.75147614786637,-1.0974370433430778,-0.8968855750530054,5.4186030613058165,-2.2790375008158463,0.1493824428752033,0.3998541369827819,2.3482523863540057,-1.0071634838721713,0.3872260043178585
-2.725357656285624,-2.209671802060544,-0.2420417147539524,-1.2658682146382318,4.982605894432012,-1.6422152091935658,-1.078743310263491,6.125045621636332,-0.6474082846583968,2.4662931150983507,0.9893645705990508,2.3564082229121435,2.6934986506427543,2.3299635690515808
-3.199820111130265,-0.4603513075641937,0.3229680606707035,-1.8905668271297456,6.436127445158661,-1.932180649943831,-0.5260167502468107,6.618517971381465,1.6553349402853286,3.5644538110109285,2.3205603882217645,0.768509957596307,3.263636425551365,2.5367389931192754
-3.2288451365173216,3.549738499471806,0.4620050233440338,-2.487006585346222,9.051251739062664,-1.165146664474193,0.7886491698632199,6.237838076222715,2.650377763806788,5.312541714788743,3.89170183310452,-3.036036347012236,3.453031915782684,2.199892962310896
-3.040953929243855,4.395240036340953,-1.4240751098665214,-2.88588154853295,11.533294466235446,0.8147938995499828,1.9670384647726424,4.508180025579037,1.0261587800601433,2.6411904208696,4.563019197782651,-3.5151226684613395,1.7526023486430704,1.036190420563683
-3.084132670176388,4.72381761565194,-5.593872013051708,-3.0695644862886557,12.58606123886534,2.939549486225985,1.7844557641601568,1.6867925830967891,-2.717359645457236,-4.369594873009802,3.788124019867496,-3.0609640657142987,-3.2159423355924086,-2.0671704181062847
-3.389316453989608,2.386508762227308,-9.770403199736007,-3.3044147422788086,12.348775010742344,3.523818957560323,-0.101018633026868,-1.1697953908909111,-6.838085252507952,-5.314998650291257,2.5654928534209205,-1.584365850932109,-3.404079962894472,-2.442572747716748
-3.43304315379676,-4.191440864512563,-10.600414316596812,-3.989928925888819,12.212754358476928,1.6821497430489811,-2.606114643146896,-2.8596526634813277,-9.853042120218618,-4.830300957732363,2.717013593554924,3.134006547245074,-1.5904980750162596,-1.3576658049041403
-2.765298836275392,-5.492307439127343,-6.82068032106497,-5.206228919997244,12.959545358827851,-1.7698599612777317,-4.0906025966111486,-2.939319737942469,-11.291369842715213,-2.728246768877913,4.90117706551888,3.7239593296680646,-1.0472526347451818,-1.0750198527948216
-1.6972069285901057,-5.095372061011466,-0.922222854575125,-6.363074136446983,13.335149834509425,-4.869912564237168,-3.867481146875221,-2.068498547599262,-11.178379887228942,4.625893737975005,7.459443625407516,2.568550286273781,1.3500155314426914,0.4696192616587677
-1.16169195952574,-3.9421305598836014,2.7421923838367945,-6.461321758362942,10.982380670204009,-6.070792766048683,-2.805099733543841,-1.4431202799109712,-9.361729063511405,4.715850890365079,7.627865921558451,1.8712903082058352,1.3703513421240658,0.6897320593185143
-1.7867373323910556,1.281098262979222,1.7812879146732996,-4.919659023519955,5.034134610568572,-5.360398653815309,-2.381587665691768,-1.8032607938699807,-5.78697348049414,0.915827472053412,4.156464811285758,-1.322849716870092,-0.5900684734100438,-0.2683340283701868
-3.1767835379857274,2.319578949934922,-2.25848950688453,-2.235819367420873,-2.4401016650163,-3.970076443713509,-3.1987662142608717,-2.9080600347018333,-1.3064423860816703,0.5392443863098669,-1.310287151811309,-1.9100022950089448,-0.2330976081671257,0.0058548962792566
-4.225586326012717,1.4653388816284123,-5.658912498777255,0.2748915152885445,-7.90070957302072,-3.108562666758644,-4.504690810522618,-3.8998956476153808,2.342059051954124,-2.061167233279698,-5.59176056115993,-0.7811816659885714,0.071784057545746,0.239514479338969
-4.148915934886247,1.867164219399713,-6.056458860480518,1.5122232379942204,-9.357968542075495,-3.020271901072192,-5.122667573202079,-4.138849588188663,3.7685312255857184,-2.1181902880703665,-6.72679486367602,-0.825831488562398,-0.0333109681037411,0.1939361971634125
-3.1392667285002744,0.5102588118030208,-4.135876152515522,1.4424508768842657,-7.863922664617064,-3.142186945703031,-4.6658361802590775,-3.6944942583374143,3.129002247714368,1.0583509370487294,-5.379639282679051,-0.0121075325343707,0.6014106331061269,0.3886184716493638
-2.0143233444558746,0.2869535921739904,-2.174073449989009,0.9431872983215612,-6.097352307549784,-2.942069378768167,-3.758226322289886,-3.1180152475492946,1.8891387774062596,0.5159212755830656,-3.7034118355619223,0.2890713583856898,0.4778857549614748,0.3035678883689925
-1.3465499827639462,0.9073600061684982,-1.48105786151379,0.8640378968465825,-5.740990973413602,-2.451097337778606,-3.203133687607874,-2.8388815574660957,1.375230663488395,-0.7844486130102372,-3.133155158448858,-0.1104017258145282,0.0206276810713233,-0.0089634526880618
-1.0323581782463125,0.410692742797299,-1.5069151272941212,1.3014253690408282,-6.379250599729403,-2.046076934937105,-3.154240755179444,-2.821200406459809,1.6784279686380614,-0.5640929754067874,-3.406618660308766,-0.0267936780388423,0.1147714146365149,-0.0290822659722786
-0.6308532215064417,-0.142983790666452,-1.0746133793185209,1.759549306474554,-6.664172009218504,-1.9059344330778172,-3.153021125920901,-2.743937668639603,1.9883740332041957,-0.8835148916698304,-3.451355244019084,-0.0342526497696006,0.1717354267650859,0.0490634381622991
0.0600512481988744,-0.2151178144983327,0.1140987170927587,1.851451751424122,-6.062214074351061,-1.835163999427124,-2.806335685554984,-2.4169726265585894,1.737362864773786,-0.8796677288777106,-2.774070145038536,-0.0984286220122974,0.0408171315105074,-0.0571764130481158
0.8494818369066479,-0.2009075716224971,1.3892790543214917,1.705105098554725,-5.227998915005856,-1.574229951045595,-2.2178899821354463,-1.9677426541748275,1.166391916217307,-0.0677565009688771,-1.822244732597909,-0.0207093578734622,-0.0256944060733156,-0.1409073951152816
1.4675295486349285,-0.314172269743964,2.147821104072591,1.6969011107369596,-4.959679502987839,-1.1459522938742452,-1.7580123367109763,-1.6537721277059347,0.8253729613088865,0.0177360842822034,-1.2446976666649334,0.0088959054228973,-0.034447133967631,-0.1370131242208248
1.8817971918898733,-0.3144963236139751,2.535325464287439,1.9494928397607083,-5.239875351410575,-0.7979194669510576,-1.5719395029778411,-1.5492863454087171,0.8475454184614506,-0.345395954813473,-1.138106534477444,0.008190393521926,-0.0341290042934809,-0.1425866809355065
2.2759379679867493,-0.3465169487599814,3.0853221020666126,2.2297253445897667,-5.42684488819647,-0.6535558388508065,-1.4465919616704357,-1.4630523171725829,0.9017918814217012,0.308852670168328,-1.0750997606344157,0.0954643097225818,-0.0892212370484723,-0.0927794729007244
2.8001009440663864,-0.4967098999716627,3.996761863753619,2.297314079196454,-5.134568471464959,-0.5483950071554489,-1.1289227104809925,-1.1773844330407144,0.7183814724162687,1.3946353774580753,-0.6811079150075017,0.1812620725666625,-0.25187314990407,0.0129991898166516
3.4176540416946466,-0.3138372993031012,4.990434357972305,2.2080983770544123,-4.647757261761683,-0.2634825538185197,-0.6442961484576131,-0.7278835245544713,0.3984953863786415,1.5081141533904867,-0.0205943809967692,0.2363127936082233,-0.4674628079576783,-0.0080690739107474
3.981403023567495,0.1546039992035503,5.758344450325481,2.209015141582441,-4.473279264927527,0.1679754621874138,-0.2270576532166472,-0.3793518212035565,0.1817053113458229,1.316630916443324,0.5435118447492044,0.3681979608911826,-0.7090014831497573,-0.0792097783479628
4.400913464701233,0.1579894785797432,6.316599212586922,2.3926176514776643,-4.699088905729269,0.492443220278318,-0.007921995242242,-0.2983755122070448,0.1023410281130736,1.479468436384452,0.7584568861348515,0.3042266747434613,-0.83092038741907,-0.0565367966506849
4.728417636594685,-0.1227425967926511,6.8868046052802185,2.5901166299274507,-4.932130711641513,0.5868572071168074,0.1457651366151964,-0.3048360988711067,0.0213860984688309,1.2403501744060277,0.73187260511245,-0.0133310383613954,-0.7843568883649346,-0.0615301452060292
5.094898593833463,0.0610366764233892,7.589333029760276,2.60966724890811,-4.82214404557061,0.6529772320558109,0.4456496470236715,-0.0622116160119929,-0.1205902515805235,0.5426269641372137,0.8154974985933165,-0.0272284942664217,-0.4066827310328268,-0.0380374482767253
5.578423087579793,0.3810503988849948,8.370943832722308,2.502102392213594,-4.502642383853132,0.9619037721682062,0.9013400370619636,0.4562220411998154,-0.2501521271018987,-0.1508088208991799,1.2345493359114457,0.135366009618391,0.2305078477882737,0.0869850858942647
6.114813786950805,0.4029137784400021,9.144335599951926,2.495329146364405,-4.434090539907318,1.4564729842637156,1.2930573967363337,0.8286772401790188,-0.3533234830274843,-1.704980054207864,1.8050228430122777,-0.1993844217718393,0.7754731986755484,-0.0261796179404304
6.540816218246297,0.4864969897393879,9.85048851989987,2.6826998727001152,-4.806736356143046,1.77484988720875,1.4580825739768135,0.7042951394613981,-0.5257477459969784,-4.259050952964765,2.067300893900561,-0.7132842672170462,1.4567281190375698,-0.3198654017329296
6.7404926319704845,0.4735109336475729,10.371127807851954,2.86085187176802,-5.152679526556586,1.7437326519064733,1.572348997577688,0.4767233409374416,-0.727236448806698,-3.30001780979023,1.7883780483131737,-0.6884314586957495,1.532156664855293,-0.0128306694193584
6.745355380787832,0.138659308746287,10.49599622162799,2.744702157148541,-4.640328722993367,1.7051074180141192,2.0655233025163824,1.1707639458812835,-0.6241745240326253,-0.1601715704940885,1.2789074192940006,-0.626552236892497,1.0512568948913672,0.581396101877617
6.628969360845304,0.1626506895663601,10.044488977290165,2.3170830439900527,-2.874272515743016,2.1275864433270897,3.1555698507522507,3.329604244163022,0.0796208387932466,1.9159072567301616,1.0217365063603765,-0.2675223327542977,0.5698463831303577,0.8731090322507042
6.292058836929989,0.5615275970431668,8.996489074794816,1.9415220418321724,-0.4350246024930868,2.871634497406788,4.462912070387702,5.963383899528857,1.1079814607490306,5.887086947605147,0.8900946435205697,1.033986133050533,-0.4386496366412058,1.455062676533876
5.43183624959606,-0.1215628034436374,7.464471400598512,2.111887835810009,1.477448484594774,3.0867370951168454,5.172567701927278,6.925189065381261,1.5997964266575195,5.134004607142032,-0.0330188995495746,0.3934138774317612,-1.3218130263893475,0.627064371110155
3.855538836712526,-1.5652959311601415,5.586294609336704,3.0627996863263576,2.100648927041675,2.1174195546165606,4.720726035286617,4.743451537987227,0.870614062890894,0.1620365031424416,-2.486455021538262,-1.7695940469295033,-2.159480139776683,-1.5187852076017971
1.8532617150033843,-1.1478862095551927,3.5001216822665526,4.515043215929211,1.8559041449502016,0.5010605512141098,3.3736813841776865,0.217376033917219,-0.7922648328479767,-1.9254789313017888,-5.781702860018058,-1.021296574294687,-1.928770250000264,-1.9998656576832867
0.1378320116718328,-0.0169908351991885,1.3859987877878552,5.653833651391437,1.9139106862755568,-0.2356122745993047,2.059281825978985,-3.990563010401843,-2.2355391180651623,-5.486409196563741,-7.842805495647156,0.4804887637239989,-0.6577623955816659,-2.2792455327450143
-0.7365119126677087,0.5065547142582829,-0.580961312291663,5.3659590368015415,2.8870907904363605,0.9403248920956172,1.5333594307772105,-5.603391945981855,-2.49201324813032,-5.939763206477192,-6.939867691424752,1.9316923753239348,0.6985107179582266,-1.2209053879275298
-0.9348698831709044,1.9864602718241635,-2.357246255480732,2.7562138482298337,4.000301667782139,3.28985806137581,1.7223031018583017,-4.6546991227253045,-1.7044065224917515,-2.6311018254364984,-3.5041306673061854,5.3982172743183146,3.0174247932906373,1.921214528280224
-1.236019497484591,0.2300961775456969,-4.045255679113126,-2.1369935553433947,3.7592984126604,4.732068585770435,1.9247528661259992,-3.1685036430651223,-0.9463718993813472,-1.7519175800623674,-0.0063502268870649,3.493291820925865,3.0190286728216216,2.3257557826917283
-2.261898986134952,-4.633099792503454,-5.660671925377017,-7.8522319291678,1.591827305112275,3.7488185585121983,1.684491620762941,-2.9580807530565494,-1.0630466533191625,-0.0833150549195268,1.2360599465410758,-3.1367479013253368,1.1363121670195189,1.4866459371812135
-3.7925858865567648,-4.285503865949699,-6.897052576647468,-11.880010725181648,-1.228762343544986,0.8789461042296693,1.358992634435083,-3.859064747725768,-1.717867870548929,0.910005891959412,0.1559252035500833,-4.351797224174523,-0.0672670893274111,0.438292226000012
-4.902226952168888,-2.183382971326655,-7.263681589934123,-12.092567201045512,-2.482548906941957,-1.759486186797545,1.7026804387710968,-4.150221424733559,-1.6197329159343212,0.3632961474950247,-1.212944283546193,-4.791654492710751,-2.3559143686329858,-2.3976558387833795
-4.813494030110007,0.6007350790305239,-6.574137877118119,-8.376722650125373,-0.9785948647366354,-2.4477568406631462,2.897557128724628,-2.535240555940277,0.2826116248966173,2.052074368947721,-0.8894334041362981,-3.1426091068666784,-2.9379429962893897,-2.478500821104558
-3.6217811736888734,7.418758483183288,-5.27759042608119,-3.065816639221054,2.282223452800622,-1.3439000430697092,4.138848126548169,0.5136585393070163,3.8065110360598737,4.461752736247334,1.2287243872852969,3.877306488779408,-1.9709091431988703,-0.830713108398114
-2.177366392144449,7.025619719984307,-4.165910670061919,0.5490843667165564,4.902252154937287,-0.0505269877671707,4.350049785989086,3.3666209867373027,7.639497401048175,5.63584093889,3.685587002713646,3.903340377269268,-1.247332649401098,0.3709236013846371
-1.272835104469095,2.028521807744242,-3.6305596738389454,0.6802514115670419,5.083663606222615,0.0911830162397109,3.31762917556199,4.909092657281633,10.31919968341549,7.140202598534156,5.281752963330519,0.4468200411734719,0.5906619985923809,3.10572535558513
-0.9847516178308524,0.0446200350583954,-3.239914196978248,-1.655138817959369,3.0263690536330614,-0.8431514660447306,2.0143132070508045,5.406499826718118,11.093164489884316,4.61687993407109,6.2562109884270285,0.160234857213911,1.833451449482659,3.6286014051343782
-0.8179517321929097,-4.23887025196382,-2.21273288910902,-3.69244821020618,0.4841994651973209,-1.7988138114769754,1.6461845047170414,5.76848825887555,10.07677574111034,-1.448361502440818,7.577649804326541,-1.182438477608263,3.5641267236239225,3.4102942768489
-0.4392745911993074,-4.588759375013672,-0.402642931639491,-3.484436407090243,-0.8751115065030035,-2.051655305928364,2.385373585701359,6.272778691056374,7.846817806688193,-4.830768304375594,9.407658354293517,-0.7726475882788713,2.9336441438648326,2.043594234881021
-0.1940786370435603,-0.9687146568894276,1.1980506695258557,-1.576560868860497,-0.7468788265009607,-1.891285740044964,3.1337338299337034,6.238441566508129,5.093772343834189,-9.183134972143405,10.578731633016789,1.647449651337232,-0.4065395789955192,-2.19864837361677
-0.8157493461810077,-0.680079024194023,1.089742282854104,-0.1917479794612973,-0.0759644916050774,-2.047284468490375,2.642202154820893,4.918738448852423,2.5982718178613027,-8.35733487429986,9.68170626337394,0.8020768630296465,-1.7111582798884335,-3.899041368878528
-2.6211797160066794,-0.0738775437017471,-1.4674776777812897,-0.8095564153628629,0.0865134921702974,-2.6530392155481195,0.8680518115690461,2.497976393004535,1.2187839233222348,-2.03143650713319,6.494756079655701,-1.9739370009028896,-3.91521840456167,-5.550067119598652
-5.02070627495408,1.0304231140663913,-5.700640861173781,-2.6148378186177297,-0.4453347416860538,-2.9554491440801485,-0.8418131002150062,0.0774861653540028,1.5152909905136769,0.7004388247070382,2.258383177123221,-1.5294305072315166,-3.0066582897529504,-4.464205506701306
-6.918252329223378,1.1853194253633104,-9.829895285864325,-3.423214242674589,-1.044186152744942,-2.082629673276074,-0.9977408462261792,-1.2857604848682058,3.178311218082968,4.90529436781929,-1.3710719088378482,-0.0608578582114837,1.701338316263126,0.6412448121140976
-7.703116241813063,1.7449102560709338,-12.42405837301976,-2.134453456111146,-1.130110543626472,-0.0545581959889318,0.5290119346942674,-1.4671265630558423,4.886242299295304,5.670901350397733,-3.5651340053945546,1.1128915477201082,2.59557206499427,2.5486118695963675
-7.853816593033912,2.0678957990351874,-13.384604334204198,-0.1423297134491576,-0.8818616483840742,2.0077676948626504,2.203941590703778,-1.249384417882709,4.97242132375851,1.7874718194011123,-4.616304651765233,2.909727428951918,2.489253224043108,3.651791744743021
-8.478709146035555,0.7558834476765294,-13.72514635288428,-0.1616824948500834,-1.0706953527476344,2.702052174537073,2.0409173181162714,-1.5468990957879782,2.537885810054547,0.8012685248668886,-5.284394856541098,1.9898128665544563,1.851479649659256,3.33176800602094
-10.145150691809476,-1.7419014783199152,-14.43923795419687,-3.5461127123966776,-2.195491140361696,1.4562727006988323,-0.7492961301242076,-2.69574039675598,-1.8415763951124973,-1.041177543561456,-6.060877341822675,-0.4809571256596433,-1.0782962219135044,0.3759977968605896
-12.119468347499378,-2.085501065705431,-15.52650912788738,-8.70892845315717,-3.803959515818861,-1.0252304671322463,-5.086126812097405,-4.374244123481219,-6.3802548694997085,-2.599828069713596,-7.00447785052512,-1.5496658007761557,-1.789099643625894,-0.7590857855353575
-12.82508416759356,-1.3690498947630028,-15.996696330900136,-12.196733397096295,-4.723873596600015,-3.3117259353563213,-8.819723824356686,-6.018433676145094,-9.11939030530715,-2.688102669289543,-8.012252408876464,-2.4804881213607013,-1.2059104332115649,-1.3763200160434452
-11.168716113066353,-0.7886584465420463,-14.739364910653135,-11.43382468751804,-4.052039806939547,-4.286679901523712,-10.280131032002032,-7.223283761861467,-9.008652886882714,-1.7227366962147312,-9.00561797965986,-2.290030267997148,-1.6283448358612436,-1.9727029546524013
-7.52879007559892,1.090922458800732,-11.459147485890467,-6.680599719931507,-1.9990817387559328,-3.843951460616836,-9.367136156537695,-7.836832430712491,-6.404876299221428,0.7337096086846533,-9.83872630773874,-0.9516809810363532,-1.7142228747417434,-1.8684427136933517
-3.518924889675276,0.7683104735024557,-6.968738263914901,-0.6401036128158637,0.2062465539888762,-2.772405865711676,-7.461523898776306,-7.859141306195681,-2.834717576967762,3.529408990811488,-10.215673732599726,-0.2562411329164404,-1.2626061937386028,-1.3635417274515071
-0.7904538223166924,-0.912584915232363,-2.7306389452581925,3.684135971311605,1.2856345217709304,-2.039111094920884,-6.344547329499676,-7.384249072414121,-0.247730356975893,7.693123673944282,-9.89628501026874,1.647194515774248,-0.3624354212165737,0.3211567207230065
0.0537296883584872,-0.6844079072639606,-0.0316382110063955,4.96567383432344,0.8961996266733081,-2.094559355478225,-6.939967651914571,-6.630684196191311,-0.1081233253385676,6.111207370569575,-9.036050994977645,1.951983072414068,0.7269713634473108,1.179447685726356
-0.3691065614053173,-0.628041058521482,0.7280632700351504,3.986652295215521,-0.1974169746776652,-2.687495177234652,-8.719977295406082,-5.910984026142586,-2.680169700100663,0.3705641276617174,-8.239932675051321,0.4193017265681004,2.144032290720541,1.6559817643072714
-0.8598851511118539,0.2122328967933561,0.2814890596891359,2.6221490556207243,-0.8313684947470392,-3.193017725507005,-10.128691431966216,-5.449928832670949,-6.842480551183868,-3.7256370909510497,-8.177996973344307,0.3904768414564932,2.432338875370131,1.7567937185786684
-0.426165016587138,2.344332572505249,0.1043006196376765,2.423391482849677,-0.3627694325218584,-3.078894502393812,-9.699025796002186,-5.178990324358228,-10.601569365187808,-10.666207751232529,-9.103882374307489,-0.5240845831491532,1.5852627532912296,0.3798536904157671
1.2651818812652778,1.8703434783519448,1.4908672662342246,3.731103175360161,0.9380836653422228,-2.1514259653341146,-7.076405732947576,-4.732561750989745,-12.104260369275044,-10.450835516493086,-10.735929018652234,-0.4292672725495826,1.2337799721997702,0.2572439691347351
3.823340278327144,0.2714064406923052,4.616704374227567,5.656328280526807,2.228860229857119,-0.5313256541955269,-3.2381411559886217,-3.7132905053820338,-10.600970850015171,-4.220790525520665,-12.55630249976224,1.497270603471724,0.5388581904879092,0.8719791919454469
6.3645551594324274,-1.2116041654593843,8.32795349138945,6.8237525071781135,2.797287945685568,1.4532827525138146,0.2104224585276739,-2.0372111787692404,-6.807615547546845,-0.8649138116632593,-14.139651053757705,1.000894136366928,-0.1836877070043583,0.3380959835483653
7.994665019223277,-4.047935580549329,10.975965401862029,6.486345447649427,2.591641485546347,3.331634866239284,2.1161564959008388,-0.0565825813621927,-2.482498391723766,5.905282310011806,-15.16651963771585,-0.6122495195667216,-1.565957901544463,-0.3422956523701392
8.374198880248287,-3.825167876692334,11.711189408889195,5.307486720213944,2.252851232036363,4.601155332993159,2.4645440564967487,1.6632788128966354,0.5130737703413217,7.271922408621632,-15.222522034454355,-0.9396222845684205,-1.699604394064195,-0.4587070987589126
7.941136680542456,-1.6923888737747783,11.095028353019076,5.050255511792329,2.6630068057149856,5.006264251197308,2.2692327722505183,2.7650394512949674,1.1776720318613343,3.503650415894693,-13.761716303880632,-1.6078525750525572,-0.3841001036920823,-0.6905970641364708
7.472480898066578,0.8123024936658575,10.405127178018802,7.107380687821376,4.289065013401057,4.837949190405766,2.828543717103969,3.3816512053481347,-0.1229882516796578,2.9170506182852205,-10.401474357628956,-0.8221829379616593,0.346617963045346,-0.2112207507422285
7.288940349405266,5.776385052133273,10.27517457070428,10.95309642398496,6.743485187770091,4.875432935788695,4.858022280469015,4.06324044615377,-1.8891244838746388,-0.022166144025615,-5.284681102194327,1.957367167166644,2.337062136759706,1.4126124965972569
6.901350283604188,6.759967415491848,10.045186980421988,14.052800928297756,8.903852728449351,5.787850508681686,7.980333454754543,5.3891885915036255,-2.4121567618633435,-0.042367775080806,0.850590623048106,2.392121877087192,1.4794042119129636,0.7165488224795695
5.562222052823586,5.4474517085713865,8.540861889555686,13.702196733210712,9.58690704142714,7.378553056961209,10.836789532799571,7.508681724133453,-0.9033654846710988,3.3874837875737174,6.928245904358846,2.0196593789529973,-2.009015609854131,-1.4219146431218612
3.2459207819476887,2.98504904574445,5.53368936339848,9.367605147771656,8.341795091486347,8.44962074899172,11.827087471253208,9.933783176642692,1.9573093496150025,2.5787908097089822,11.926196664234451,1.437742775582244,-2.9676902325940686,-1.582410192861258
1.0363683539956128,-3.658747910278216,2.3699242636114377,3.35857877173396,5.777917375371771,7.670514815018805,10.145339671645845,11.75380327030257,4.547237932781059,1.6115804207608833,15.248148609320992,-0.5585240188233914,-2.6155465945367724,-1.718618926086445
0.4222398301247949,-5.6761769440552525,1.0429374382775904,-0.9577542382237424,3.151573322025115,4.839475216869118,6.464041252675429,12.170649918306369,5.5659337304308565,-0.3555464213261897,17.00872319489315,-1.27286778386265,-1.3636298705658794,-0.4756327763068959
2.090158426151902,-5.467132646870085,2.5197101265080164,-1.8720449165025457,1.5322006001704267,1.3674989637069077,2.6616712494039803,11.025606898812612,5.023882923707561,-5.511053170052717,18.0850615380283,-1.6094556351731353,1.1575592009995093,2.9784254153536183
5.293174269038445,-4.603771022264279,5.8507972722864,-0.5324450765888287,1.1725978313506855,-0.6625252228627687,0.6037688347371386,8.909897177757784,4.105945209122069,-5.890288671660642,19.624059682939333,-2.033883831456698,2.342954489851609,2.5215593973860573
8.324277293693058,0.4044672859677576,8.839522059628052,0.4118877177900231,1.5263948658061963,-0.1831962740889139,0.8216346053663983,6.710044863722942,4.062869126446913,-3.9194766656492384,22.027039350970423,-1.7995977788350013,2.324949066979496,0.1526631214737127
9.648241661693646,0.9115171631972618,9.62757229018257,-0.6872105762925003,1.7953549610183472,1.905528857636682,2.172151690268265,4.887496270545853,5.144684272980157,-4.158675426389449,24.161582004913495,-2.832970260330791,0.2555452336289624,-2.5572714935221805
8.819115212907263,-0.6956013895736259,7.886678523337423,-3.169256002792736,1.5311967364302743,3.4406895759577765,2.832529847398291,3.1301357905476834,6.503519749008319,-2.8485116795346586,23.845465885065096,-4.426162922881361,-3.613176168345969,-7.960203122532913
6.646277077800278,-1.3166312022084397,4.837708694297135,-4.979353218645883,0.8518669086404316,2.7792479248905693,1.812133899780747,0.8027513039446603,7.049131565994912,-3.42080766307037,19.737526782109622,-5.360736293738208,-6.2303052987482825,-8.894940596499612
4.657275351667522,-4.48986137125365,2.343602619198009,-4.645518410718751,0.2122012144923246,0.0946134262144369,-0.3155794805925325,-2.0930760678270417,6.413258808110413,-6.356754102858519,13.210744648619311,-6.684317427987804,-10.051507170993004,-7.012314746953187
4.235538032037766,-2.9649742529555008,1.8693624637453468,-2.367098472047928,-0.009344300916382,-2.907541121549002,-2.043784743951619,-4.377491754753464,5.170122711807153,-3.245922968765073,8.227069615861183,-4.135130947699103,-7.0617149098210605,-3.446045726281733
5.87308026347705,1.9759019677329044,3.891145338686784,0.5527166118322384,0.2213303595956404,-4.495182584433678,-2.2916810376073045,-4.315442448362546,4.230996381854766,2.8870845455818994,8.684168257542751,1.5295928548469844,2.1264284868535364,4.426680972504532
8.935496508770484,4.238213537123507,7.865465189696579,3.015981070170937,0.6282592918882983,-4.240862961087487,-1.2537526009223257,-1.0966172101070697,4.048056671821769,7.512660162072404,15.141044193249172,6.725930309365148,7.297785359720038,9.12245995236976
12.11667743922044,7.739604563702356,12.567310856810993,4.813831823319106,0.9007105831974513,-3.083106355767768,-0.0697931192262331,4.101343868340564,4.329313406266692,14.665596270280403,23.814627684668267,14.28318544529034,14.86066388071008,13.078879305059106
14.310832737969577,8.390771792385749,16.59349758841381,6.287193723550445,0.9793046958370724,-2.265564630263725,0.2542135547864745,8.592357956483283,4.420933240361137,15.971953012385113,29.05240392964788,16.804214457106017,16.874042128620072,14.737187277847772
15.206882510756714,5.569621320120654,18.831687115312437,7.642396893856358,1.1028731062438055,-2.250052256057188,-0.3512045429747559,9.986051927499602,3.923425789241719,12.135609458279562,27.3993609424806,15.38388028395744,12.072993702953818,12.317024881809251
15.056525285639964,5.738131292569935,18.720674218751128,8.671132520182141,1.540138622104564,-2.557101410617861,-1.147140608635823,7.79160405319692,2.9178717213858363,10.402630597869573,19.83200646374371,12.400602808396426,10.771452772706589,9.839430042691584
13.829584418851256,6.546972879957454,16.20469818079141,8.87717587923919,2.188704628331948,-2.5147841497212085,-1.4101283391313473,3.3992669445621004,1.5874875570441418,5.382807448165263,10.301620365767462,4.161341791433561,6.735143736973519,4.805107402669384
10.683351588172172,3.21270576222389,11.49531826268344,7.585926544445328,2.4004791207858034,-2.0584282461836665,-1.137348191449064,-1.4419635074132202,-0.3475402367855622,-0.0961886585021152,2.070940711566436,-2.914103639853918,0.3085015537587372,-1.5670491484772118
4.485812914824692,-1.8429251755347356,4.8716281166466615,3.9701227030991504,1.2776871933424443,-1.7760689948308936,-1.0169085849179282,-6.088469242919473,-3.655373478656657,-4.718266540570133,-4.745129636180081,-10.679032438720448,-6.010187287861625,-9.102970381260237
-4.906323678133504,-8.416847026244282,-3.305063138907599,-2.6209824446264065,-1.6930600104933546,-2.2284821758767066,-1.780689526385686,-10.98494694434862,-8.816450373164116,-13.32791523262174,-12.290375448826126,-16.99833760812654,-14.605544439815326,-15.353761062280093
-15.777909311746726,-18.99313062189005,-12.36176753239829,-11.825828969970871,-6.115201582097598,-3.2889911370107257,-3.5472907053044764,-16.307551041857778,-15.039449660892842,-24.186160487776103,-21.793529273949616,-20.85939042658065,-25.011399663334917,-20.77597498944598
-25.062111494147985,-19.5878405275248,-21.06928264653493,-21.576822211554145,-10.698785232090133,-4.217936377550586,-5.697851959552281,-20.79789417572829,-20.114561038346665,-26.49122604639632,-31.2738622080185,-20.672138455349995,-26.46929265555694,-20.481631418082674
-29.991465235055784,-13.50522486075335,-27.651740553106947,-28.519670078179388,-13.851699329806024,-4.409473256791898,-7.282581988370111,-22.104528613622733,-21.51489771265892,-24.573954570911194,-36.37971937472457,-15.502005183774708,-22.264482877521218,-14.51447988830828
-29.659412728217376,-7.642606369025592,-30.273023033079653,-29.76643242413684,-14.476321314591589,-4.037913788839205,-7.552090603920078,-18.43663575766459,-18.01574280654449,-15.654205442326376,-33.68642486396993,-8.602358673472711,-14.034993714192463,-7.994131669729915
-25.31701038366509,3.942055695198258,-27.93445901328232,-24.834262282600093,-12.475338207346796,-3.884385927814492,-6.230529965690721,-10.088271108904792,-10.520356832764037,4.228117730524687,-23.5910349665553,2.339177835671303,2.6517303276864146,2.2604922580319453
-19.2826571246419,9.245769648327707,-21.284713457193448,-16.113836184860475,-8.7047966798184,-4.430938799134992,-3.484998486614586,0.4406326111736689,-1.4563262056180974,15.077272279591028,-10.358749458123157,10.3436581771567,13.242468702411056,9.40400888598064
-13.398825403346564,11.076483171295475,-12.637577778106788,-7.2786344987334815,-4.455011318656943,-5.103857330695064,0.2137861705050454,9.745308252895484,6.635096348416482,24.46857064335321,0.6569779482911144,17.347992074837595,22.943699386616142,15.12889175406853
-8.223377673662526,13.56364489916002,-4.919775345641256,-0.8910804907027341,-0.7933277650727177,-4.524608779591517,4.173255281872798,15.213927354460113,12.100256423891553,27.056184412940304,6.359167165576309,19.951244827513804,26.13791980969063,18.19474747205194
-3.423615867241324,12.518589841839514,-0.1279214738003702,2.79672071723644,1.8721101955627544,-1.7189950553129163,7.555201569875862,16.046503921772,14.22082485995884,18.18910632533273,7.294873700210246,16.760283576934622,20.06815277613265,16.956498980991924
1.139420038117919,9.959476980680693,1.5628217349881195,4.962678800757885,3.770575560835709,2.7298388025354825,9.547101829162555,13.211453439084607,12.834157035470184,11.307880474776375,6.311162469459987,11.549687984217115,13.28772299670297,12.914929888034136
4.694031132556006,4.883052694954064,1.3717141768720469,6.394876468092434,5.321827183119808,6.712425207954652,9.647554148709103,8.634218270759902,8.346678644678377,-0.9287747406045356,5.857864465653279,0.5941138280567158,-0.5509708348146598,3.653756593649319
5.854480536306824,-0.5841247161269586,0.5484354452233902,6.623836022398109,6.586652207934776,7.967467486916576,7.881939814785369,4.144193103446696,2.144796881683078,-8.431101387366404,6.130462971621455,-5.592005074690786,-7.452808006862229,-2.6810187852038405
3.837641700602262,-5.946216779592792,-0.5235307083319185,4.907167297074693,7.047657928592116,5.7656677279662745,4.846914789333027,0.7355867443392299,-3.3868748032539315,-10.78739897354104,5.501700732363247,-8.831311152751917,-8.530763666908813,-7.42286797781918
-0.4833126445309972,-8.202047594259597,-2.0735586807310256,1.757355452405477,5.941082644798371,1.4853611939080338,1.4858517065401884,-1.590022776828846,-5.877431776791354,-11.246062186074916,2.556310651031481,-9.825913657170757,-9.446929221585654,-9.442333305456462
-4.696735232372816,-8.23496928753893,-3.997405398040201,-0.8737197236683869,2.9415708707484782,-2.429225287002737,-1.302383670699783,-3.3925874224150903,-4.512385503560608,-5.57948998213031,-2.2253191636782503,-5.413201893365763,-4.775422184060035,-7.381204518919098
-6.269676315944764,-7.0412222280862204,-5.403241622863618,-1.1805793880116653,-1.3251625079502105,-4.251803324448133,-3.047102078106377,-5.12964606973452,-0.7993159290194853,-2.944100472245493,-6.693799900371744,-3.846854076472516,-4.302956862184085,-6.53676004623178
-4.266400991265414,-3.46398800744526,-5.212764300030472,0.7580753637067801,-5.383196034989965,-3.9690546414030905,-3.8156496093834,-6.747926489282975,2.346465657992894,-0.3679258752524126,-8.868013949308136,-2.35807554230977,-6.407289559446348,-4.828661610378633
-0.026613578162653,-0.6571562690272232,-3.1842194461232225,3.0203073888329186,-7.628430133389202,-2.734615496485389,-3.949137406595071,-7.782823792494128,2.677945034022912,1.0964958076405618,-8.553407313691764,-0.0533728001317365,-4.544712069706979,-2.665907112109136
3.752804467998317,3.1959479920509937,-0.2598834813013013,3.748709927182233,-7.226073954946173,-1.5020412704706985,-3.6381689004051054,-7.778683564304629,0.235118693757812,-0.3605191196310696,-7.182949877246699,1.3053459844718756,-2.3809377722520644,-0.294484158229343
4.834046561902596,4.78908356188631,2.123466254588664,2.99637620468414,-4.595002628960941,-0.2846073731055867,-2.756746434278085,-6.633791042466527,-2.838736123870546,0.3640641389552763,-6.191548965085218,3.4612185439374987,1.1447905274040544,2.3423700468151543
2.7945695155025163,3.00723184490364,3.0500612964072644,2.5504657032980305,-1.1747649579477295,1.2858627133294078,-1.1780092627566177,-4.642760469023614,-4.113788613879294,-0.5824111432713402,-5.746718459570587,4.909866913730968,6.1486547639629645,3.849976005279922
-0.9533252528480743,1.7756317973872875,2.5545073047837548,3.9135356021654246,1.3912980808685305,2.9196373056002045,0.7588384802207244,-2.3273892880550804,-2.783050971052255,-0.0552785200945089,-5.135692227735383,3.982970724710816,6.307804880355047,3.997229789365641
-4.262286152506212,-0.8094342431523701,1.29806387939583,6.565920856980332,2.161684661884544,3.519540359752237,2.208930064952961,-0.2660525194506045,-0.1083130222806501,3.150818189257909,-4.1645870499957605,1.878593999605601,4.287417967407834,3.332248810101907
-5.56583292173584,-1.7345517702113002,0.0129663131726651,8.270822486679151,1.3290132266560164,2.300077295980625,2.409710372539678,1.053452133298855,1.860603973628539,3.2142739773478057,-3.727084443680937,-1.1800996987314545,1.8420453925278653,1.41975061321004
-4.554530680621056,-0.4237734367693114,-0.7336622390163541,7.095037328172964,-0.0656556813546558,0.0123249009825627,1.3923295414905823,1.4563109009613413,2.0748801430791843,3.5396109566382696,-4.68735785349655,-5.654675519769876,-3.075677246253115,-1.494990037745363
-1.9910012050089847,-0.6879695014771855,-0.4874217135702992,3.161219701801756,-0.9070097649271815,-1.2270613923090536,0.0726369229569456,1.333784035284154,1.2389910141886844,1.5291703609096456,-6.324456386457371,-6.918680302822275,-4.4898673820408606,-3.1102883623776925
1.0095036774811774,-0.9232203723092824,1.0857020822485026,-1.3789624295020817,-0.7137994732544257,0.3325896115757132,-0.4472228399062885,1.615152115175988,0.982309501428574,-4.364062902941197,-6.329222624164089,-6.734379922514744,-4.340340328543548,-4.908818081531394
3.675647217892276,-1.409583020964449,3.957455651870816,-3.896229783451787,0.1771035270209324,4.327700929109113,0.2728412921788106,3.1971290805978185,2.295728511773916,-5.952582989012561,-2.770316819346021,-4.352675807159566,-4.029093226258671,-4.433983852588803
5.765126767932827,-2.247628544830267,7.397915669784794,-2.9909502443195777,0.9662374466009852,8.2761650719209,1.7702886353957863,6.073472213416608,4.634960920325085,-5.11577413768165,3.697958205502033,3.066544925722009,-0.5963625569188025,-0.6382791355522217
7.243299752006749,-1.514353214898304,9.97157024818327,0.7969993336975563,0.936466464393817,9.500683160476656,3.172654472518275,8.965351644284453,6.419248564210704,-3.135346779362438,9.681548575436636,5.117793904595736,1.1960330916452708,1.1094698919744184
7.938752138957625,-0.2226448078563787,10.18342800265654,5.462756636891584,-0.1874694353374479,7.319621866699322,3.8643027282155344,10.080534005273703,6.4386641213760925,1.829909876694295,11.422645803574769,4.704001140135798,2.3690239109397124,2.969686305358265
7.681948782703216,1.1441803475658785,7.586085910038719,8.733756577815882,-2.189378009502548,3.5469315752523016,3.740336405550636,8.597165473009454,4.934370147144705,4.923614852805502,7.788689567869085,4.326332982755506,3.522306853282483,3.848594549998464
6.817241820115498,2.841828282742864,3.516087245736003,9.311579089600968,-4.531368003022294,0.8910720123337796,3.001341403231663,5.52466284978118,3.396839575433262,6.927408367374157,1.3234130473885557,-0.8784491000891969,2.8595612929089174,1.8909324673429235
6.26846867553229,3.5286672404945314,0.4365319847521505,7.422161078957458,-6.632962806412081,0.7088708077095021,1.8428264615035916,2.870388978768915,3.204155400866796,7.019783294028051,-3.6572132338689594,0.7477592445459511,3.2960754344746164,3.649224526733071
6.620547344963768,3.862078800243168,-0.1193330753645796,4.263548363999178,-8.165807992289217,2.0483722431733327,0.3349324324150871,1.6681212898927242,4.253627891633471,4.967320029097156,-4.48285034934753,7.028547510290989,4.0397713034784495,7.313801930826918
6.955592781287578,2.436030691904985,0.6660067172516619,0.8214933596363494,-9.204636455351649,2.6776833048935487,-1.4902473046800535,0.8507170474427994,4.874778325720683,0.7624134217770794,-2.285862748096747,6.422675269078268,4.0250038628448905,6.658835619409169
5.002271415542737,-1.3511756850322314,-0.4921803981134189,-2.744273392552884,-10.065145244672747,1.0731008621297633,-3.4742700712387204,-1.594623889616912,3.295909389904864,-8.139311058304262,-1.0296259754486528,4.550524151633074,3.9609536329952135,4.645389115038079
-0.8752621428712359,-3.790784603165924,-5.841310855626659,-6.452012538415545,-10.885855912435886,-2.3521258828753275,-5.227351640305358,-6.104224594970162,-0.5085436367828038,-9.337418884849546,-4.082175391853696,-0.41855396447528,1.2623525562438864,-0.1514288289713623
-9.506290737076142,-6.531773843708864,-13.739207329786268,-9.464359459224625,-11.32138227592054,-5.696309799798769,-6.223792431972584,-10.342585943681344,-4.339227059018981,-6.011924654331404,-11.195807346829495,-11.323691148244247,-3.546301954422709,-9.61071134268725
