AF3,F7,F3,FC5,T7,P7,O1,O2,P8,T8,FC6,F4,F8,AF4
0.0644304979019698,-6.686899419320895,-4.607184525134636,-3.4485856444535914,0.6957998444445451,-0.4836935079003877,4.549966651315611,1.0103881355444422,-8.249670383615577,11.203925849215093,6.310293236125152,-0.1297176729406135,3.91953203958833,-3.582345569491306
5.062459273959849,-4.484079415446214,-0.926756856810055,1.3588459552130958,3.049071313886702,1.8353921945387652,6.402210068467092,4.783327784821211,-7.721891541235549,11.53053621721757,7.862680742952778,3.7225495363173184,9.604715441435676,3.206404926439652
10.710349511381144,-2.5466271932312394,3.486595286497101,7.612887482686122,5.193132219708212,3.68565177282002,9.19721836119304,11.823281801543072,-5.499431424970737,12.118853477223473,9.239997275646395,7.818686106012692,15.135258740210912,9.523401106201826
12.072933947548298,-1.5719658730346575,7.166971530120283,10.131458501899628,5.74745209784082,4.014003634773511,10.070559504994792,13.78040461416298,-3.060080825745362,12.565830092449092,10.748887405494989,10.382380344371866,15.945006216760827,12.874160218657815
7.449728435598709,-3.048977775724705,9.1353501673612,7.693473824870261,6.95116891641147,1.95817472285146,8.99469859492486,10.297987761437703,-2.12386445252577,13.057857707726836,9.145532211912684,10.967156580946009,10.6182335680637,12.71362840095752
5.393336480647963,-0.7297912755809233,9.226617805538549,8.331900061571336,7.174956337076983,-0.254315290248412,6.031747363519274,5.307233775033086,-3.333481751853016,11.788970940589255,7.461831047205278,10.398617288740716,2.110341874494745,10.381155240961933
4.524353339706464,5.071469533965562,7.96687335670187,10.799749291271375,6.779701584898188,-3.2909640764862256,0.3706449853594719,-3.2718552672614853,-5.749620924607773,8.549115977836292,5.44884236491719,9.680836822257188,-4.374703632819202,7.893568474181386
4.382866643838404,8.284986115717182,6.066820946993624,12.02279500075813,7.809682801358556,-5.26680462781588,-2.084595001241735,-6.614216141466001,-7.631641155348912,6.000344909809117,2.409443145699953,8.946619825347334,-5.288115467810977,6.48214616814699
6.457613398380701,9.792337964846093,3.929952976524235,13.172372542118728,8.015959010325792,-3.563602618795553,-1.1726680884000844,-3.910544129863187,-7.843842572152518,3.798441642752776,2.8341332590348705,7.477789795294226,-1.2686746078469708,5.931333418161765
5.886941396083717,9.201008702782776,1.630062196650635,10.005265743100445,7.757934890212944,-1.1066021754199151,-0.5233636039031556,-1.9816624430799523,-6.660312850528739,-1.3327672937757986,2.1966561925104817,4.772692636432722,3.7852790440098807,5.216433909476128
2.826942904579561,5.254926969758796,-0.625482792522285,1.8323593342211577,8.552899035436713,2.31386462820182,1.201853091290102,1.3137525292542858,-5.312300575919013,-9.18915122026328,-0.4171020067201205,1.5471067675433223,6.199972885418212,3.858365274354461
1.127991700282565,2.927611476227495,-2.126177269475696,-2.458295091933017,6.609880365738679,4.564848232819053,1.042856036967676,1.8676380280962452,-4.799296064759219,-12.906826368149394,-1.5692910468404222,-0.4951648472904768,5.391081409358383,2.6583200722843525
-0.0209189851644835,1.9449744598827,-2.019681604832813,-3.4822019648124933,3.6451310791453926,2.9277678056033016,-1.553224970741548,-1.3992061994752971,-5.125344257670471,-12.598432502470343,-4.1445116436525,-0.1260376519023331,3.5821136806611222,2.9233920009877647
-1.1682958612688197,1.3755349766250438,-0.2990134810196339,-3.5292403791571245,1.5909056031536049,0.4733481961664872,-2.563957659136829,-3.306960946400073,-5.6110100004092125,-7.143605580822812,-5.189310973356432,2.0293731566490445,2.9051454911045287,4.787844489291061
-1.7450248026947506,2.3055565837901586,1.5763905184241915,-0.7226617511717663,-3.694975943839303,-2.075155606475502,-2.660066750018113,-4.992740933739928,-5.801640661745138,5.445058427942203,-3.574423784166716,3.6589073351419543,2.95445438710653,6.389315391118164
-2.9502209925230387,2.527741919955608,1.401037021069358,-0.809488584411006,-6.610337500953651,-3.147696611030022,-3.0473197886306163,-5.611024954793465,-5.918048587705228,9.636935555283063,-3.0550423272493914,2.5860793485995512,1.343022232877142,5.094687237725095
-4.774018248531166,2.1603147381141743,-1.9440705471856727,-3.982062320300816,-5.856404714523334,-1.4020685050522834,-3.128557431644571,-4.318800765309188,-6.366574457958668,5.276262109327156,-2.860397555068459,-1.2749427769491453,-3.323227963370732,-0.043462557433213
-4.807642918548213,1.2406812302059274,-7.107527582691583,-5.829772995864317,-7.710561458055785,0.3386142838558703,-4.993389643669468,-3.227412244972584,-6.9270106457206975,-0.9825631913203978,-3.879832330589728,-5.6557745778024255,-9.242784341555872,-6.932674718845982
-3.107984167188269,-0.7295797930797032,-10.86685806554804,-7.535390920910795,-6.752406599009844,1.404274019206463,-8.885678503653427,-1.8883250930630435,-6.663465555861405,-12.812006159983865,-5.757761107372553,-7.727488654956875,-12.534242495766538,-11.777145818900646
-2.6863918362408103,-1.3098466485895817,-10.57522119836615,-7.355894271922835,-4.963475528377304,1.4651343473847502,-10.546261801462816,-1.3728817785216203,-4.840565630901818,-16.518177270622445,-6.586587359039433,-6.420671325298982,-10.852936195570756,-12.170633381796517
-3.208592426917674,-0.5172290124321857,-6.467131556377692,-4.557077325353866,-7.698769470295062,0.1860769364633968,-10.234978414846644,-2.0894936810478275,-1.9480019668706112,-10.925112070118606,-6.758441074454689,-3.2388362075206425,-5.972074893771649,-9.155314146670936
-5.317029785038753,0.0469931091985058,-1.7080859453020718,-3.3269961886181334,-7.953359799538513,-0.5516113146429371,-9.192109014062494,-3.1266667704893365,0.3552466163775678,-7.887118375556443,-6.1627700337473055,-0.9168193692603523,-2.559250648760784,-6.263868393293159
-9.735193943863475,0.87048095502874,0.0128482907921432,-3.2430715130345407,-7.4107662550357025,-0.7499165051499957,-6.50903210962813,-4.903641268742254,0.5545337932937975,-4.278260066380514,-6.211879111907393,-1.2084484448901442,-4.026004820762708,-6.377595795042374
-11.877107458258138,0.5189677388205125,-2.6650220821005406,-3.793119549755604,-9.400467447774531,-0.6018105545470511,-6.073287849863037,-5.649361776861597,-1.3114665678545958,-5.35754682960599,-7.858880623844466,-3.7350429413342527,-9.29601263406754,-9.307423592425486
-11.84833922259137,-1.327371560743073,-7.873954092776847,-5.825371770728454,-7.551654539341509,0.1915662998225913,-8.12695307485083,-5.183535739151517,-3.549719358951916,-13.15730174985289,-10.21261800984776,-6.693158885664449,-13.640644141068003,-12.266404625456278
-11.548468379968176,-1.7952642592558343,-12.175921843201731,-6.603890288102288,-4.407147111857476,0.566140852914894,-8.875261993585136,-4.471971166049431,-4.227965509853801,-14.971324695346398,-12.557265383221036,-8.531369491398934,-12.945857414640267,-12.613412863040455
-9.979065066933632,-1.151583940777116,-13.190306231283818,-6.1676085080010505,-3.735583478735612,0.7718259037276074,-9.115251750744662,-3.033340393665891,-2.83336419005158,-11.983445519101233,-14.053775628369811,-9.060172568578889,-7.522638107572424,-10.193803333126793
-9.15724631399526,-0.0365603143117587,-11.024808265072856,-6.203546107083446,-1.976024661119526,0.6116768061557314,-8.872049908789604,-3.603444224934605,-0.6380716939553792,-10.34009197435474,-13.671593765774686,-9.244919424091474,-1.9709616658150404,-7.216108625680724
-9.259334866714704,2.123617511706972,-7.678335765609413,-6.178499533191023,-1.9755775938920848,-0.2523448529286616,-7.548629762010298,-6.452208725132787,0.5386845685724215,-7.8755085669671,-12.502663759397816,-10.16417859466215,-1.2401663283568505,-6.076024411954999
-8.363446534011537,2.7432249057318763,-5.322193720202849,-5.7504760883365575,-4.973966547676907,-0.4676294752548284,-7.780653759186022,-9.339592230746,-0.0184457964740769,-12.489742699334482,-11.828813817233751,-12.126510701052457,-6.433033578938104,-7.333491216392941
-6.89266996520404,1.6913612824549755,-4.937046908974753,-5.0555675406519205,-6.4289997590480015,-0.3815205077983866,-9.542628517868351,-12.93486678683516,-1.3643624693247092,-25.540732606641797,-11.491337783305148,-14.508497196086456,-13.95564155513255,-9.558550453808568
-4.62205365805557,1.153644604852207,-6.038741108621972,-3.5538966721878835,-5.920171493096443,0.1231422127649506,-9.138293534593071,-12.98627801122556,-1.8444036464714124,-27.57132036585513,-11.234917243929594,-16.18052529587694,-18.484027230205086,-10.79014145231499
-1.2383142861244762,0.58087766885292,-7.240820680918009,-1.1469738557885527,-4.66298975770146,1.053035126248558,-6.88510808055581,-8.82145196609782,-0.5831291591004152,-19.47142708544803,-8.935871418240541,-16.09184106159208,-16.97347148289441,-10.001475834637937
2.6475357362848024,1.8466404392836684,-7.068113290826964,0.5921768527943739,-1.9354070246116983,0.5728549601020727,-3.72565675875824,-4.781410652408517,1.8336058335558605,-6.303164508973737,-5.404073893522036,-13.729261964647192,-10.46002697986814,-7.385908467678789
7.194969545650554,5.438116993037586,-4.671033546147647,1.7031160667502503,1.9606162134423504,-0.3905775409720182,1.1008253268417243,0.2333266767722478,3.977608743865942,16.30471384609847,-0.6608334774915529,-9.361074454174387,-2.7132030240625555,-3.683911957770094
8.765354320862775,6.562751526800176,-0.2924345649153186,1.966990925108552,2.562569458090836,-1.108431582819628,3.151833474847618,2.564371670534044,4.822410223407708,22.15516981037335,3.203076698345677,-4.009480748710258,2.5811099031990645,0.4271738974598849
6.917991191615722,5.505813468262846,4.707257309204119,0.9467642303416304,0.8608657094796119,-1.4017051973416683,2.124763321221012,1.2744816471467093,4.5035186813614985,9.582718705791804,1.7251064013051436,0.8989142408023543,3.8030240715841295,4.308854154410242
4.498237726910757,3.1808557824798824,8.42758801790793,-0.3051858785956499,0.1340035415537124,0.32312205315615,1.7746239569123543,0.7765733270920109,4.034207626653193,-1.07693483998547,-0.0304505561523464,4.103264730019388,1.6056880445217585,7.076372446074619
0.5334683008053475,-1.4784193570459436,9.401131848080023,-1.9894132441025896,-3.4160513465172078,2.375916434913324,1.1031655419461186,0.0138713313149816,4.336575425146187,-15.833846668574576,-2.322012064501872,4.993421408028891,-2.0393099913609976,7.723063343989565
-2.037147783206801,-3.7846386015233846,7.352198749635292,-3.8448082459773394,-5.45378964683577,2.8185794504925674,0.3395260798970231,-1.2108948733392686,5.446767637391651,-20.12666595505428,-5.733130590559689,3.709398754344995,-5.000921266697305,5.746337297273662
-2.68727740823513,-3.5938793443159023,3.199208596161362,-5.683540865399583,-3.2700760329393925,1.5806743631904567,-0.0217994130451985,-2.3249956155286866,6.507547182930153,-10.251963707260566,-5.188298037275384,0.8515704944469755,-5.954696357380952,1.6721877283167716
-4.993843930420263,-4.914152156085935,-1.640565461749426,-7.41115265954355,-3.12295248396988,-1.5140797299667372,-1.8589253838341504,-4.006259833962745,6.482420137927088,-8.706428729699807,-5.244268553888901,-2.874767508265744,-5.063363696876046,-3.1153303783527124
-8.244452135151752,-6.809061690774859,-6.003877124006015,-8.846717998761767,-1.6904561748048104,-4.622791242796062,-5.064734559932293,-6.1018034507158285,4.987818888444889,-11.882066855260934,-7.565604895275715,-6.739787309228705,-3.985688846108438,-7.144782175175257
-8.5556161565814,-7.721127490745236,-9.182124710293191,-7.654434760723405,1.3819194471542708,-4.815858735746369,-4.967703867549847,-5.667553832248545,2.618468307994663,-11.81885365607957,-8.170744418347944,-9.808464933095491,-4.77783978587883,-9.54074860765429
-6.101258322893305,-8.074548795196819,-10.590436673878695,-3.4555294778625383,1.4633086656800611,-1.974771724452616,-1.5304004515780985,-2.4772233623952613,0.5768942001211643,-11.784953699611457,-8.341708653128505,-10.901304787135938,-8.096830298108323,-10.080143033556102
-2.4451638842859538,-5.149190112859202,-9.525345065443757,1.0129989871973235,2.613150068522747,1.692715415675147,2.390523061321794,0.4834531881189617,-0.0801437669839,-3.890667124649763,-9.201367980347529,-9.07450852110669,-12.158662799626024,-8.792674703874571
3.2755131472132555,1.5733155695431182,-5.563500761583043,6.349519309306452,5.434991565854562,5.183936138412724,7.83876585876904,3.869747204238092,0.9354188723785386,13.212791624780058,-6.972903705791095,-4.471490979944555,-13.7367617675437,-5.757958977037776
4.715993272938261,3.84750040602835,0.5836143859185261,7.42412125889637,5.168720902735328,5.3909234356843045,9.643028672917154,4.941389590901974,2.999242894625332,18.24227031340836,-2.512190436200489,1.1844492044017498,-10.777924864604522,-1.450493706375327
1.2682980461280502,1.8644131717960943,6.650526978939252,3.299095974454615,4.110376283506333,1.6700863813168847,7.066036330171093,2.96225094233319,4.932147030098867,11.84090182128888,-0.1866030857446932,5.18621130859849,-4.468250588719504,2.797273102688191
-1.723392703611666,-2.371300850733329,9.633276031491306,-0.7880662664846556,3.650340305537487,-1.5964775112842449,4.132440919398054,1.0505998183127627,5.63526999494769,2.632858240706229,3.4616935026518427,5.463877646083854,1.29952706958708,5.021367895236934
-5.797258234313445,-10.835289246815163,7.652369569386519,-6.245691686841603,0.225305143188232,-4.96592066277637,-0.5677432005065298,-1.631582745413401,4.685040127678679,-14.04025255401235,6.221494265677283,2.167023521113773,2.9270389540137813,3.7979148438920127
-6.207325620708151,-12.982054550914718,1.5743514420948164,-7.776743872667629,-1.5292802768570577,-5.868349364075051,-2.1930568334414065,-1.5277148994884435,2.5900427459033226,-16.92358697787523,4.461579932147741,-2.114237024669629,0.1362481083378366,-0.4190381302714596
-1.870025557989594,-8.281346767292172,-5.058567229227498,-4.211991437071584,-0.4748290460861359,-2.5756122945800985,0.0466250519488668,2.0918842356838163,0.537965440249919,-4.035492113373725,5.7802305611467295,-3.911566539805043,-3.638448082714716,-5.036923057332789
2.1612303983750207,-3.382473620342228,-8.110411944826366,-0.8035584822864121,-1.3304039523279072,-0.2306880650036965,3.9952969412723855,6.602561378737988,-0.2795740134222795,8.86449916289481,7.580180643146338,-1.2345246403355288,-3.968419965689994,-6.697855237373827
7.2458888018424705,4.20217572528063,-5.632397624442385,3.99707998141524,-0.5901160151225402,3.0691511231829733,11.175982050253866,13.11022775553391,0.6161455973600649,27.037138119465546,8.541417668044502,4.987473510904235,0.9375049015933437,-3.5092235869704345
8.393666037577535,6.0701921613795085,0.7223244496715298,5.801816310253575,0.5831272907275414,5.349649239995348,14.03671872832606,15.15478276309372,2.710091407312216,32.90903646923931,11.145507367559128,11.44520787199412,8.693006143375003,3.459754501400912
4.497414568511758,0.9331649395848648,6.819709709884112,3.621478311494302,-0.3515347529275788,3.464935513889083,12.099881374283004,11.998748483244611,4.855986712894175,23.338615986044843,7.352717356221191,14.568766855657843,14.561894126570524,10.579737945078673
0.6535686755399359,-2.401047117639728,8.944473217294385,1.1170022858394426,0.4093448529798803,2.2877655615976944,8.037671730419845,7.933462067336998,6.018785427941456,14.410613093228909,2.836114152213563,12.731772974100824,15.148875728850289,13.791168641810604
-4.583145636068435,-6.005084837850811,6.317717478586208,-3.0596087089764006,1.3192983271678262,-0.2447537963576125,-0.1973062068145819,1.2173220806645588,5.851508605223426,1.2974301090035092,-0.1486020880457561,7.121223465859447,10.928285276744589,11.089435552457008
-6.502278023340312,-7.647338540299015,1.3749715087936067,-5.395298000171691,0.0314802570901469,-3.1330145419284587,-4.102871407700348,-2.271430966618268,4.728643623510749,-5.500075636998532,-3.117300415299328,0.863570379141152,5.564760295631583,3.766532817333317
-4.063441420848111,-5.866789624691144,-2.2734834306141325,-5.315016002350015,-1.4346174300869106,-2.3224369758325403,-3.2433682912684683,-1.750227402121269,3.31638089448716,-3.283330780154804,0.7429898343511143,-2.904960951084452,2.666245047350347,-4.367582893612302
-2.5769574822951355,-6.517174153962122,-2.4918109579009444,-5.183460978054366,-3.4914385409975948,-1.7817294857653847,-2.255955757328061,-1.4800536914383615,2.088140491144184,-2.9947071805209164,2.86398633700155,-2.8172712621304856,2.800061132790727,-9.2737704763278
-0.7401508441303029,-8.83660854381396,0.1811542529234597,-3.991833567452689,-7.30867109378809,-0.698775646262594,0.9232084086253624,0.1169423945788622,1.1300136619606027,-1.495541202675909,2.2345882713138536,0.1244438209684863,3.3971403179882453,-9.015476262187285
1.0895759004088237,-8.70306365178441,3.518393966071069,-2.535798019275112,-7.521265727363841,1.3897144276396425,2.637250768378101,1.6314997249137484,0.2646498811121942,0.0611001046592139,3.4585233229778654,3.4573394727504705,1.62705671867885,-4.641462619981922
2.175455902852741,-6.833869739368385,5.692435837186586,-0.959303968613506,-3.8346317269416943,1.2485616471380554,2.4050665278768024,2.658250481311948,-0.7141889635541481,0.398836255669075,2.5919301345962147,5.0872034923892695,-2.428697219328413,0.8888165918526123
4.988088184345345,-3.8511026991611215,6.58072151650328,1.754398465038936,-0.7200393300807616,0.6475652316518197,3.29794746301962,3.644774861425931,-1.8840737515074517,0.9430343889526211,3.4690201994104526,4.764998302732469,-5.406615883778773,4.857625571104575
9.321160362291192,0.9643355581813802,7.2637168874961136,5.450899348564335,5.759694850863724,0.5973680955070982,4.4259592355820985,4.082900136490875,-3.1490762506407965,0.9331198264997168,6.744390599784844,4.058631989773815,-3.695900611978916,6.384355125782043
10.342962776094618,2.3677719241624207,8.399902842822783,6.686779244394365,8.968699165668012,0.1207099880020261,4.952806069436161,4.051335972601336,-4.266621944450591,2.051379114308471,7.867480930764826,4.777398472895108,2.8105142662780693,6.371158273335208
8.098186975354194,0.0218537446310301,9.18813790539081,5.298352825723973,4.403362331418305,-0.0993199172387451,5.124937482142178,3.375361073080819,-4.934408252227662,4.37862913252727,7.271874002056241,7.177846604285668,9.899219166597195,6.143909532064376
4.674871175039794,-2.003166467202224,8.03113723221395,1.7913356627985026,1.5289691740087827,0.4311095425599086,4.567866206694117,3.218418924985573,-4.93900837403285,8.301131315680523,6.989523243482377,9.631606952903503,12.292975869531876,6.184977669573533
-1.0524932165418883,-4.920021951872886,4.3241611296896325,-4.849366075263353,-4.277363690550035,-0.0993136744429175,3.107889069542134,3.5993357759591498,-4.293947734458151,14.342027605284882,5.889279965248448,10.184201939901303,8.278327847876943,6.05348787461141
-2.9463569145972337,-5.495648435086987,-0.4142864942738016,-7.225586111641135,-8.971264844614387,-1.11179747762209,1.312135130997037,3.091252332825261,-3.2412054816233478,15.06219602456231,4.363704983788456,8.56743492043821,1.460700476103569,5.289068098357975
-0.4286453717498549,-2.961777685975804,-3.375673970735364,-5.020318941839212,-4.110993034889487,-1.034778149197157,-0.9538839663426736,1.876619702146149,-2.0901793097067696,10.106436654068943,4.509902155875254,6.600579254902262,-2.1811591434539457,4.145956865891577
2.3976657852057306,0.0683027071084405,-2.740662757303784,-0.1801270425576846,-0.6295079407214744,-1.0513169769249404,-2.4812098003560266,1.1589018940747269,-1.0497844590601773,6.733506821129168,4.914452087698865,6.378316852630824,0.5271865918319305,3.348393241169048
7.111200256420478,4.615621754369151,0.60204791698132,9.305658768725303,3.3916625835461067,-0.1770191545811928,-3.070882765451792,0.7663271661714559,-0.242734606989476,3.423618366694749,6.123965251911625,7.924058294007614,7.189880258271464,3.22558878730503
8.25522746904103,6.550032859392564,3.578786747198833,12.721152093650016,8.239435333140596,1.0526715381912,-2.597798687905219,0.8852476815913779,0.1288373453318074,2.614383588680332,8.344444194351174,8.766096759859748,12.021211249741024,3.2577616734247554
5.043160003572206,5.3304383798971,3.422282642472784,9.578214970531262,4.763621693925702,0.8842231436245779,-0.6023961869486398,1.783125624583206,-0.2647583841711229,5.711375447909605,8.225548652350488,6.162534719160745,10.97986729719612,2.559664241503965
1.5775415007141247,2.9412670114095056,0.0286490085920299,4.867915269985335,0.9361373520661854,0.3883735790765202,0.0902500327960642,1.2449213007588056,-1.620978291903132,4.691249078235164,4.781886877637457,0.0153087243442766,5.151420079178506,0.7838673521934485
-3.6272446912018816,-1.834337973184768,-3.8962286402087702,-4.090248268964158,-1.3811450531427063,-0.3124448117834858,-0.5042728190744585,-0.7604059734045372,-3.638611407872776,0.1442080416269051,-0.4477291228099204,-6.4259015900617245,-0.6310497461845239,-1.4844225992527615
-5.355829586107689,-3.05958613546317,-5.06973711579996,-6.549242018674337,-4.73058731910276,-0.7630510884128887,-1.107671889388158,-2.1520904793533027,-5.510110824614899,-2.649639586638984,-4.735758678611653,-9.043836040319686,-2.4365015762151865,-3.181908747983547
-2.8031373706793774,-0.2851994121795055,-2.3424288013782677,-1.5529208547951596,-2.6600687499539597,-0.3851870938423412,-2.3514394207954927,-3.343196294469953,-6.474030829765463,-4.997972649879072,-5.167011662197487,-6.428271625764563,-0.6736561954945195,-3.5665372394073485
-0.6843113830012233,2.1347599518874,2.394420985381034,2.157262867889031,1.0848863181336623,-0.2015071235135641,-3.0184684319885307,-3.483803989746669,-6.506842524846329,-7.200231599903392,-1.816497438174014,-1.2470541692016257,0.8014013725951901,-2.652362723155724
2.3702733539481624,5.619051909754651,5.785565714710934,7.120629471340461,2.949830810622994,-0.3734034690752726,-2.984062022004825,-2.1392973528485006,-6.434163513218155,-8.523587763383292,1.4774112538242876,1.9570024137520765,-1.2654189285164623,-1.068240688651955
2.984945695637175,6.449128980306165,5.652771106691648,8.112613911897038,5.400435812445839,-0.6241912354480088,-2.961390959314434,-1.932338089630592,-7.210411234448623,-9.294224606529598,1.726625813447122,0.6088974493960997,-6.425710486394558,0.3517561196396297
0.3067108057474203,3.849728382448749,2.5012387729478376,3.6336493496517055,5.607227679850212,-0.8219512358229921,-2.640107855453315,-2.6654031904294238,-8.970507377810762,-9.27197722108017,-1.5459123033482025,-3.880534313959185,-11.2389282433944,0.9146725337329392
-1.4311783969134466,3.1501470741365685,-1.2105583586671398,2.341482715821847,4.318463810143831,-0.5545081580110166,-1.2974116459169545,-4.321060895118696,-10.791760218813112,-6.442995495154884,-6.145595333993526,-7.66702779042571,-12.702443040582008,0.2975186257480202
-3.164145628621317,3.478114609066735,-3.225158687328737,2.9221047571289707,4.595127487523563,-0.1547741661858861,1.1236217658294605,-7.501144743475424,-11.475840880162153,-0.5208779467329876,-7.754662020009893,-8.021026744413764,-10.774341410356442,-1.2866337464352244
-2.87770207272306,4.36692057198865,-3.1642634768011297,4.5231386965834455,4.741532239811946,0.3627555730633658,2.7644133795363093,-7.433766807246122,-10.639703628543764,2.9017444238364143,-5.053578869102663,-5.535707453140333,-7.686900775781513,-3.089448626398033
0.2511898857481009,6.731501535501782,-2.389365185482375,8.668981500861058,5.0009328526061285,1.2317001075808804,3.683314472186077,-3.9570152950812743,-9.038860610296345,3.9889647159908246,-0.0052166325610366,-3.081432870332341,-5.245261064027491,-4.154520863580429
3.163982279380248,7.422862650140487,-2.340175396933541,10.611007193015393,6.321374712103389,2.186668718913724,4.035853308876902,0.7046930169033225,-7.772954924094652,5.492877211459353,3.166198833715588,-2.746943852242417,-3.1711222166614483,-3.872397163011111
6.53776853832784,6.467545016008978,-2.952060441397883,10.430109580572095,6.738172067108221,3.8337438882784665,3.3521678211307093,7.726692899443962,-7.141442600528228,6.233471535156144,2.9730734660879827,-3.834065550633456,-0.0249123574462712,-2.354899048990228
7.607439224862467,5.935759757681813,-2.6455764741509085,9.65416191721509,5.9751254741696975,4.22275911771888,2.422467337375912,9.495496721736076,-6.301088347222893,5.825379175678358,0.6077259399911388,-3.7864849772256033,4.69938694712763,-0.2968486534970029
5.653763224828301,5.213786760139699,0.0464667699342906,7.223581673691964,4.966049724208584,2.1063658000917185,1.1064579065687894,5.280744400669878,-4.106631564961139,4.3360934510260325,-1.5935352868038106,-0.9913518877380544,9.776063453612528,1.552345328600678
4.298075504544575,5.142032733916441,4.682850912374938,5.357255552752819,2.940962126430464,-0.0677611959835784,-0.950654675625118,1.9395636544405,-0.340349877531263,0.7654708396935888,1.3024284000268933,3.392524873207866,13.4781592931894,2.8307879694892537
2.757806377048517,6.039379697039857,8.690042123913782,4.111911297052333,0.065263046038981,-3.3557997361018588,-3.665178106899701,-2.3220899063546008,3.88590105040939,-5.113408442969866,6.654328538943632,6.368098260530806,15.22249770353173,3.5807302304151274
1.234710906346153,5.755870255474331,9.125029740447337,2.3119890404610546,-1.119264995638438,-5.21411997993922,-4.873950624373348,-3.909819335593579,6.994618275550654,-7.617087826382026,9.203215236879858,5.821634956075624,15.706670126250788,3.9425917801806976
0.2867831102113248,4.45977579415594,5.037834663133916,0.4430195994070878,-1.449968350403839,-3.475106932698861,-4.412639136656467,-1.5854085512897471,8.27784219231631,-6.567651550598083,7.987983192824387,2.359469809261648,15.49436939383717,3.895446466986426
-2.4864860752732216,2.447048685946478,-1.5927130331997392,-2.389345537842825,-2.1961301571401357,-2.7749841807304256,-3.885648387252488,-2.5460348654942098,8.432758139673627,-6.759661576182677,2.0555966217384114,-1.4268892365015673,13.828797005332198,3.2696666405722574
-6.993300710767775,-0.744778165335849,-7.190464861533957,-6.327660592764558,-1.469888830341753,-1.7504601621507834,-2.7532715336622604,-5.899770573957888,8.800845224322615,-7.0000487100216775,-4.380526473111889,-3.373662292531548,9.221586342702922,1.962367750396496
-8.084084339855695,-1.2410399023956211,-9.063694145389332,-6.976870335604098,-0.6618704148019876,-0.3608201378077893,-2.0339935567549103,-6.779918427957488,10.090342914650437,-6.189934942916591,-5.635711191202239,-3.3965268148435888,1.4134128827436214,0.1653278406387421
-5.824669346951606,1.1841530703091443,-7.004287935859894,-4.194629433802135,0.3351143010875645,-0.4539746646459399,-1.9676899543316315,-6.140390953456937,11.856404580278078,-4.873583749411595,-2.4362992486862707,-2.915101009483636,-7.272498562135381,-1.53053539614052
-2.62448968450915,4.697985057739699,-2.904006691365004,-0.6706856471383132,3.175455280401815,1.2822791142411851,-0.4822652891324563,-3.079081293405098,13.199631306522456,1.1645135071420636,2.0865818715611093,-2.948225943121663,-12.787834134869838,-2.252431704643588
2.6807928907315954,10.30711611864008,0.9191102135194044,4.626575788337672,6.154071180413002,4.150919533221013,2.2376571313289726,3.3601011410465125,13.846976619463469,12.411229288358404,5.139174389171257,-3.04438729274451,-12.088833217084892,-1.2745136330561435
4.316862795065036,12.053232638124548,3.0936642742399045,6.010162711020099,6.961027604614846,4.991822849949686,2.96724722252847,4.968595177134134,14.372516196212253,16.275777103436422,4.696566837822449,-2.1275974501392927,-5.651461943965695,1.3453550048948362
1.673979841846293,9.393022590786977,3.384350311759651,2.7345088617771625,5.409956688420629,3.6503012614452897,1.839948002132049,1.656144705242589,15.281435443913711,12.898254514662357,1.836812403572255,-0.1547710926092289,2.37382011433338,4.393412403636438
-0.0961873638793533,5.920018892932823,2.152427394420888,-0.1695026182282718,2.88735071082539,0.5493286941640603,-1.4196341817333558,-2.179212893501305,16.01115595754956,5.495820733493626,-0.521626940675803,1.4295000422007025,6.802307277692845,5.964012385970516
-2.378620213099792,0.0678371226664775,0.0254408311323244,-4.158342348914344,-1.2826011186228867,-4.395924083498088,-7.677555839538432,-8.39671091341822,15.120096098367398,-9.032758820503256,-1.6236876027890368,1.1163230043811616,5.080798667787314,4.7636699931955215
-2.51840808024575,-1.7504585435591984,-1.9935406978026664,-5.0426187925274375,-3.3432046705583085,-6.985863556234675,-9.068346165187815,-9.170676691257604,11.704119193308603,-13.686507362501631,-1.625326569595595,-0.8243213043297795,-0.7827333155590859,1.3535910288928354
0.3860302217146068,1.2157170718902184,-2.5953953546089306,-1.8437337994537768,-1.6622777213863036,-4.898496316150662,-5.347515515423891,-3.525450996015221,6.664781049811317,-7.574610327542086,0.3654657245967602,-2.157610239651495,-5.651249435707878,-1.8716773489515093
2.4628867177823315,3.909282529084732,-0.896425160616485,0.9981736678217056,-0.7018422768270725,-1.1867469919294862,0.7442352198520461,2.9827353435727946,2.4101503035995164,-1.8880624319570845,0.8968021994301026,-0.6116302972590537,-5.112344157453359,-2.277871651328173
4.50945016864272,7.966108963956634,2.649236490356199,4.69331319462912,1.623963789416596,3.850141193520512,11.23251986371927,12.449840619851242,1.0518966639363576,7.359411155809524,0.2347736441468331,3.8445425283430703,1.1996107806019882,0.9831522958909358
5.684132999665998,8.75931418279453,6.2029272071988295,5.518147107883257,2.909631259959033,6.721395524834035,14.714848573654796,15.500933527511584,2.688429737800546,9.659503384014016,0.1332421033172882,8.652733724042623,9.444285718645292,6.244731779448647
5.3095485257017945,5.360462582709486,7.743896742137334,2.5781398168319143,0.0291778849188324,4.590668912810911,10.41465516228858,10.851482095470276,5.360692029135556,3.1033513014888,-2.7150480464502107,10.73874558687605,14.651210652151384,10.599773961186347
5.349912041987132,3.866800820346406,6.611452959668325,0.8692433577813119,-2.16159577321728,1.4330552270957515,5.219946086611943,5.567588416666071,6.715081890948079,1.775961041630845,-2.61783738450863,9.139899153078566,14.42471294801914,12.099195323789305
5.421479084779975,3.152730530988148,3.959466770693448,-0.5941438810527895,-5.0546765779086025,-1.533687274991267,-3.711091801243444,-2.891495252917159,5.845389741503768,3.271750540665242,-0.0066194822750798,5.717631592480399,10.249092806735693,10.958253253705742
4.128531747158893,2.1685825978362048,1.6311208690027854,-2.188495067079414,-7.640307790975711,-2.9614179142532646,-8.317498842066586,-6.910546917546866,3.709991711940938,3.483208191938425,-0.0585104840422465,3.266795188947842,5.583253031635463,8.821587117780176
1.62880958300354,1.8333522552122203,0.469681447961661,-3.153290169007602,-6.90111057138835,-1.1616182932062598,-7.492342820393085,-5.230175992471262,1.9126112712119796,4.481911472793159,-0.0142209159699195,2.804878578575565,2.7456767375785884,6.973029877253657
-1.2710130171209513,-1.396841144140985,-0.3518174343616285,-7.422373596398078,-6.409028841210231,0.372224640226269,-8.913787993160984,-5.533828994225706,1.105046885792384,-1.6227432502574346,-2.680854510421441,2.622827572008255,1.416917800218631,5.274576495823462
-4.807419555158552,-7.709098170428699,-2.373859586419697,-15.117939277121376,-5.651323412217639,0.189821984516504,-10.608565886830348,-5.873114446347093,0.4781510687960311,-15.725239676544764,-7.71477627659337,0.0236129491460888,-0.2112058904704064,2.739259133361222
-6.489307674520917,-10.607331687885203,-6.214134082131387,-18.189670323007817,-5.246339702949529,-0.3494892897428985,-11.339757272567748,-6.221849578030748,-1.306814556761541,-21.102793376083422,-10.098336884732404,-5.872295830216322,-3.1769216482874167,-1.054347323803526
-5.961420722136855,-10.482218446993414,-10.808909087527171,-16.948012431841203,-6.759286810555525,-1.2665585454732502,-11.959237974818048,-7.56519110575752,-4.714041617798655,-18.664136176402987,-9.57652196652261,-12.904669009738209,-6.756095602437839,-5.268765415947929
-6.42543936561826,-9.92907415892214,-14.192563134263764,-13.74144730677177,-7.781851301397794,-1.7640091384750594,-10.359553724742714,-6.734789371130551,-8.777972874668368,-13.042100857341149,-9.38133311636743,-17.413983112732552,-9.541215020563214,-8.510498489623913
-7.319840314371654,-7.622779117179968,-15.01017702706043,-6.734376748204444,-9.196453547306367,-0.8492150949435341,-6.371616390657876,-3.8694121693043786,-11.876819652396232,-0.578299583022968,-10.251869210962685,-17.146610699068134,-11.14689787983774,-10.068711908960868
-6.921541133287202,-6.338023297121143,-13.368254084922269,-3.528184217634209,-9.460546995888029,-0.0103300202654349,-3.489286582064224,-2.528737790270597,-13.09361209648288,3.4837655285642457,-11.101888262014349,-12.898782904884634,-12.518946616915583,-10.29833499349604
-5.61541053138498,-6.351218464070906,-10.408308986195408,-4.531971804074485,-7.35348394608669,-0.0568976203793506,-1.4233052924741432,-2.314162325036311,-12.92354653947328,-1.68084472890741,-12.869611826039794,-7.536079687710662,-14.477184252487362,-9.778371533813557
-2.749424800555402,-3.701809801081381,-7.25111259463383,-3.692705128201247,-5.729474078495491,0.4115996057690921,1.6182529112284794,-1.1735536946170402,-12.726599879203375,-4.365302351028175,-13.266629483525753,-3.5132787449315166,-16.20832212059529,-8.315769757247605
2.0335869453232616,1.1422235603828834,-4.413261241529709,-2.670200822529656,-2.7689461195341534,1.0500915673762965,5.011735097768159,0.3259428719617163,-13.495169674219929,-7.946201263690015,-10.079188350025802,-1.2818238934326622,-15.629767405871542,-5.10524899048127
4.1525743959853365,3.3456396244933844,-2.081600315977855,-1.1510644002948915,-0.5442992564352966,1.4243710038827335,7.047188065904713,2.3083000094698023,-15.093244280979386,-7.900040842560215,-5.58879134119756,0.1540401343080517,-11.531426469379907,-0.057030683527901
3.5050517360295923,3.2429889527015066,-0.6165506660022535,1.6307966791986448,-1.7748944429553748,1.770434411655178,7.709276878773315,5.057258801858454,-16.580712710115165,-2.4384190705767885,-2.3865669933450304,1.5245239835479545,-5.278210138951806,5.171517747971489
2.7746874334975,1.8543390943256468,-0.470985989800631,2.2244356598462742,-2.3344707178452864,1.0624853796680955,6.77524497435931,4.950624620583503,-17.135461550729687,-0.5967328934896958,0.7678167599634809,2.443566558387918,-0.0413302689136214,7.875455867427126
0.9096311474108588,-1.9034585444562504,-1.5130387273017922,0.723198516339882,-3.5606938867247786,-0.497227608574846,3.704685107087212,1.7861012640784626,-16.576187259834015,-1.1704412050117892,2.074487902290351,2.251434756778459,1.9542198377198987,6.473339138089412
0.3006299308011694,-3.788589557437336,-2.591306296665466,0.4012521520364693,-5.28488824835916,-1.6707360407295344,2.221125429324442,0.3660688537879184,-15.077982420022842,-1.1732284109854638,-0.2074736657518963,1.3754862829837886,1.42791732539538,2.1879029052175483
1.3425484882586922,-3.680434574514994,-2.0910818072519,0.7152869904360434,-4.092579106414352,-1.9293971819597944,2.336381083424701,0.0656410273426178,-12.650809292015971,-2.065008576202977,0.3205437358019922,1.4250559466628578,1.1216539474628116,-1.5795131013744834
2.740035332057354,-4.825599820495767,0.7730511679625076,2.8682371620186773,-3.079520646163404,-0.7645505741751984,3.987343929594956,3.1275595533335165,-9.173121234772058,-0.5766860900128912,4.661506754902622,3.678583209322301,2.7921443308196743,-1.9365423194806344
5.20774458147322,-6.3484673961112215,5.068777659652453,7.597523710031124,-2.835485407857368,1.0198108515298716,8.194724250792703,10.765172532060332,-4.9807154785687935,3.689368416029201,10.346238563149644,7.501064109566119,5.248270351482932,1.045519745988099
6.045455924776121,-6.977341597359822,8.610755362501454,9.796784549460506,-0.7303695119087327,2.161347403933602,9.962081626994182,12.384494832310752,-1.1727126313721783,5.594591499658568,15.58546322064268,10.472046704258926,5.578978462948488,4.37515804005837
5.037335227454816,-6.987820061173959,9.562183928728228,9.673703732254944,1.826559953252212,2.00746738888635,9.340096561484666,8.18795652282858,1.0106937624433998,5.687439141048141,13.899035981204117,10.307174330117045,2.35355939786744,4.733405060396487
2.886359219537123,-5.695457710151088,7.883966622127448,7.809978380296083,4.368425854533454,0.0392030445518415,6.555535579051021,2.1464878217073227,1.2936222814112337,5.225339650679383,5.319698200300096,6.8049729860672095,-2.597366796497033,1.3173859750173085
-1.1833843651094589,-2.7896974532472854,5.37849895192213,2.984317133687572,8.888400818792727,-2.3824165566552136,0.3049197245524179,-8.134017937628714,0.7782887830862557,3.226238639622882,-4.083547495617669,1.9831097714405792,-5.794066405273962,-3.5970714469211345
-2.739153615446598,-1.3242240658144924,4.229403719539909,0.8457217817928864,11.394362295022791,-3.6570559926810895,-1.7026571930497232,-10.619294831364211,1.0676386503164874,2.6129343831061878,-7.87421013284086,-1.6694609457185638,-5.499034304414523,-6.786920661148921
-1.5797860809614508,-1.256766436475054,5.227645983074859,1.4519662209753683,10.362211183017338,-2.99511001208643,0.6488889831488454,-4.311983318277913,2.846150427070156,3.5044105677737027,-2.612803166124899,-3.1091306612968657,-3.3402191059279795,-6.863864693930729
-0.992971013435677,-1.3139414523946715,7.173682973484077,1.8035484390175045,9.695105578620288,-0.0649114205188787,3.485017813265211,-0.6348577377232745,5.317488139447336,3.337634237069002,4.682125539520276,-3.0717549631841266,-2.432610748367184,-5.173474000741525
0.0063501423227416,-2.1835611748042454,7.967814141711876,3.154371082839796,7.140095394633609,3.269015611755222,8.577379407444052,3.0734616229555347,7.0743891976920565,2.6920073862114267,8.607746376605514,-2.743364709904913,-3.9486696725868633,-4.159448217285608
-0.976458282320902,-2.760738130288037,6.445787957731753,1.9678681127535984,4.457231095108527,4.668028903979474,8.921962166403535,3.1741569364045,7.511160049990783,1.9454640188947416,7.283705126622499,-2.3319130103693397,-5.770983367400401,-4.935162330490305
-4.539785717215194,-2.964598264356228,3.3466524577123598,-2.244251355592228,4.129268704799481,3.278976852902747,3.7258823125813794,-2.3503470673056173,7.3333967190113505,0.7532965816306987,0.0246472117124191,-1.086938059514659,-4.754988791710926,-6.433639502369653
-6.726607004098547,-3.471745609970006,0.5611797808578052,-5.466178406144565,2.221448189474428,-0.144419783442778,-0.2494366563742187,-3.057301137480218,7.674256756137581,1.2633753486536603,-3.777493085719251,1.3034971506073472,-0.3816471099279042,-6.847057399240081
-8.097847199644322,-4.027157234858305,-0.6211370910590173,-8.49820803694648,-0.1122036802607461,-3.119299428274212,-4.64501734618825,0.0783713120069539,8.787159998441698,3.632937731074791,-2.458878759049368,3.560465597589761,3.976821319434233,-5.781713699494109
-8.68254569864896,-4.927835118661489,-0.5992045174118408,-9.14056399004538,-1.2398865989115553,-3.4362561951986117,-5.821878440136986,1.898015792974952,9.720500174918223,3.913062571588309,-0.6162001565221621,3.405701327974839,3.721942198407514,-4.875122539675148
-7.720254394993883,-6.245128645754133,-0.8501035182162191,-6.518336195622815,-2.603279960993882,-1.0126069119149468,-2.4796850140209123,4.153454520111363,9.342112426041432,2.3740859564375367,2.027966887623306,-0.3636304895187798,-2.678517446435306,-6.187182690102938
-7.55123987375512,-7.862459581285634,-2.266291839336576,-5.628968552249501,-3.4797587769004283,1.5434641963015363,-1.180779425323626,3.9862130457362577,7.650530987776024,-2.591525880133089,0.200037493529475,-6.257693427729134,-11.78198337367289,-9.937612776766994
-8.01663561468127,-9.880169163145023,-4.158446289302862,-5.907123811574508,-3.399522656813689,2.1176435902970456,-0.9129056106651549,0.608122610356645,5.968795068133027,-12.096426379055806,-4.179859334373833,-10.72526380294396,-17.567671730629506,-13.892135629635543
-8.116297460471353,-10.719612628280268,-4.97479295691315,-5.806654647988949,-2.751613462186713,0.6894295313794647,-1.7798613109319912,-0.6811748467449075,5.729172506283879,-14.19761528797956,-4.849312562305439,-10.806492804566506,-16.141233835868434,-15.153241284592188
-8.278687356833968,-10.24608007889116,-3.999315307373124,-6.208697013338413,-1.0358745709510249,-1.558993310930635,-4.997474111792776,-0.5075890333359574,7.00903532885312,-8.73922100838817,-3.2904223356580222,-6.570447223685619,-8.675239417120745,-12.76291892360663
-8.264395389906827,-9.928567499175816,-2.2386164536847457,-4.298210323933378,1.9039738597204467,-2.3560996062085184,-6.507603263975245,-0.7715325349113042,8.296370151713955,0.1210986398220524,-0.1032254043263359,-1.1100454617622528,-0.1608465633424405,-8.664498236639192
-8.005060931694638,-9.402885504460723,-1.5281311564552529,0.1720847601493645,5.889027156153133,-1.191143621689476,-6.568540703066601,-0.5740531113125016,7.806895490424214,15.34592974902686,2.5121657113671043,1.9737468473114583,4.693989008299414,-6.067089357872932
-8.510855271634917,-9.862108036729426,-2.749889084859663,0.8882398725747611,7.412392134158447,0.5673445189291075,-5.680039175161546,-0.47161547254488,5.166669219777447,20.1317869283184,1.1831632399805403,1.3687581404600166,4.725192053020972,-6.69825814803707
-9.799266964442635,-11.627533321046366,-4.980070347621899,-1.9088681911956888,5.764411435996161,1.287282074243685,-2.957515635289196,-0.5711003242477228,1.889066166348702,13.278691209050436,-2.022231244187998,-1.3029240484323577,2.1556285479237296,-9.464957535314593
-10.754500321006685,-12.141694041455269,-6.400023698375535,-4.52609474321342,3.785065073172116,0.6656232913238661,-0.4711341077511432,1.0664559483156462,0.1846202736503408,7.646626689161072,-3.366597485215943,-3.347285776535505,-0.2345413446453133,-11.68076826976765
-11.552125419547243,-11.642778652273789,-5.993932254455748,-8.207093139343257,-0.4385960077204229,-0.1740469349034316,1.918347467401741,4.464808684622351,1.1566829839892097,-0.706151570803585,-3.125495537917882,-3.425569773663041,-1.6006393024089665,-11.602075249882656
-12.149167262986447,-11.319918033881075,-4.34763108923733,-9.03540077041352,-2.856840179960591,-0.6347430989786812,2.171428446092768,4.9743725912334495,3.926553367297993,-4.117398536807328,-2.8077696146645508,-2.316800786103957,-2.9984828568916653,-9.876117171884983
-12.328896856571182,-10.728165959346525,-2.911041260919628,-6.269309881730866,-2.0315409494004157,-0.0575218108076338,-0.3828831692721207,2.66952668154027,6.326764559623777,-0.4914809065249265,-3.6662168132071886,-1.6341029922874402,-5.42099358226423,-8.674898624798713
-12.500038179702653,-11.60329052004903,-2.653181281855153,-6.351615154713456,-2.8204749995777374,1.425606631554924,-2.8079623889759238,-1.779909582970984,6.456494684537103,-1.762423894829504,-6.724559093467757,-2.0998609705909925,-8.320675323914493,-9.5258768985456
-12.577065742196412,-14.214977273084868,-3.4583785255930426,-8.48018094503574,-2.1958030035252114,2.088521354279094,-5.750381866889635,-9.566780515852871,3.841616300207501,-5.993662582170039,-10.306384307673303,-3.136135007368947,-10.161552893550342,-11.95011960975923
-10.340902768930013,-12.854839882045663,-4.615163546797228,-8.221811933639973,-1.2382653347968078,1.607937691126482,-6.662379407329398,-12.336805550642554,-0.4985188403892469,-7.394558712197761,-10.57118783701246,-3.9020454173576384,-10.16177613094062,-14.030731006644054
-5.619132134734745,-7.555940277006633,-5.593822961699964,-6.437310507740327,-1.5314195634124623,0.6011884046914668,-4.856922753285325,-9.71892111911028,-4.831148274964857,-7.518490947941985,-6.814102695152168,-4.370005797670515,-9.128478110238715,-14.10120286588278
-1.035657278719889,-0.6272474351143809,-6.227307532109112,-2.009936154129642,0.0902500646263668,-0.7652220318056222,-3.9635277005438128,-6.357897579273609,-7.634563389609736,-6.019290977296077,-4.812706932680079,-5.166151067122348,-8.402886661139823,-11.84014353960073
3.864682369558361,9.264857520991283,-6.301916615097673,5.965768260822304,1.8112511916073004,-1.367689149035065,-3.278443812273583,-0.2297265712359344,-8.172480771535337,-2.032550698242981,-4.51779083933657,-6.413581702660233,-8.08099309910881,-7.922788601116638
7.635185433701066,14.532440144434965,-5.281506623214499,10.276316225615638,2.401888681123476,-0.8715502057172987,-1.992048671802464,2.207503997060609,-6.632934947343881,-0.325214432153999,-3.963140055038457,-7.001067163034051,-6.504179837177832,-2.9386334932080285
9.657842389506396,14.50533961531893,-2.656747831271595,10.969536564374874,2.391355843258715,-0.3881478287776377,-0.6069647269027283,0.1565295582831101,-3.9371948788076736,-0.8692242511563908,-3.9344648772014015,-5.295676780005204,-1.7015165081343806,3.105913399202489
13.6359241440997,15.72826447029196,1.402209614411583,12.626993415441152,1.9024998939169144,-0.5573263479850745,1.8122844971434464,-0.6249328440847767,-1.3172956865596102,3.168565154653513,3.0726510222367853,-0.7817996800664702,6.539417573248903,10.20808710970247
19.212939744736484,16.423800942971802,5.834381507793518,13.764122137535406,1.0535635140326327,-1.6089237856258043,5.334989122029009,-1.718848689048576,0.2158549861805356,11.209014586651223,14.922366626580075,4.981627624152673,15.931639872576188,17.478201544855008
22.18666319697022,18.295782294825543,9.256813140754684,15.416396227655968,0.6976153336057648,-2.4651138117314715,6.867501701659446,-0.9588162921945892,0.2933481009280219,15.469648567173794,21.57414500829486,9.219172110100024,22.981895773195784,23.07463099220662
22.93244548261503,22.31237310667913,10.886129561277585,18.13210990094365,2.392849609523134,-1.7640868705969406,6.370407668378737,2.555629197130844,-0.7240109548297378,16.738699878764603,23.142896765749207,10.11256222815775,25.229130411844725,25.29727166378979
23.162920463923548,24.4980203406434,11.045595245158545,19.05521834885512,4.156218221313146,0.1765718764326249,6.447523798862802,5.497375008619256,-2.029522474326293,13.138793051075565,18.97867696147532,8.478551839792843,22.694436187319187,24.031207817740476
22.07233474524202,25.392255778428822,10.855630968648576,18.42685889829073,5.67214719424116,3.2712601478989547,6.479076267260396,8.572936446030987,-2.834806708964144,2.714785041271819,11.866156171289106,7.373934529223304,17.67029956906017,21.28845772202558
22.628729340368373,26.216347755365145,11.384693278086464,18.031833114410457,7.83499416558964,4.851828813415778,7.298600694993963,10.395700530767115,-2.7447673306746267,-0.5691133236848032,10.238346704782815,9.717073756853434,13.290152721916751,20.18787819537284
25.17612459302186,26.33217303185289,12.918114138784134,17.414810431735575,7.594547504634157,2.982513626670571,9.36758726871997,10.333273104131235,-1.877003615610451,3.1185853287944205,14.87625993374714,15.7498040760368,11.9246752847115,22.86377453800161
24.911093293407458,26.149574701605395,14.83650028649937,16.729402245749196,6.501223175244774,0.0682345059355982,10.358570036738554,10.326525264611709,-0.7116736106004924,7.163103442401925,22.24810074001824,22.47115998152509,14.16972739600339,28.71877260046021
22.331587256735784,25.71446761598753,16.10442238998972,16.243879364138355,6.720672576737299,-3.808040613224037,10.50067587609965,9.857786882133128,0.2314177788192877,14.617775941798346,28.53104826966532,25.68676380200496,18.68225411172334,34.45898528805759
21.29002128318251,26.021093295123386,15.97595992948738,16.490139220242053,6.12483454927875,-5.672842552962041,10.586086898647006,9.098673270589895,0.7210468706043718,15.416907403018508,29.410628743211785,23.18316951344147,22.872038580610184,36.259315224408425
21.1342612058902,27.283681000449704,14.463835781868436,17.698113407939847,6.921367422855069,-3.3457192312501123,10.194848612854644,8.287385814441514,0.9512580560815324,8.401084342762204,24.69968564159811,16.52840637295225,24.298816304014977,32.73662559049744
22.88213144847927,28.54862618393925,12.330211929869447,18.8696030134254,9.3988243306569,-0.3858999550553909,9.484332792549464,7.055703859464978,1.3693990573026866,5.164045259688755,17.104994743628243,10.022359672451191,22.20257350959126,26.399993550064345
27.370879770837057,30.1211858440578,10.637243843944027,20.194662453302705,10.29581852005384,3.0435339136358586,8.464157506428254,5.525945635677448,2.290737336297933,3.5525554003803865,10.760105636964692,7.577406473330808,18.14886499237262,22.048956495779784
27.28294448094141,29.347831812911974,10.110383240772247,19.842978379672328,9.910283230657674,4.674565220321346,6.955396375911107,4.680620103029425,3.600121410188054,4.129668613689643,8.07550370863659,9.944755569007746,15.023736091727736,22.998749985070724
22.598369241193957,25.871674599351547,10.67797427212137,17.464895284477056,8.048059590727803,2.747170857206061,4.969979631676967,4.598205187817763,4.810336145033754,8.926720241620801,6.768389182783614,14.37327458429006,14.812206494245633,28.12111579924387
16.83060763013681,21.621279654070893,11.49801556055048,14.4690634751524,4.127646681777191,1.0808813865033708,3.7318819709634727,3.704583427964068,5.442566949017659,7.623214406454207,6.036757230642815,16.81476472934397,16.83916380261539,32.39012499408128
8.314137457003595,15.860713689913016,11.498641846797888,10.295966051043532,-0.4681396422921118,-0.3509719942488342,3.324104588235965,2.1639388601267995,5.377748572117085,0.3744048267221001,2.544164625672985,14.8321141852831,18.09206732437463,30.76633094382944
2.155582009082805,10.131912810079806,10.05484061159608,5.55767597416044,-3.1771243446773623,-1.1989969577450843,1.352533295398707,0.3462965355772374,4.83767611526048,-3.704019521650008,-3.028760692494762,8.992020866530325,15.5811972365197,22.239813934486637
-1.0838956723591824,4.698863488004408,7.255250021588735,0.3774577628140286,-4.622948683810709,-0.0560064388688888,-2.0377614517184512,-2.054917314832775,4.030554146262725,-6.3891082515183015,-6.126240669172956,1.9180204625715904,8.824280220868227,10.565033604698831
-6.119387479466639,-1.328619181332812,3.5605583522245547,-4.632764398326844,-6.448000888538176,-0.1270114948021818,-7.535621853409296,-4.132557500389168,2.8716635547410387,-5.982771336542084,-9.540242089894198,-3.916673323432901,0.3125769309876198,1.1006474870042822
-11.75917908096667,-7.492579952555493,-0.7204957588131293,-9.193609682988056,-7.019660409173837,-1.071955697112314,-15.797507635503292,-5.856667721288118,1.140746525999467,-0.7574931904373319,-10.828193329476,-7.738607308921936,-6.401527157132715,-3.399446443930027
-14.438280421594625,-10.64437200679022,-5.47819847817864,-11.220179132475105,-7.863433383460286,-1.0547951783976044,-18.062015892740977,-6.159783370156129,-1.0469929640252515,-0.4450465182003648,-8.914824389607425,-10.26339995029105,-9.239177378790377,-4.416167809178517
-14.40794764428923,-10.436476519123394,-10.258531376057023,-10.161071915398075,-9.235352929293864,-1.2108755921977423,-13.988432199042252,-4.674378281229811,-3.00125265768983,-4.666908440976871,-7.779249224555582,-12.262754246233976,-8.594586004549027,-5.596243218626931
-12.791817620522242,-10.795149682199805,-13.82664046386335,-10.8367698195523,-8.792430822620315,-0.9906597721632916,-8.459429547428856,-2.9554318160231805,-3.842613642437309,-6.640605543119147,-6.532187517595113,-13.444279805155986,-6.269450703406392,-9.167119982389057
-8.79320959636403,-11.0213226949443,-14.636563894526972,-12.830813546816096,-8.32684952844823,-0.2903083020938553,0.6461710461893269,-0.6523348787322315,-3.257447479876705,-8.104711295934186,-5.202818650426551,-12.7116361109831,-3.726265591779851,-14.071906221543294
-8.145776089739403,-12.372093701188025,-12.09205632445472,-14.639527437760252,-8.435339288514351,-0.2056343637659715,3.254384859349336,-0.3594420825961252,-1.878790979178496,-7.473344999047167,-6.9898354285748585,-9.468825334933012,-1.3617353390085234,-17.182937743939817
-11.312319667861829,-15.66440905507582,-7.462036440916254,-17.19853104052658,-7.62176467222429,-0.4812868583284436,-1.8170064603762075,-2.5634618512190435,-0.8244438623315142,-3.653342622772047,-10.772077851363882,-4.64753765407408,0.8533856702828864,-16.200999643817283
-12.876311031020132,-16.32388697123309,-3.396819320980109,-16.715229308167196,-6.816268423575745,0.1715821442849863,-5.435545614470482,-3.3424820391586167,-0.7685004201492776,-4.757439760328678,-12.066652472998667,-0.4637918219762245,2.4259973835818,-11.707446622529062
-14.117162412089597,-14.666365750235398,-2.2579573615389084,-12.891567261100784,-6.216412304716501,1.0477261521567651,-10.066023419866438,-3.282599499752984,-1.4643940997907725,-10.631986476820831,-13.29853626782568,0.8706992527886808,2.187629562439181,-6.922406455145772
-17.093994152271154,-17.02102630927969,-4.649060091525234,-14.51885835768743,-6.516960147677213,1.097477665857704,-12.374618221592204,-4.3790870981869645,-2.221395192283522,-16.770214889610042,-16.126032568501284,-1.6163450228104708,-1.0158924437943035,-5.642619424880182
-21.24912277537833,-22.972862165857915,-9.341873965686348,-21.31033771800603,-9.29669494082522,1.0236832543928356,-10.914504016781096,-6.092960496648775,-2.825996894267174,-24.84785181277849,-20.23617518712095,-7.324290005641187,-7.564676739425288,-9.93722821635727
-26.778400924570164,-30.29074214675199,-14.450814182487028,-28.621065277278547,-13.519271519161284,0.8548017023290708,-11.009003183517198,-10.234356963114788,-3.8715633993213343,-29.599891474385604,-27.090004108145685,-14.577247601457096,-16.82635355771388,-18.99156787297902
-34.02084387083057,-40.29967471160729,-18.661936183606123,-38.26370168859126,-18.75410000327885,0.8510843920853521,-11.558339348049898,-17.2693003946658,-6.059174006775603,-30.167843887242064,-34.64479626806006,-21.34671380803406,-27.369964033659716,-29.61243805717425
-35.43842117426433,-42.83145703746844,-21.591688564947965,-40.802997835502765,-21.613398101933047,1.2035487539973695,-11.882163950959656,-20.26886126225251,-9.186442003409097,-30.354902996720742,-37.19941276624088,-25.857085101369336,-37.31597780665593,-38.02114408435426
-30.47791303396855,-36.94970898519713,-23.40817993889417,-34.98439914212952,-21.37868322063297,1.0872429030069175,-12.7111000908367,-19.268999702721423,-11.98776652193136,-28.661921936023905,-33.70041817217655,-27.165948257633502,-44.758776567396495,-41.925323900818285
-26.50484959002634,-31.85814978272848,-24.40417704406377,-32.351780498308685,-20.942229552169398,-0.1533777532850132,-14.21049556012591,-18.204990926534958,-13.15907937590588,-28.72410365253113,-31.75797654886353,-25.682060886595444,-48.33072813747423,-41.61490859876616
-21.861258743607323,-25.176459067776484,-24.817109522790936,-30.812429998009385,-18.5089720382118,-2.0788744151104863,-16.572480526080238,-15.578648967464252,-12.594577627680303,-31.088812799649013,-30.757774744752314,-23.09957168381583,-47.6818494486631,-39.27654891569323
-18.82807799203681,-21.410229195142293,-24.6495510713078,-28.801352798634877,-16.32921032466621,-2.967730814644526,-16.981154195102615,-14.592493069245,-11.498373447528454,-27.613690771849225,-29.08685575788183,-21.31138994631038,-43.42183748731353,-36.9274886617509
-18.73680864740825,-22.206388883533005,-23.405862817498576,-28.14698422241495,-14.031020595640364,-2.38144209242408,-15.336277603555184,-15.82812382682967,-11.101575034467666,-18.724382012646316,-28.39368952783541,-20.847500997575292,-36.46303888942713,-34.59893976099437
-14.253053994059238,-18.497185999475125,-20.209502415153803,-21.344418136279188,-9.05082708788519,-1.3236979378492162,-11.132496233428766,-14.15768644595908,-11.206181439911642,-7.12103151354789,-21.748044668277917,-20.274538560339423,-27.416219103291557,-30.45835708399601
-5.94534590299866,-11.4439455891625,-14.681403211942529,-8.128365891487478,-4.134505108241933,-0.0164506849512506,-3.4789384620415484,-10.215213164063789,-10.128832736663412,8.936341534222045,-10.740134155102734,-17.494208450664672,-16.79480426721132,-22.99629539028188
-2.4743947961593973,-7.427139968859683,-8.016006978850294,-1.847343464331909,-0.107893977042839,0.6678849198518976,-0.1602834671322064,-7.314069804598925,-6.339618741530952,13.736434411053692,-4.641976655384418,-12.066063829120166,-5.907605831826018,-13.372729454548946
-3.0581370326024864,-5.29598209079821,-2.974623901601121,-1.7012456425950355,1.6967868199869067,0.4105502346851046,-1.32324445380373,-4.744098634405069,-0.3444152796004748,5.876821735824932,-3.699499991706,-6.314884627690751,2.68230482323013,-5.493069587170831
-6.347385153563361,-5.852326258768784,-2.1879872848470985,-3.390479458852552,1.930540419006776,0.2742772194897598,-4.64647586030507,-4.077711947028257,5.107119128843797,-0.78024165338678,-3.7727422110401383,-3.759619073747076,6.162237129636745,-3.2298687811018283
-14.214749486653504,-10.36702250052286,-5.864594251706785,-9.751353249735711,2.261457527312247,0.0628258876147323,-12.119168678785035,-6.031078863004546,6.987090832547686,-9.938422922330869,-4.521878268687374,-5.919393689931853,3.583688210733764,-6.966664302228714
-15.084155722107177,-10.506838941838478,-10.996509190770166,-9.881122797538016,2.197541830268835,-0.1224746493482083,-13.049415361733278,-5.0702129857625655,4.5541734133437375,-10.484241167323988,-2.6652318388923666,-10.416268725576804,-2.6754837492005183,-12.666186678217208
-8.417333012530536,-6.311003928206722,-13.163745097423812,-3.0313395694602328,3.4360561387947555,0.5973300580254621,-6.826248048994852,-1.4427122728071675,0.2000858157239831,0.441021718803193,4.334259604256303,-12.439956634606828,-7.763561720483546,-14.685631151034077
-1.5210194553890872,-2.1931355573485574,-9.761557014822854,2.3027278881395965,4.827317356081141,2.3541174578691018,1.3583079433307927,3.269312926963018,-2.3277144677706376,9.236708514145509,8.736917049730215,-8.613952246247669,-7.383209677150273,-10.173456681041502
8.323359224461946,3.6510669837171,-2.033887657524975,8.603830087805072,4.430368214628317,5.0789355285051725,14.22837925488185,10.282442627209818,-0.8811647034630847,19.082883481811383,10.9410172756389,0.072816299045602,-0.8354173831193261,-1.2737571428676535
12.200618271850509,6.140859361784404,5.852438647240636,11.596996602816432,5.138778390829508,6.281405924369186,19.42395104907276,13.563678470370382,3.503586780051645,24.1980258351246,14.440339856573598,8.956348097760461,8.423865741538156,6.81125856009093
8.717097199367384,4.541461734941135,9.98980906227724,9.907698607016563,5.8619280815187125,4.015357309067314,15.796966951315923,12.73034669461624,7.716098905406126,22.114045371398728,15.483888052214358,13.497172061348358,15.364547622172882,10.179981597509505
5.090290724005827,3.637332986361375,9.56795594190455,9.172523305479492,5.162532737966696,0.1113555329174471,11.983194778361227,12.796645414745209,9.276482449147611,17.249560665971295,17.2611847616725,12.878588314301345,17.146781398510143,9.18738253325601
-1.1094978758116896,2.1585284153124333,7.100098822621989,8.101784934739932,6.133628468646112,-4.926454475068961,4.872168407830252,12.422728371679195,8.183110566887251,7.174958940790318,19.50643101633269,10.300394447810266,15.028965289088942,7.569491830723868
-1.823713387333929,3.1328813924842707,6.016416768229577,8.976941130766807,7.14279257065836,-7.517275504962943,3.434307341588124,12.911011751980055,6.402730330655597,4.343490709222013,19.14375462962783,9.866863637310768,12.883126559262037,8.804091273240923
4.353485133788338,7.457127195565429,7.793978916229362,12.81643673368428,7.860171902753835,-5.545365552939304,9.190504168988085,15.02145677348593,5.76059734362104,9.77822970918807,19.632257195362826,12.962014041379575,13.675993572463284,13.09148525850404
10.337670930821892,9.745001882340558,11.06020813668816,15.53148948053274,10.573197434045817,-3.896153079942009,12.804874856256356,14.009228258753197,6.360278780721945,20.37537705586089,21.846948843465707,17.291633159059845,17.025865021344597,17.490853790360443
18.351986647596117,10.74512955891126,13.273698798618664,17.863247959590772,12.892407792017318,-3.2298916378475484,16.559111116317354,10.12336554048374,6.920196566318314,39.78325315930204,24.227660468417515,19.226370703063115,19.93395967776932,18.77300848771658
22.389849153715637,12.133888271868496,13.29550058362331,20.71814002792508,15.045858656095572,-2.7390540538542423,18.371663628696904,8.878004016331083,6.43421972637242,47.01982857468642,26.69049317806436,17.155129603953476,19.896645154159287,16.284598737606544
21.17674263298974,13.03992984527492,12.454075070606429,23.511149601389803,18.878839509267276,-2.5265477991152405,16.778647139234458,9.68567207329697,5.345317535261394,41.18186441500819,27.926131921125737,12.873640744431164,17.466487263040563,12.4129629364851
21.60324352813149,16.732641332777007,13.189346536309216,28.16710537829289,22.520851330866684,0.3444525573627586,17.450386170088077,11.978111232022536,5.067649891763779,33.83218652464244,26.055156654877585,10.003707966350602,15.91168479166003,10.51188412022613
22.067714725510235,23.556642515041226,16.646258106397656,34.8390382034736,26.61141651237615,6.572553901672901,19.656226989768893,16.921244435749742,6.430146112255275,19.9232506289889,24.602542629796684,11.063151995942022,18.32201969948669,12.231126388123537
22.88634026157482,26.08524790726981,21.52534367548231,37.40135048062261,29.53470600897149,10.148166516460938,21.164943629730868,19.06803338657619,8.678026208561677,16.13462028447711,26.273707377430704,15.71991944624548,24.78272582597498,16.428124621734483
25.054000132714325,24.628316478504104,25.226172583986628,35.824260721551454,28.461563286660454,8.158997745235753,22.854678960320697,18.336216595094125,10.06838031479152,24.50891273961992,29.22021597804407,21.411853323108645,32.060571699667506,20.33178995673732
24.98656232266912,21.44037788878334,26.112586655124005,32.91949014701311,26.42678685796462,3.9608387867703874,22.88715941210197,17.765545631627297,9.49995279398586,27.82013050751241,32.979372319932125,25.418422169863597,35.96006918805357,21.807471205840443
22.897608268875945,14.86113573226151,24.747725485866752,27.246835126181832,23.113152614496094,-2.8527186325594736,20.914008242917884,16.146446071561815,7.603184965387144,29.910505150483623,34.92163920759901,26.548341285473523,34.31218873902408,20.87105280234061
21.762992172038413,12.425965255167837,23.0777129190406,25.020435188232184,20.104563057277087,-7.069666654828608,19.32858288146815,15.406708726831384,6.231900535775136,27.99897491378308,32.22224027432004,25.373805910311415,28.291232136231304,19.387018784208667
21.050407357654286,14.610751958736277,22.55061112629985,26.846505170806523,20.049153946955343,-4.600473506977896,17.702870535950147,15.90448574996546,6.814458677287661,19.248644930526844,28.427271970682117,23.32230665354556,21.33204679363924,19.38448878043008
20.68327073930102,15.912784124531312,23.02107313684425,27.511029093021392,19.094277619466684,-1.5682541401693535,16.889258216794868,16.31142105262484,9.084921566957496,15.838083656753762,25.818239599988395,21.61259461665793,16.751411648310935,21.43520736335488
21.195359964604897,18.07614575059321,23.288149567605107,28.501344549730963,17.817759517481168,1.3602066976097755,17.38724846547089,17.180609614745606,11.333934073497982,16.79887497357679,23.879079569044293,20.699436010121968,15.829103185587968,24.330859376115058
20.179000816124034,18.059616721916846,22.447601844151357,27.43185313579413,16.566485482106376,2.852497777497845,16.98654327236653,16.491575532025,11.888678751518526,14.1969657807841,21.919490095833595,20.2629478403079,17.408307905159425,26.147505838386856
17.64481305830677,15.021952928527224,20.625249465548272,23.46940620509683,12.94508257050759,0.3152677427278361,15.96412276354456,13.995354924979544,10.424633509419408,9.951830904199372,16.229085951338035,19.51283546197612,18.890490804829028,25.68489709590737
14.810164701702078,13.072291087135389,18.53622340290164,19.824168425870663,9.650260215060538,-2.272554857913555,13.649473694515722,10.779937970096368,7.968203623844042,2.6454771605041056,7.777943149925463,17.648815347442547,17.744136257061076,23.102775280013187
11.155052386645895,11.38025125170198,16.57594751754417,15.7500903237878,6.585084070762898,-3.5595803510053905,9.534018219240949,6.273544031212057,5.7543479163869975,-9.045228937467623,-1.6091803771062654,14.332188781735258,12.644133022225402,19.40003935622391
7.6275737446825795,10.64872063884554,14.473883662124784,12.15992889243152,3.059162020990572,-3.544120604969703,6.790116036221574,3.263373638090779,4.15389504852168,-14.84120323235998,-8.284364936306213,9.90724923824554,3.852217200327567,15.399568424475545
4.37098966560643,11.591338405934929,11.771715295597527,9.585021023668748,2.2955361300747747,-1.4386874391468074,5.278748407630106,2.004197170104432,2.664305873237613,-14.748815891597053,-8.817994611417369,5.164329496637357,-7.037460045390873,11.218954298831608
0.3289090414290647,12.08658559942708,8.480878582530337,6.977073380326804,1.9443595900589028,0.6993985423260567,3.316807819434645,-0.350752954779631,0.7797723441051714,-15.973255979142564,-10.17491443830713,0.791947984119111,-17.675758373148533,6.610390977460061
-4.283453222903612,12.482230860240051,5.165786482524526,4.753147411310166,0.9883562968299744,2.374607870453025,1.5189617126818666,-3.1930307997598946,-1.3164289407601633,-16.43495847221944,-12.589543198897983,-3.0072441656330597,-25.681822276610887,1.6777268831174164
-7.656795917686579,10.925118992123378,2.3817078159484506,1.191934684241173,0.0631096083444349,3.4863004122217705,-2.4681296857934445,-6.512211304765216,-2.9789657270028567,-18.569876206494733,-14.637384089080154,-6.402841435634075,-29.482459243082857,-2.841725892182948
-9.772117232621602,6.860087812670418,0.0819538657249339,-3.915729281767175,-4.981258989587172,3.370008523706016,-9.015036830274704,-10.74767371143414,-3.905159749489029,-23.465745876344464,-18.69612501574968,-9.506409572289511,-29.1033789041833,-6.054308133214348
-11.964659558508812,1.37427253224463,-2.3795310409329726,-10.655383904563768,-11.587680579593975,3.1193900951147437,-14.016095534025858,-13.540412023424263,-4.544341751712457,-26.343380689109896,-20.229105724805287,-12.13177648681118,-26.42966208056144,-7.689894313735101
-13.843189139974632,-6.241302656378892,-5.6476492787768855,-19.619174699143567,-17.375422807806466,2.47795646980203,-17.892443349130584,-14.867287462920329,-5.630967192279779,-27.919422053841,-19.46087476288888,-14.01263012572652,-24.43347897706365,-8.430143772019786
-16.044992168981484,-11.662766844747145,-9.768676498002394,-26.39059092361639,-24.207799714232102,0.8278414862754915,-20.776538706139725,-16.33449015587283,-7.384857183061926,-30.22457999015161,-20.95079124040256,-15.21170418381441,-25.46144174066354,-9.467269407962018
-18.786507724482075,-14.569749989348974,-14.180461073342029,-30.88639021157172,-28.67481791452567,-0.3299599092575704,-21.786645212230784,-17.452105729475615,-9.306694652138509,-32.58495160680856,-23.76915169785168,-16.233897228006832,-29.549603707999225,-11.682451300903995
-20.25961395352223,-15.690990122568776,-18.253744178104,-34.26576506207919,-31.923879764196798,-1.134875531051244,-25.51607249849562,-19.627790432252457,-10.80464946369355,-32.757646162570715,-26.19157544419423,-17.67029385116439,-34.06033446139291,-15.115611328449996
-20.56255256066275,-13.737528882070302,-21.76663973712101,-35.38792467513538,-37.30890873050593,-2.285921202510368,-31.9912915533623,-23.176872198515547,-11.907841277892915,-30.730508386741683,-28.80786217968656,-19.68576661054877,-35.1974599870454,-19.049512089413952
-20.90688057148727,-13.984146512786465,-24.78377839848369,-36.03530465551669,-38.81263853317432,-2.021509818644718,-34.67660897240175,-24.99925640563873,-13.186189531832843,-28.186696091694657,-30.636450131762533,-21.81207338852748,-30.57535060477909,-22.485725250122886
-20.975688167371136,-16.428494063788676,-27.12604543346196,-36.06234039694975,-36.771094960546215,-1.4718888256295948,-34.163338245532465,-25.32833051611896,-14.897194843292803,-24.63186814037389,-31.435738367820964,-23.23092952131666,-21.07499786412406,-24.60376112433633
-20.615870122945573,-19.75725622007737,-28.17311633199226,-34.66526063911083,-34.79639044927406,-2.8515694694344447,-30.641439082241146,-24.01301280709772,-16.32808749095301,-22.55522552425245,-32.95310373881947,-23.34106374098267,-10.571143689068505,-25.03007196770848
-19.975569093742905,-25.255437349280548,-27.431667980793943,-32.1262280748291,-27.8788666496664,-3.4838306685467604,-22.634126797873652,-20.315059462905992,-16.204036476256363,-22.403009255184465,-34.26527969685899,-22.218589553979413,-3.592327003460816,-23.98329727835113
-19.069919760545417,-26.11700241018556,-25.35899659841275,-29.76352288911321,-22.91133855786425,-2.800508942673316,-18.967228844463875,-18.19045721575718,-13.90986441287324,-21.447873060766373,-33.33771732764858,-20.66046188369542,-2.507844610142495,-22.29023303079764
-17.927410654739706,-22.005474262451973,-23.413782480023094,-27.641421243195744,-22.26724654742471,-1.7140165418713995,-19.787470651959985,-17.593678717339774,-10.311576740029023,-20.339660298956776,-31.225532791774803,-19.735203161914207,-6.240810090994788,-21.086503697324435
-17.46873437830074,-18.43271180741102,-22.956540534312303,-25.89687724536762,-18.1100435414616,2.134903119963241,-19.869767916728723,-17.05342487512184,-7.2478021708613,-19.49174193400747,-28.63360366715744,-20.046143673380328,-11.400373351034808,-21.13948066144633
-17.815970555456623,-13.922569939410735,-23.893594623708164,-24.96371408021677,-15.948021133607444,5.710213518714866,-21.16976762219395,-17.468913332105224,-6.067435175351612,-18.57215832103027,-25.597980982000674,-21.150149852039227,-14.887646020923317,-22.16965111441777
-15.77690374514044,-11.614862652550007,-24.4632771391124,-23.011996432050683,-13.647828627638964,5.038204426281785,-19.729490394377866,-16.209355344634165,-6.577771411250238,-17.172474744653666,-22.44765564235408,-21.589340143341808,-15.893845300136933,-22.7888211574308
-11.35236202318726,-12.522777593726396,-22.599153855808755,-20.14219458943843,-7.837079246986142,2.408634361875067,-14.796788537192668,-13.101673330781349,-7.38043437141568,-15.207263618100985,-16.86020896622087,-19.66013962282058,-15.758208592195524,-21.290881856079285
-4.576552689854974,-8.697029688704571,-17.747755335030455,-14.006801261665233,-4.831955117309931,-0.1155202881834552,-10.146236782884166,-9.330260426124704,-7.200539226243608,-11.39035713520485,-9.622151198223662,-14.52030104514738,-16.015556396931945,-16.78625580662483
5.437083302790019,-0.7107957875973803,-11.47584425274056,-3.9277137647019353,-1.077975449506272,-1.8910305315663904,-4.716197949125554,-4.221124584237632,-5.882674561717847,-5.410713686994775,-1.2452383535509657,-6.9133563166330045,-16.54467191238104,-9.813108970557698
9.871343214716653,3.70231229496264,-6.286375940036139,1.5250329274253211,2.862820961263218,-0.9964587926924549,-2.0952910062134835,-1.1549418215363172,-4.178600798530091,-0.225781006738777,4.847769894441036,1.0198603840554288,-15.579530566777477,-1.991275693322871
8.314651834166604,5.60440006635709,-3.706563488356576,2.5104635545992604,2.648205875875362,0.9573739404965392,-3.072469178262209,-0.4198297975319458,-2.7474102856317533,4.402426266212273,5.186608283337763,6.788951771152463,-11.536597277330552,4.905792132013163
5.562705198838563,4.339452481010692,-3.3077748665425606,0.395923815545828,3.139130831579028,0.4254929420980602,-4.0874164728893705,-0.0235307456620159,-1.522951835024303,9.80943729665605,6.356675978901253,8.848756823217009,-4.834392311947783,9.697376365705187
-0.560122985442828,-1.7517663838434432,-3.371314681933449,-6.961866070892831,2.7033791519464563,-0.7531237296306718,-6.182247431047518,-0.8433734889009767,-0.057612218773734,15.452498535391236,7.729765648139002,7.373492967737335,2.129792490211829,11.949150001481865
-2.147633403611405,-3.1937107121025448,-2.443595871596357,-7.989478073809447,1.6151186796055153,-1.417334256427396,-5.470424979844838,-0.1703905163710484,1.6933254150286832,17.807124900324336,7.968138782595714,4.057762192713781,6.883941968378206,11.759109493604386
1.700528710483315,-0.0926751722828853,-0.4005985248445647,-2.326847634636665,5.389059800539513,-1.885547958722192,-1.1830394157492612,2.319930586743023,3.13303945794884,16.58686337698769,9.533412065380286,1.0767722717473367,8.861564294400718,9.630790351296367
4.1514792418845285,1.9710548262483003,1.7377493554609034,3.053550902719844,8.952953515685053,-1.047828544564533,1.7202976807487695,4.281892560984093,3.633789965957318,11.69122386228142,8.284631459896103,-0.144662801863479,9.593471865076442,6.546013228358316
7.134872620140311,4.946265380389185,2.888920173130722,10.78986742975322,11.64870654808002,-1.2698290753904549,4.2107720091793714,6.379275411264396,3.295912024492985,1.932074570461947,4.35666136954129,0.4280286151119057,11.013326851055668,3.9004663402762088
8.24741916029021,5.326968972590603,2.899586828147914,13.460217633813413,15.004795095074726,-2.457320171339876,6.369950349553752,7.355343601219511,2.963076863216921,-0.7573677768422113,3.2568749495768903,1.7730084056915525,13.59858768490908,2.9761116307183557
6.4654739088736735,2.292272622127189,2.679843860911956,9.86442215844038,13.492617008532072,-2.262432706567015,7.403158898685606,6.815722348372563,3.411837725391152,4.132181811087084,5.55142067092458,2.800646470484348,16.14975141688663,4.135680873193233
5.475682132554994,0.4266044617242722,3.436354424495915,8.147928178328089,10.393713437484514,-0.9797477166147416,10.000388835308463,6.556808738413156,4.543111147517889,10.35148869250629,6.846699191644425,3.198995549637811,17.324674084802304,6.410973762184087
4.487772935189474,-1.1609464481955418,5.6244200710446925,6.502425995228564,8.629230164608654,2.6842396393820227,14.05286959562982,6.216307388784437,5.439119479782441,20.84319456652968,8.499146214056042,3.5072620666067804,17.296166413623226,8.04095834431918
3.1074738594947604,-1.8273800691410844,8.430908282037084,6.00929090686691,5.513430051888373,5.797209077815998,16.129597380972424,7.288280146663001,5.278639991616573,23.98418104872888,10.226644008156338,4.463799194076856,17.790386748963204,7.764258102340653
1.831368521131144,-0.765377042443928,10.226851539029566,7.979999165592519,4.376413601176357,5.028510402785201,16.533999220896764,10.206055063983325,4.233462856917676,18.5253944072567,8.982880904409798,6.2516495908360215,20.373430540583087,5.889604435072716
-0.0122981833184533,-0.3991315727009858,9.72050783863208,6.9054612088858525,4.570716258718464,2.949877386611572,16.616668197748016,12.412180877533055,3.460591620044517,13.501628624571335,9.41144218793583,8.245598558140191,24.609501543996057,4.147021014204113
-2.356491783544876,-0.3781978092516582,6.970294957150236,3.186994365889469,2.442232920579268,-0.3933079989367055,15.721469483936694,14.293327095114874,4.14683469698104,6.00281247552321,10.582838004255558,9.365674082478284,27.946423116825866,4.250197238981728
-2.9581546335311644,-0.0811815217247346,3.4502749905588197,1.8683135597370248,1.714537002660716,-2.7066558198557136,14.39537963049658,14.082837096002752,6.4324820533657645,3.0849042543697798,9.721890291134011,8.703209475518214,27.643556993700663,6.274305590982398
-1.7139160786961702,0.1123286859806926,1.0491238710058646,2.211191715212842,2.09368264827722,-1.284812072415487,12.71360143509138,11.121362584586452,9.149759301253582,6.293404930287495,9.909371995097668,6.0371750229132095,23.146175141679365,8.294731806720177
-1.2353797590269404,0.0763516554308853,0.7361395249653038,2.8089901068897825,1.3530141250612195,-0.2637746411034765,9.25197116671499,8.424763939763121,10.606220125042192,8.93092069846567,10.914609583652744,2.047574919313885,16.78307164429511,7.785611000991452
-1.099616854878316,-0.2280040128484588,1.9371510017497453,4.530296245414261,2.86815942516476,-0.2762913243233351,4.030161609363551,5.449243785061643,9.793503651281512,13.03652303523146,12.134507330001025,-1.8476586619535045,12.059943641188855,3.758564438036069
-1.2841081320648593,-1.641033682806163,3.1191534322685825,3.9524261933903273,3.68525935875705,-0.4973614537028041,1.488554647704841,4.164277887938344,7.106174571235747,14.419927848871136,14.026825785654967,-4.061808611076229,10.932400864831454,-2.136270558492228
-2.273740039505306,-4.324239741110542,3.1026172559432696,0.7896102474025042,2.6231887291841858,-2.0917577524523865,1.6990715271022645,5.278770547280263,4.074786699526915,12.003670066349894,15.32651589157676,-3.6570508768129,12.369802508871466,-6.578618094558188
-0.8980018892261992,-6.134739606595701,2.013873325394096,0.5711670252288781,2.9979541854121567,-3.1949399016435933,1.6992004917614665,6.240164748059031,2.340195837511681,8.054523955183198,14.345028088066917,-0.9506129352660936,13.40602239780337,-6.965025694727433
2.918681677195087,-7.181763025790394,1.1030790542071802,2.782340047599682,2.306340158397861,-3.3767368074990234,2.472502379471057,7.717920418595942,2.5783754424308736,1.108734330514774,12.9787452842465,2.607596299380578,11.710554488141774,-3.351229258576784
5.047200602621955,-6.648011319557227,1.6325752255330368,4.483041675236215,2.017273076737715,-3.015462776920046,3.2416948613896626,8.606245643669357,4.07772069312356,-0.6841515148800816,12.578450157892082,5.343885295001879,7.462179424905622,1.6155573616324652
5.9734124653294245,-3.917502085872384,3.830013952876916,6.616191990835072,2.815016897906612,-1.6507306582817791,3.659354632182384,8.489151138910785,5.250019607284049,3.2666839556347327,12.312384798417035,6.443796990871741,3.057520776000892,4.747935074784493
5.7246470239889495,-1.4778638048412505,6.788495943973283,5.863461488546347,2.504335736354902,0.2442513518134745,6.200296011560129,8.154094283319377,4.766915505506795,10.301112331237308,13.381940282961624,6.367416911880476,1.1346321086716245,4.723757708602351
3.4251069106996703,0.9905834306031348,9.294463419055171,1.5720023506730507,3.242464771980555,3.07268358059363,10.748141543597296,7.1652370691063325,2.5571575927782604,22.702819238814936,13.804486232644951,6.273556813165268,2.6928367931262827,2.9094176101421905
3.810889334528966,4.078606412894153,10.737129554377074,1.045037720033786,3.843518798441566,5.1275361867955045,12.305938586708011,5.875965255913773,-0.1056632977448117,25.553582073682545,11.77735092865951,6.96554457245324,6.683388573368381,1.9526862349599643
6.900013626647676,7.359307410370296,11.294561892548774,3.7737602853852894,4.578722794085516,5.154890793974311,10.971756063808147,4.276012224108212,-1.590879870901695,17.900692578550977,8.552880271393068,8.258639354852875,10.985748039489854,3.3740826725117703
9.857990029017616,10.631052606674558,11.4068624197113,7.282991575315598,6.974828220099511,4.782132407537127,8.947766483335714,2.9801355613406093,-1.2500874708764265,9.316500039964684,4.537690024260186,9.260856100930644,13.67970462624477,6.268479586110322
13.69264089280429,13.810168162525406,11.242127662843092,13.04801071092304,8.435136982529505,3.282894497063945,5.108399596400779,2.1249171042056303,0.042696210977688,-3.840084384442541,0.1874077045214774,9.237093509563302,13.729355184153588,8.25636495063496
12.913161105910945,12.893141250058854,10.70754705110912,13.697031626056852,8.792699203277897,0.813843211866543,2.111216952396948,0.4319762726927574,0.7058271526461937,-10.06483222993889,-2.78565633134705,8.22910139758804,11.02116538335006,7.756646581453912
6.73425541926808,7.343919300113892,9.803967225467852,8.594390253792675,7.909568845027191,-0.8689702810111898,0.2105545308614804,-1.980263443424919,-0.0696253670841642,-7.60675617650513,-4.236782468317264,6.862800457878915,6.139125685485752,5.373970899323142
1.6018801088555892,3.723175931680648,8.701393926234065,6.004478769838764,4.921997665590529,-1.852692916835513,-2.2170141741439693,-4.299159452411879,-1.587119113710166,-8.084570927119136,-4.439481555930732,5.559619451944752,0.0758087601823049,3.032147277188056
-3.763456413416165,1.272705627211831,7.342060387229608,4.413764531685091,1.5699185051335998,-2.906523417985029,-4.4992392960233385,-6.726128381679934,-2.425937552557244,-8.633408029009244,-3.1913820258604333,3.9805428610741354,-6.152534665920413,1.7539692281142791
-5.983965108916785,0.6767170895044996,5.122815818787672,3.819872845307282,-0.0191074311530906,-2.7153969751963345,-5.009861457973699,-7.010108412297807,-1.9906502492116864,-8.895214849708688,-2.284319417650201,1.3641304492814577,-11.872042398089317,0.4505296505756107
-3.668216658060527,3.390362459312699,1.296098457294633,5.65020887705798,-0.9448442547529272,-2.0724447309301857,-3.6421349753055834,-4.800683882662233,-1.2326883383397558,-10.380446958692104,-2.6980609688380266,-2.460495091075458,-16.772386363986186,-2.874441695619346
-4.739533371997242,1.5733908296066357,-4.061463112563672,3.0244980371255368,-1.5270268478091569,-4.002183487193807,-3.1064204361814047,-4.024122647511319,-1.7288288218059051,-10.260601435368184,-6.919809105432115,-6.397113699389255,-20.50937979552257,-8.628762697382161
-8.330488206005406,-4.594081119250833,-9.474901449886865,-4.021649633729542,-1.038621755923414,-5.775844927203286,-3.133346496530395,-4.262020035676476,-3.9924891466864594,-8.873696600810938,-12.956381693923522,-8.596172924561678,-22.38360221844662,-14.472693966765616
-8.75891950261767,-6.228039187673945,-12.688933988428378,-5.831816475170708,-1.2462630733388451,-5.484995985113396,-1.9200398501571565,-3.4235599736935463,-6.731616115090212,-7.120891115811987,-15.336915283711589,-7.8885207864563185,-21.694028013562196,-16.9189690350207
-7.105583171390025,-4.4454112679745865,-12.179947764441806,-3.257619634182082,0.3383754695318521,-3.292730078788773,0.116719328232051,-2.141025058556746,-7.846492967758252,-4.563145663329658,-13.505401453460124,-4.831915126931323,-18.63205632419341,-14.317277815063504
-2.67429041160683,0.1052328991648936,-8.317756426324653,1.4449142596742195,3.785426557582449,1.9393509200335368,4.470145906125991,2.0775630192692938,-6.225522055234436,1.1168817362746986,-7.447245963018154,-1.2738659451660936,-14.731077909415893,-8.345905724476555
5.625313677341751,9.222457287038171,-3.1316971687356983,10.270400427415838,6.580017993189842,7.6466863745911136,11.57475677182648,9.734308502603724,-2.645961890482877,10.139581086756168,-0.528934023066828,1.245916551361356,-12.039933629175543,-2.5335479862225974
9.414930237814774,12.813501691680663,1.1660704203560126,14.388645770977227,9.563152683449712,9.16624426650898,13.874232332766896,12.121468316247045,0.9600656806894818,13.86693330131162,2.2922429522225727,2.7110913116532505,-11.459184530032749,0.7540358884326874
8.599763868268367,10.63182834893357,3.675048549045364,13.355819127357847,9.77631622506762,6.359422781979724,11.238635101776415,9.299609703215932,3.0362724961417698,12.206265801319114,1.2465941962449214,4.249966490601118,-11.796556884937331,1.9859725451126025
9.242087634911991,9.931381969801263,5.124568951032583,14.10128194982624,8.19071955329265,2.758415357403988,8.416225908782208,5.656641199480721,3.30398566993744,9.657921587367287,1.4834335108023995,6.5884554171327725,-10.68905427548485,3.372439962882071
9.609906374944686,8.567551875180072,6.874311337162865,14.697956500707296,7.835671387650279,-0.7942741898457496,3.720303768062605,-0.7427150023384153,2.460626085438744,4.2174132873340495,5.30497274292078,9.007455221441674,-6.762163019684119,6.354572972021938
9.711230863364328,8.413197007214412,9.55369948602305,14.165264907409693,6.814857122281572,-2.4108700826707787,2.002542322599797,-2.57927598706516,1.321244382182151,2.0070960624226464,9.326466871881072,9.961592840285014,-1.0273860883571189,10.264710946491093
10.256606010667076,10.463049935068351,12.497803864786974,13.22809991838603,7.147424786459559,-1.530846566782566,4.127378317544055,1.031207403589904,0.3587363342405751,3.773070607228124,12.39291338199415,8.743546657764117,3.892948384187932,13.295127497283962
9.149621644452225,10.360397753535596,14.346116956017497,11.305345174266678,8.693270298484528,-0.9737008172959908,4.674826347108231,3.1446343739442804,-0.1326625363296649,1.5951107465443055,13.198172413765866,6.422666554998527,6.013269341676018,14.458347926840252
6.502315306932828,8.651251898065505,14.155404121040084,8.386687018666166,8.266232815353991,-1.1146792119102555,4.864464372482541,5.516285841908302,0.1820301513487692,-3.289942875866416,10.409058098895144,4.989198350110065,5.512663591754242,14.359746213059491
5.2289897511315,6.801074365585295,12.03229652392261,6.583895267296117,7.421329911761104,-1.0932895859262148,3.96387168365403,5.42640028453882,1.4452170539248037,-6.19656094870271,7.646993427525168,5.476729162285414,4.1031368874741165,14.119456261095731
5.137665695017876,4.094789739705238,8.863085632089287,5.97866048606959,5.166897595665451,-1.21081555141834,1.111406837765588,1.6873435445965308,3.1443446530097354,-8.126211456741686,6.534906261324269,6.921691519088817,3.0667857780763974,13.886031342185984
3.941817594914059,1.5569188055290093,5.582576823764779,2.1792067686665764,0.9698663826159596,-2.270272811072126,-2.594414349655805,-1.7055054598842685,4.116334419876081,-6.754305400372122,4.1388396076852985,7.242228818622141,2.158394662621741,12.74588872481486
2.1198996704419844,-0.678390381511859,2.727875005988756,-4.627552879447758,-2.8623754248934645,-3.160726692045584,-7.681458288274603,-5.701033721692773,3.314609707008032,-1.0404506686947494,0.7003383703532269,5.25747991530233,0.5121625401793826,10.11562426759663
0.6357829825579411,-2.006853227035064,0.5261797336231009,-8.22047660500045,-5.848443916185553,-3.123254984809698,-9.763665658036397,-7.858726814530622,0.7661512655249232,1.1154361348035438,-1.1824581758633446,1.9222503988924573,-1.654851736197774,6.89287399124747
-0.789181391855373,-2.035035004343964,-0.8918748113250832,-9.081779754794322,-6.780685468358635,-1.6187173768673428,-8.421875744659344,-7.401547328765827,-2.2259297430993845,0.1001016784925515,-2.933378614071917,-0.4763486356065955,-2.7381290898365336,4.8252873089511255
-2.3058342501791103,-2.7927356868782494,-1.5991781659908275,-7.52571169295346,-6.7230480186472255,1.4153437052124362,-4.600484607088129,-6.737968144510433,-3.972750101158061,-1.950511292123572,-4.005459662669034,-0.524257201223989,-1.4419681699372546,4.597670125683946
-3.796022821442543,-4.088681877605218,-2.1503717423080517,-2.1045488690043914,-6.748450134996675,4.757271816697756,3.049401234206636,-5.0312368955940165,-3.68173732564685,-6.765901071879003,-4.024239171140076,0.7375818569785633,1.3672447224495032,4.745346151220875
-6.065204335832608,-5.504393991813258,-3.463270219286068,-2.274644090678766,-6.658788432664081,5.69014306841991,4.656886064227684,-4.695215841202809,-2.003528116192493,-8.489159703765154,-5.687477429515434,0.4580328331381018,2.9545336598079954,2.7890526230041752
-9.184063516633122,-7.439446533397575,-6.118635223761853,-8.2940722086159,-8.26341428478304,2.9576288122011665,-0.2705816574684677,-6.141539842962875,-0.3720565588355597,-6.886391645954655,-7.174594044808567,-3.518032803430982,1.2066937001588052,-2.37927204892501
-10.85321458355139,-8.80730763595352,-9.690964496620929,-13.958135263193444,-10.240622389227797,-0.4824382859928029,-6.509880346323937,-7.268518479267805,0.2142762585443272,-6.15209037461054,-7.875943116672904,-10.447116847360183,-3.17380327289278,-9.27262900477269
-11.096977522120948,-9.597748830408351,-12.905844371105768,-21.363501023971523,-11.036928063816474,-3.825504929100208,-16.5133657537026,-8.733756563741638,-0.1533248984488899,-5.0199184462451285,-7.7945828495117055,-16.874248324703217,-7.160074112433801,-15.02465369217695
-10.31380233613564,-9.33976842234565,-14.616053406551394,-22.32959309255576,-11.845709650111171,-4.589327718566376,-19.674100959527443,-9.0573604439839,-0.7008022776198999,-5.692717798827196,-6.338090792291454,-19.236885096392637,-8.164587526785013,-17.789831829318327
-7.916304989255387,-7.692404337602497,-14.653814451259866,-15.480164204126728,-11.374843403177644,-1.7996444405538394,-14.855299617579336,-7.890972434085783,-0.8738327588459143,-8.841779981556636,-6.062869668594409,-16.675280842831057,-6.2220123138612,-17.901373008182606
-6.575942172216837,-4.797899257539991,-13.691489257688438,-10.2459444133418,-9.30549376774342,0.1802218626744583,-11.227959402362986,-7.383525282455064,-0.7698019361060133,-8.788768226087605,-8.481214853023408,-11.567636314978625,-3.428065718217205,-16.809200570149674
-6.345664165249729,-0.3437351392516727,-12.33104795406128,-4.612602776852763,-7.764829674309517,1.215512952493317,-6.222783479631012,-7.172323242217464,-0.7591992547577249,-5.892226756436592,-12.269206377681735,-7.36987699050632,-1.532834156174566,-15.241397554002024
-6.182823988127779,1.427307601743563,-10.508476667780783,-2.8483765102151324,-6.647694418124649,0.9963885393877092,-4.600679607094355,-6.678071856216628,-0.8694620568686489,-4.518621106897411,-14.97783449066229,-5.8058187262694005,-0.5230861828629543,-12.724692029359652
-6.733252578428358,0.232504345336989,-7.8967830741718785,-6.827994903541174,-5.207687797029285,-0.2890369911726352,-7.908672178862528,-6.221543236015654,-0.7046926236156139,-3.758656756557023,-14.946959273717107,-5.936156422779867,0.3586227630223817,-8.861020241518275
-6.170339312904974,-1.173473830248062,-4.774644619006423,-7.489196087674704,-4.553266168726742,0.9741402798667056,-8.205972720808528,-4.389941517508481,0.0070706096265737,-6.6937527268322485,-9.63352572394615,-5.700441423474018,0.7337037242225932,-4.64717645092837
-4.384134884917046,-3.845054682747112,-2.2347254156011047,-6.073993956821594,-3.903089171254328,3.911924552585559,-6.775910738468026,-1.0414799117493991,0.8965297746134695,-14.36479810248738,-2.5208864401851487,-4.174795307398966,-1.0279006903426977,-2.075976825911617
-4.210547846814867,-5.238844844428833,-1.3613017703485468,-5.770722416447836,-2.7048272966211697,5.46219649547326,-6.238435893319182,0.2336475248566554,1.1028274687969883,-15.854350462158392,0.2422920725326141,-2.3348748062141027,-5.730218384441137,-2.2814600476036877
-5.395688711248205,-4.934095537930802,-2.2252223367395345,-5.158062540186148,-3.882680306077409,4.384893162690331,-5.437051150917383,-0.4713712133267429,0.000350102463031,-11.45555049707614,-0.9102938421346228,-1.8330795374652595,-11.49123874904155,-4.246297793839851
-6.699013207061459,-6.025294456329812,-3.797303005343913,-6.684367979450042,-5.892848867703784,0.2365187013330658,-5.899841714283076,-1.3377405401309492,-2.1951894119916773,-5.302455910199217,-5.853819032968943,-3.2587377142156413,-14.566059429590196,-5.566135481795435
-8.639111081656399,-7.925478033864536,-4.874868020426561,-10.743237445098504,-7.41205353384139,-5.545920453664731,-7.919053273982056,-3.1264734430305805,-4.499817859559208,5.029252807837554,-10.958058717909283,-5.600853019017343,-12.406327489719564,-4.5766465793150175
-8.470396930870944,-8.52676169165313,-5.026602242694274,-10.907818628338925,-9.426440920050858,-8.267114447140132,-7.627143201952903,-3.1741850992300145,-5.814479957702247,8.244499547790499,-10.968535900985591,-7.204618606215931,-5.935528471381531,-1.7304389624055574
-5.846088719403825,-8.126790943400364,-4.617912112475551,-7.363027229417502,-8.574076974166385,-6.041673988733474,-5.168485640909586,-1.1258731157126072,-5.595225434790663,3.3892736910544063,-7.084700904547042,-7.085813173695385,1.261981717354132,1.0406739655634851
-3.611265330302276,-6.591649375823321,-4.056499511884496,-3.702990469346656,-6.274330355474276,-1.898379691723512,-3.437618095242564,-0.1602465816574023,-4.087130140468688,0.0883505331880603,-1.879999960020784,-5.418039227755585,5.932085385500699,2.1618761511904125
-1.11406577950423,-3.4585515372451185,-3.226181204366611,1.3830189135161406,-5.211200711294609,2.671458715496001,-1.742507990313882,0.3106746661939038,-2.086147766223718,-4.271090459221618,2.3585466897222367,-3.059601311721451,7.297456297493255,1.5859130835507642
0.7177743732005522,-1.6580068483169166,-1.754550627874366,3.5920336842827814,-2.8945200840771386,4.7969678539392335,-0.5719151523714165,0.9226699259615526,-0.4628778470386692,-5.3853108498838544,3.6141040880483946,-0.8387891346844043,6.539090572681502,0.3778871625587499
1.3777772754950797,-1.2038118332204952,0.2676833158918441,2.211188981214909,-0.9879878393630512,2.806873904331164,-0.4006998461923794,1.200479228325736,0.3000487598329613,-1.6433672012968747,2.2488939084635424,0.7835810592412713,4.773134653208459,-0.5072429317126677
2.558123007485231,-1.169750963632684,2.033396780847397,1.2828848679806302,-0.0965969717497517,0.2410628102836569,0.7496002395380702,2.013731533828972,0.3552005813134258,-0.1369703527330446,0.0686554229931545,1.6806247960026894,2.0547610244055363,-0.8805097948683738
3.913666575341669,-2.2697657906396,2.6179884480865923,-0.3310605717333084,3.007436840199471,-1.1663557520950871,2.7064240624358797,3.3864155370758144,0.3449150095300126,0.4107154366657842,-1.4356419667032665,1.9701231185543548,-1.6502927203915192,-0.9670210763660236
4.922395109024171,-3.093759389490512,1.8479483825159375,-1.1545792799976835,4.249063545508706,-1.3791987424443708,3.75159246056542,4.237057650055457,0.8503647305980309,1.2124775069915,-1.2658979279946858,1.96204425600898,-5.086649687939115,-0.7929924945145927
5.785486367397705,-3.644385914720138,0.5239684193710872,-0.582826946204266,2.6584958748558747,-0.062253813196187,4.1434143182432965,4.690295398077248,1.7774054567705804,1.2045803736110623,0.8945001227917939,1.985518270474799,-5.969334576410034,-0.1594043093032269
6.327854934831494,-3.6849356187786095,-0.2580352999731303,-0.904676344985683,2.122104170396597,1.414669847709568,4.969442674017903,5.404203482490461,2.2501185807402067,0.6673585265904192,4.901600710157048,2.0856146026006286,-2.937028880708823,0.8684273259994342
6.483793102744779,-2.829534566117637,-0.0045802817909503,-1.6487337576631034,-0.8520351370752054,1.1820281359531526,5.998651443296327,6.215098918419146,1.2876946170839147,-0.5778092562664456,8.698422494780896,1.9125712491633493,2.8533483523603564,1.739221797302065
6.284759996834508,-1.5650023545643086,0.9624537388449284,-1.6411239194163705,-2.104095263919035,0.1003884923751431,6.885280546060392,5.918692357772439,-1.1858191306180856,-0.7706278755782572,9.510740694832396,1.0940347433086115,8.344273252803916,1.899662841894468
5.656619993739115,0.3449593053864122,2.127465166543047,-1.1069115334169453,1.8136446916887872,-0.7946531379862003,7.779175504847798,4.488148934472312,-3.926181479761027,0.1979867766043846,7.466620937278114,-0.1420141017101173,10.981371690595203,1.4753458579408658
5.584565009478641,2.414704252192611,3.452182172309435,1.638500838175459,4.328011635425501,-1.583437194249398,7.41674450807624,3.2179269523691807,-5.103213916143844,4.509602275416656,4.055400583428719,-0.7861770983911924,10.60646569112724,1.2733535084272205
6.133529451646512,4.610095635555304,5.2303123857232166,6.991382037722789,8.69228085845762,-1.0957078037739818,5.645691685029566,1.8803459845316624,-3.718171589655384,12.936945504225475,1.6928334896704358,0.2490932683400828,9.077190130463308,1.9304722082624224
5.687923557439197,5.469686355264112,7.218600047869998,9.183139913056264,11.862728863664715,0.261332751262522,4.822664887655007,1.702628985304719,-0.5035487247077981,16.29654632681947,2.1932101949555727,2.9964267171345758,8.167638697449327,3.0494944542773794
4.391654547174329,4.698109773330236,8.143432080586948,8.308583097437994,8.100319283861609,1.1579562237359626,4.7555359278361,3.0434080977256284,2.5556167490918256,14.7013093549431,3.5137788063408806,5.981286999326429,7.939119934125287,3.3348386359344677
0.6609569271467617,2.487289879555272,6.510942487675472,3.7434825009474992,5.226783299043275,1.6816246023528612,4.396976325090274,2.416363006813191,3.74685876503802,10.094333152948357,2.18872426981591,7.143008921801439,7.095829439213908,1.7830255076188806
-6.03567992040548,-1.7233259329318382,2.251104249330197,-6.123562070889398,1.2451749199918212,1.8082133201822383,4.184194910680126,0.0012329754806903,2.915157102987465,0.1974369392327606,-3.120730404288809,5.53092588695668,4.701711171522625,-1.158127422421586
-8.495815719524282,-4.281142569327451,-2.491428831544713,-10.08477160643845,-3.109470792372929,1.1492069038130743,3.5847672081624635,-0.915977337230348,1.4185415698663064,-4.3902415393825045,-8.771359085996092,2.2560032090941995,1.3294010453948957,-3.675864175455551
-6.719229981668841,-5.089601653995488,-4.630869096082535,-8.076429450185694,-0.72330071382334,0.4112133681422689,2.4903844507847133,-0.856759918372366,0.8533222569285996,-3.3263486556731987,-10.114994310707042,-0.3073953580932951,-1.4983192686306062,-4.031566797605908
-3.056319611971084,-4.532965002893725,-2.6926138678046705,-3.857513214421987,1.36819222291006,-0.0931488959364638,2.152944057769134,1.0445921461770675,1.7204412991244349,-2.969955225559084,-6.613547768425706,-0.4628198967536363,-2.834572163604207,-2.142653777315058
4.2486420030255685,-1.5960874094704638,1.6971506827528575,5.293695878107046,2.570703432240551,-1.1380948145836634,2.51017485780067,5.510529269153014,3.171180589548607,-0.909597220891385,0.7032962051424214,1.4749831831810916,-3.128728863056104,0.1623325285053276
7.174377126556791,1.5352667487049083,5.024197620110325,9.000652827717557,5.705731053877043,-1.6276711004582551,2.3668521351517016,6.269897742547576,3.9247406114070382,0.6819740034220425,6.770052698650089,3.665621504273073,-3.5394438646000967,0.5851211324795331
5.236762938209425,5.111650067612041,4.913700469363908,6.695223144496853,4.718416499304814,-1.3483851715537836,1.9109040917912707,3.30828162154144,3.4134082674217474,1.1869831279124403,6.393580946807104,4.520155042573441,-4.528214813942117,-1.6310408642260723
3.885069439033304,8.359694732498399,2.214392523322518,5.6193284949148135,2.879770495504153,-1.642706021278939,1.3405080468469797,1.0429645099505795,2.136870826250924,5.08470502518422,1.7624117984585554,4.049989608829179,-5.154253053675172,-4.813103402718506
1.2329935296915706,10.775770504383082,0.1572337413823277,3.406500193199492,3.763619586904664,-1.511012012933575,0.4448379193193212,-1.806900229080908,1.0620342717957951,11.984819746466457,-2.9207614325182654,3.603155101947003,-3.7123673871980856,-5.925798069927367
0.1814612064918685,10.901171067003704,1.3590729161797697,3.31302701246875,2.663046911446867,-0.9807817055012058,-0.010635445015138,-2.2130565773017774,0.7750460398773669,14.786381962115652,-4.924973133488293,4.423073359669772,0.8450177961803718,-2.866836120077565
1.4607817524460358,8.092926368017727,5.444995864530227,6.331338297405758,2.351729604263276,-0.7218202246102161,-0.003081948213978,0.6451142082830931,1.164361273632032,13.76494196271709,-1.742177413841752,6.481830745379689,7.770478680992845,3.727924562374433
1.9001430454921548,5.243214308122962,9.37741965175909,7.053090886401363,4.02509651568662,0.5711303526185432,-0.2152958199777619,1.1519624208863508,1.748749147172575,9.504669486144602,6.090431592962865,8.546423266195703,14.425684252006356,10.56326525777922
2.317310762623697,1.8503464315466065,10.0067860297304,6.292909039072538,2.9913830473083336,2.1981103256894805,-0.4993405519011625,-0.0112934586937161,2.1463391313995075,0.2114076343953224,12.554415266829412,9.172871424022516,17.41018951172608,13.691826820275566
1.610989700444614,-0.2181749111539137,6.476810133596956,4.573969887074072,1.973848836620862,2.4439908385931304,-1.0276540061568618,-0.6111610920123557,2.208351237731094,-5.049092697571139,13.899782321170084,7.654703613161004,14.537983218139964,11.125744172442324
-0.7223444019733707,-0.2738942446326478,0.5715668733845547,0.9420701517870544,1.0050567097265477,1.6448294395360452,-1.9242467514927144,-1.5679857858197035,1.853650498883084,-6.190274653946621,10.858515148364743,4.33176717851785,6.644263445134072,4.271061132970843
-3.4040480110317617,-0.0441497924933625,-4.892151334409363,-1.6219607191700107,-2.396873283541227,0.5071499098155294,-3.1735087088257745,-1.4297328186940268,0.967135079270406,-4.749924783123205,3.619066251707424,0.3511001405402965,-2.228765093310699,-2.847876571393968
-6.861240232276154,1.1871061938105354,-8.006302407734708,-3.1711679595343547,-5.029971722186592,-0.6673520774733057,-4.886164751788586,0.0865111958807113,-0.4661327738722036,1.6255826739432615,-2.4984399159868937,-2.824350466227102,-7.090532796659318,-6.13881897363072
-7.152277635894149,3.0579565711388983,-8.581829184142336,-2.4375010806352284,-5.615301876592204,-0.6879222862126151,-4.758495511705804,0.8402164756358546,-2.20074302271496,4.778170389918155,-2.514226196775782,-4.058804706570967,-5.618413005064497,-4.091288332213793
-3.7792427262073023,5.486278274326619,-7.618866294782563,1.472239818533093,-4.551649484322446,0.2879386480918744,-2.6178479734925757,1.137711577724576,-3.8031164819793446,4.7827361664992285,1.0663764715871435,-3.2169066572818394,-0.2791615820681272,1.308236019308907
-0.7589335907306259,5.676241986492539,-6.233951449310439,4.04629385086786,-1.7680137485579588,0.1930432551603351,0.2582815180999204,2.4286078608486874,-4.885775725188779,0.4847223548468707,5.814070306781936,-1.4123865620705942,3.3726908916932388,6.093477368955547
2.8660850285397546,3.2245666469424523,-4.92522053771404,5.68322674955587,2.160289496852735,-0.993913663325561,4.478510392104694,4.448916724477773,-5.211742258409799,-10.373989116105992,7.96963326746938,-0.3562173912887658,1.4115791949114964,7.228594805850662
3.934533760330964,1.5052474972447405,-3.523038794006567,5.841488987791075,4.2436671443324405,-2.084832606005163,5.856327446964475,4.414127136493865,-4.591169354977183,-14.26522943001572,4.826066900103651,-1.0264872814933028,-4.674352202156513,4.773478318805132
1.5623209924267507,-0.1530956520068806,-1.6537750769621198,3.467129348619662,4.121263536631308,-2.2363825005982805,3.9572270095280464,2.3081122623524566,-2.865631637966061,-11.405083214335352,0.1567921233637037,-2.7343230575237385,-8.859754312856694,1.640639651181516
1.7505684512573385,2.0022988404951443,0.6906441818118765,3.92933956174548,4.283482460153099,-0.514250504669079,3.355656031797543,-0.2184151299559482,-0.2284820946517811,-2.1860060902321314,-2.57408880807744,-3.60456984283644,-5.838554404102723,1.098807642772158
3.769312868840011,8.903447119195052,2.880851128749981,7.045977292647224,3.502249703264209,2.5657916764123323,3.1273506140320477,-3.798596821990004,2.3958395457770507,16.922328501814835,-1.7545801824663614,-2.2931399303671185,3.885948981239949,3.9860782550355225
4.049070341593839,10.64322930001909,3.8995751410894286,7.3619451183184195,3.0454565848311206,4.181557308408576,2.7000217541278864,-5.157024706907721,3.550548841026256,23.42743006896368,2.00870217168606,0.5288053969269129,13.859525859806157,7.893005553595117
3.450165719161635,7.756099994896768,3.0068796912449898,5.670700525814914,3.552908061134156,2.771657038719591,2.751846793561961,-3.854986057120383,2.2376475388874724,16.90745868206785,3.597762817850056,2.400358268691264,16.882085528673286,9.031849197868894
0.3176509462961648,2.5442537240311176,0.3785040014184346,1.5933021065988795,2.676684805453496,0.0386454101396905,-0.2072601103688307,-4.5043252110900935,-1.026519596405933,5.9035117247268944,1.1204715075662777,1.0163793694767946,10.986813862629504,5.317064759862433
-6.063807626579724,-7.188930957374815,-2.798707926423816,-5.996537917577183,1.8384203948379465,-2.862977799118419,-6.352929812236646,-6.439135267466505,-4.222057322068338,-15.097896054662412,-3.839647466982793,-3.72508117293188,0.8644886683643449,-1.8306677109481768
-7.98109882493114,-10.205015127723724,-4.953985797971029,-8.084708322262015,0.9101488787991442,-3.761802178261229,-8.215505551155102,-6.775218672534568,-5.230275159521881,-22.90707290129746,-7.8637606673921985,-9.402568056205835,-6.374503840676994,-8.416819311320495
-5.47330656993924,-5.929122658211693,-5.115130277197295,-4.455615468104994,-1.2883701067794266,-1.5639296507237512,-6.074887090759067,-6.110439348088398,-3.5670623172708247,-15.903207775616307,-5.53305138436236,-12.826154100656195,-7.065171609134893,-10.778136173408312
-2.878105990119032,-3.60932909429496,-3.55039825969601,-1.592814196351271,-3.0758160908930128,0.6201325678433318,-2.548368878768252,-3.8157574676360944,-0.8306929107829433,-9.404341702175204,0.8315674871231715,-12.383428761703216,-3.250610370567216,-8.135966343291955
1.4681669693435273,-0.8156984722237446,-1.5613642331549045,2.4380648645558023,-5.318055414703424,1.612383794475813,4.023929361995132,0.6729217174142461,0.6995040386865128,2.1937660651862467,7.317894183425265,-9.000041859657102,0.2085933273520765,-2.862598616930029
2.9276736176372955,-1.152167615908848,-0.5313055282383345,2.7442599909396157,-7.001275433801296,1.173396005942938,6.1131913330310965,2.2908141134529227,0.1125530059044876,6.61406415500732,10.309719755395133,-5.031669296114416,0.4303548415546743,1.546726229255711
0.7523397943651046,-6.173640696859431,-0.9188440911424892,-1.884859710244416,-5.51072984448466,-0.2835154775089765,3.143506517138814,0.9874077796919736,-1.3645864250443085,1.5633811936743447,6.223357283258903,-2.244798783332925,-1.386657096462784,3.0072976143378867
-0.1533217518633628,-6.34914624162789,-1.967721209996995,-3.414437257524866,-3.699880213028999,-0.6020755715565389,1.4931344945091976,1.271232080440483,-1.6497151941984498,0.736026874829629,0.5138446084249673,-0.7259816385690101,-2.0847182007250358,1.9089110285151487
-0.9366105809400922,-2.484435822003522,-2.367184665845372,-2.992486044857942,-1.2821978103222489,0.5495260631053538,-0.5471126684814172,2.1816320335527557,0.0763241899497586,1.0448977758979812,-2.826753273073976,0.4926953953002737,-0.2503654535524049,0.1614738425998894
-1.34947940354759,-0.9581754069748616,-1.3431197018823866,-2.6708759007721152,1.2748954857841914,1.8446994280204,-0.5654638218519472,2.712504007512769,2.48937233501411,1.7736474707369618,-3.2568489360338564,1.982482911319579,2.331880154865587,-0.6487295290034751
-0.6782800505535916,-0.2823215171025028,0.6923147126966569,-1.1155787513117164,0.2759012376121861,1.800861659254113,2.475633558080525,3.4757754710155995,3.37121959541534,4.8268564405472,-0.7822006886606524,3.192254810682442,2.66497137735928,-0.3678536771834046
-0.7174062026998924,-3.679696715320443,2.4429539224168337,-2.62010212325639,-0.8387017848271687,-0.0888033574474616,3.652533321276748,1.817591558635841,1.7841971249610964,3.755557758507229,1.829179338053902,3.087627772143364,-0.3643895268046719,0.0522178253955303
-1.22768060958251,-12.46113290502914,2.723594650280333,-7.494384233087613,-1.1739665760081006,-3.0974586522862886,3.648634498942436,-2.512849708952026,-0.9617698795865124,-1.360916156411368,1.802798029333974,1.3503403024677283,-4.966170798371792,-0.3085493700272366
-1.149884612761532,-14.868887973460795,1.3656415553091392,-8.863808689965207,-2.428352843217726,-4.687095891524372,3.773129219772931,-3.639109749948813,-2.5081062336693947,-4.391980919544615,-0.0061149237765637,-1.138185145979719,-8.302590599884468,-1.5296725475322577
-0.7095026051370306,-11.276641084471606,-0.6156134454513875,-7.341503307785918,-1.3155173727273295,-3.3694962892398936,3.2160251215533355,-1.8162410420820536,-1.653849510676494,-6.384203163836285,-0.3803551560713735,-2.935729010916461,-9.0869264484177,-2.9356566803911197
0.1428649461877668,-6.585612668652027,-1.6550727709665622,-3.7659304548194177,0.6385284099075728,-0.0246213806828936,3.6470899856197967,0.2975462188580504,0.5524627095430006,-5.710096848132643,-2.1685888901409487,-3.0575597879932275,-8.310839810083671,-3.739311622080386
1.5920640176495344,1.7271023457456842,-0.6153814712742687,3.3426099570856613,0.9872899495697852,4.221023290071686,5.175203187635287,3.921361330627333,1.8470113361814957,-1.0743122684706554,-3.753435555884132,-1.4278888217549195,-7.684408089250351,-3.5612815349320077
2.833169170128286,4.986335822453652,2.472871737725248,5.572887770371231,1.352770116979142,5.95443342552764,4.396362289860972,4.885181547298431,0.874273113197436,0.2222670901605657,-2.9945967286679283,1.3830170570336635,-7.726672142869289,-2.5091667605018646
3.892247883724137,2.3449002162076185,6.302225197149023,2.639454280441609,-0.0229033241379003,3.7707838253795303,1.4537890291430398,2.69709221517844,-1.6118344218939704,-1.4243180607865076,-4.086075686713441,4.559855537515799,-7.52243239044573,-0.9936029968335562
4.19444121653905,2.1193908132150487,8.90803273951854,-0.3564434222751074,-3.290697216993912,0.3093296355807673,-1.939925453602502,1.706945637486942,-3.509320302631341,-6.032670120282414,-2.3326443915283304,7.164445548650964,-6.136225945789853,0.4512529926702271
3.477977061765723,2.363294854980844,8.788078930147982,-5.345791264476034,-6.009776559229821,-3.5061309518748045,-6.477433191974956,0.967329397962701,-3.267213296646481,-15.368859316167908,1.0589080746042914,8.22791117313973,-3.909094246069067,1.316845803429942
2.529653849137672,2.8769537182090867,5.943089644879152,-6.658033582097379,-7.222689882511236,-4.809372974323211,-8.444955563773547,0.2756282004223367,-1.153341206187804,-17.77673454839041,0.8607315619895787,7.225549561674853,-2.1938814081241134,1.3326053429266125
1.1209764733936491,4.825448165874406,2.1053834717158253,-3.391826421810446,-6.596121099260822,-1.8825416555843364,-7.367896869997867,0.2691755913894577,1.1318116327049523,-13.050763395570614,0.419708767547124,4.713616464294276,-1.9333913720171267,0.6621544555692793
1.4023204916956926,4.499332867948476,-0.2219631963560857,-1.7482536243521167,-4.817145787644233,0.6702340105644453,-7.050448161789337,-0.5980327772714786,1.9637200454162096,-5.69166063199744,-1.914212477860032,2.323970140026347,-2.7088554382486336,-0.1559877887065397
3.6735496236797234,2.035682056276745,0.5460754420536489,-0.3484353788149034,-2.1723467517501334,2.28846068049995,-6.602775680434638,-2.22209944958996,1.0301843394877324,7.145585718628102,-5.014573275024989,1.698813809414787,-3.233277487991898,-0.5897028844590295
4.059927260668928,0.5533734881651156,3.8366417246554647,0.0900149039310274,-0.2503568039062623,2.46597722951501,-5.770028713915256,-2.4590895166341604,-0.6395984210528809,12.2118097923602,-4.760433374488055,3.078708859908744,-2.6377494059934747,-0.5158345414731116
2.9268190073354856,-0.5361631025670174,7.166517664402022,-1.4197492620940175,1.118046139483011,-0.1633749439219086,-5.064613368249279,-1.4337692349081463,-1.6524137875509268,8.511803772338205,-3.283034196795589,4.880610756766885,-1.151006287019527,-0.2571579184943289
-1.0180935275872522,-2.136478449354247,7.842201670808208,-1.4581630263939191,3.6821507327079672,-1.5728788507975875,-3.171139209848124,-1.0273470393347606,-1.3059538823660546,5.377288364907811,-2.2534042489522013,4.870734869553928,0.4034253466285236,-0.2246943794696108
-8.773432674102827,-3.794372452541989,4.893341970336053,-0.3741075034239862,6.087361055505925,-1.594815643617208,-0.1339751799657589,-0.8979590144005898,0.0556401084875801,-0.3874479830847512,-2.269228696236892,2.050512910022178,1.5514607070522288,-0.5535997574557996
-11.718124347917266,-4.330498066560081,-0.2317575935768445,-0.050315360443657,7.313650643738625,-1.0503317292665135,0.6516908537284924,-1.0847988645683104,1.479658905063559,-1.9881983643069607,-3.671311562037805,-2.3938430919755547,2.4855812351023587,-1.0972725332235882
-9.880328549703274,-3.645721389169313,-4.729787273551949,0.0350405396299154,7.685597976618615,-0.0317298297099322,-0.8432119281087299,-1.93078573129913,2.170951524242525,2.025720424423325,-5.059104105250184,-5.957703441833928,3.553554468081643,-1.7043782490726471
-6.593050429185662,-1.7218150305691349,-6.421406000195361,0.5380371410146185,6.6830279491691496,0.3569080829234085,-1.8936949311775264,-1.431736803636647,2.0057394913173425,4.8414421961501,-4.838383389675226,-6.778981345221723,4.6600135141393935,-2.3830833304454018
0.1588825753255651,1.851568276602916,-5.154449064131654,1.279222291637966,4.5547606954265785,0.6364401316405051,-3.1910416165135564,0.4277860499451156,1.4835278360014854,8.345452610798406,-3.109805668237124,-5.033271414432875,5.292158023855222,-3.1459107507206454
2.879518703921657,3.8270299027331176,-2.684018896866405,2.512243396847661,3.910565832125437,0.4867771036046949,-3.105626870198915,1.5488571968022646,1.216531530264433,8.384287844474617,-1.4072155760976093,-2.64004683375731,5.053379544996119,-3.7738959688651903
1.0096198351446464,4.114022103436851,-1.2674593170556818,4.3690494302718665,3.4341252438653127,0.5817863859848101,-1.1003090972225318,2.27110680993999,1.375405365795018,3.760469249679046,-1.0385671697898473,-1.614899691529445,4.017892205930707,-3.8721035419282543
-0.1393602960713396,3.2890177709720336,-2.066902158440598,4.181429606167561,2.0187312651835274,1.531730264085969,-0.6096189025586576,2.197643536310603,1.5549092574945007,-3.124479777681285,-1.8537381403937647,-2.4685296033268287,2.52878094552068,-3.2292307479132205
-2.351338996686267,0.4669278798262826,-4.42830110326463,1.8129488744460456,1.753892487825896,1.7306303119565916,-1.255033641351896,0.892784388937423,1.205034652761242,-13.785574401798884,-3.199072856688909,-3.903954571565123,0.7815926889412594,-2.088870487555255
-3.0348328636946005,-0.7507847150722997,-6.410807286697263,0.4991322354188379,0.0974399181520923,1.2480824120242415,-1.803181423294525,-0.1737253422936615,0.2742184677027808,-17.04991636253099,-4.137296118853696,-3.955413421041044,-1.235723760354972,-0.99923521785513
-1.4751352277143486,-0.3405403822613226,-6.150734701002307,-0.2477879894299943,-1.7478916761873884,0.954640579343316,-2.850711399174649,-1.1948854135667808,-0.5616618315680171,-12.012417152643192,-3.2337864083624948,-1.6145001442572493,-3.380243729974381,-0.3712874061494631
-0.2868435226435938,2.085706693278625,-3.19985310885852,1.17249090392319,-1.7667341946125306,-0.6390428075180015,-1.9957414631543249,-1.5265058901708044,-0.4170714076763033,-3.509749059692349,-1.2408514108039828,2.285515144124247,-5.08449800258677,-0.1982468151604735
1.3139995012283756,7.551690967035773,1.0002220195823384,5.5485509712454,-3.59457607662492,-1.8769746253166504,1.032332272894349,-0.8197853378447202,0.9051985230526044,11.543381549118042,0.5634669971829782,5.529901510941727,-5.635837708261079,-0.1997803147214654
1.6151940842897936,9.65114757997226,3.896800986875178,7.306961482968062,-3.773017151234876,-1.4337588813291724,2.166400246962047,-0.6688531014635437,2.4843612685194785,17.583258357733513,1.4585760798064875,5.969101477587174,-4.814719729715989,-0.1887916365067212
0.1864840450386733,8.418562568542022,3.491822293233781,6.750619608442892,-0.9520925620221444,-1.4566396838204945,1.7890106630354157,-0.8668933851568972,2.878153577535386,13.4513384516963,0.4118327461700823,2.973844031674389,-3.2229610759450225,-0.2445324659013295
-1.5655168479413988,5.522431787439772,-0.166356405634815,5.046210978272067,0.5233965406254063,-1.573292519131138,-0.3286773471028211,-2.213335356292856,1.3768244618281642,8.670863068236134,-1.6561112911011673,-2.028699383575713,-1.890045190621322,-0.5251589693505139
-4.186026082932674,-0.5972091882729316,-4.805783339806624,0.9581918391864744,4.402456834842901,-1.8087885613491888,-5.121372849845002,-5.103995283374187,-1.1840234976485815,-0.6660446077106492,-3.088615396236078,-6.282549852530849,-1.4819591469974966,-0.9557898089201444
-4.187279566062018,-2.4649708688372844,-7.377170112092415,-0.4766476182459176,7.412226962534373,-1.871734380421049,-4.6413393151706135,-5.079643538073172,-2.909486421794213,-4.009015403470788,-2.787586690685968,-7.296612970330671,-1.8484887018092309,-1.1505781723954556
-1.146137559051497,0.2688928207588013,-6.16301738303514,0.8969288625422347,4.8143479064767964,-0.7579286427577346,1.3497536958566432,-2.1219466126394555,-2.362841255160447,0.1193430842315546,-0.8543688175200409,-4.3773490268679325,-2.2976893596348877,-0.6823700910683783
2.036070850472373,2.551456399198805,-1.9519982838671692,2.2731812989920046,3.177874050394956,0.8998433791312833,7.593453215653898,1.3440097154151904,0.1601538674938183,2.579702184497381,1.3149461437218035,0.8704622881077739,-2.252787291766026,0.5276937391379306
6.256097028527867,6.088934708931289,2.644392908389136,4.8090174449112,0.5974908613696799,2.3662794327786063,15.872641187709744,6.312720177340384,2.7691847998374897,6.056042653547981,2.498136022730934,5.495064874965237,-1.617655467898203,2.0422650751918354
7.459963345173813,5.371168940374815,5.143208707722806,4.562392373628885,-2.987169055579263,1.8229052677856383,17.98491767779959,7.451263502076628,3.4860992228602754,6.083662889933563,2.424611232640012,7.079513527535369,-0.580942535118993,3.1174464478795016
4.946793302851111,-0.5983460611212847,4.8105817183557065,1.006838417320229,-1.969729427559972,0.2103359423511752,12.637562948419806,4.0979431369554,1.8468539167920424,1.2359939852390034,2.373934843536479,5.28700034547694,0.7470121791992597,3.1440418594676203
2.662269800711331,-5.324567907673279,2.7640584583648438,-2.829679230164194,-1.3092148489971906,0.7369899680524412,10.234208703642022,2.2102133792665173,-0.7708934883658003,-2.7643355701611925,3.814578342220344,1.922112075130144,2.3137793177993444,2.004937787401332
-0.4840496844332725,-10.17570280133212,0.7641605755038654,-7.989203336162485,-2.03829293422182,2.372815554994601,8.88774389726509,0.5725033367085861,-2.332435210160384,-7.27184301164356,6.893299286418631,-0.5465729664006176,3.7288683498635455,0.1270175510287572
-0.0506668153284559,-9.662833890067342,-0.0635212819228172,-7.574514682204839,-0.2590158712083769,3.832750413598592,8.046711691913217,0.748649125553545,-1.772610857089262,-6.957119092901461,9.94779683907132,-0.7881922956788685,4.139119019321015,-1.7265197839436723
4.873125743647323,-2.223762666374532,0.4402320942560891,-0.6441440184194613,0.8529298811541182,3.7252351771421863,9.439271058125192,3.848369010128768,0.305008458722682,-0.5032033227975568,11.650947127333488,0.7628666057648843,2.9043294574188394,-2.698005714671581
9.399636042329682,3.9860555626983447,2.011403227160031,6.502370760128801,1.560740071409512,-0.3664431945931548,6.5588389288747,4.841652533352784,2.3228080317195463,6.951362552521098,10.08416582861172,2.86028735590628,0.6703484787686875,-1.981825401965807
14.741898643589538,10.496136863755916,4.519482114451535,15.64191962763788,5.095427422767058,-5.36736816075995,-0.5203116797249194,4.2267700080845465,3.0811078091695663,17.062612923150635,6.625455150548988,4.8866400449583125,-0.3532943779844117,0.9936688843847604
16.390752113131832,12.915125709458266,7.889617038202232,18.11369061739598,6.145899437054912,-6.6667371922245975,-3.118519327174248,3.6497231245307034,2.5931779072903964,20.36683439337572,4.840672832125168,7.2629347188042175,2.291264727479529,6.166777080740985
13.243639647591603,9.445682741374508,11.581904973279164,12.314436559919606,4.670386474414999,-3.972138171490661,-2.047146201007067,2.20306221663235,1.8179473639921184,15.452413431160329,4.486622667426884,10.449724789147751,9.103727135372765,12.377455379966932
11.300809417438424,8.34866513995728,14.360455351126916,8.562137818241272,4.631216726080575,0.5913018766756237,-0.7834207776657662,1.6434730386762717,1.6753492087843256,9.788246345970236,8.500070050572047,13.720347789882908,17.43807781909709,17.396136648573588
9.340969663081282,8.286842060721892,14.820466192502124,4.654794956661971,1.9004372747707168,4.022427718675525,2.292099186561575,2.1192368900599603,2.2348333120724533,0.7574059745921164,13.581445396446604,15.203946296275376,22.765512847133664,18.889280405103364
7.517606689553713,7.092324702378663,12.378179584342604,1.8651272442726936,-0.0125650251444221,3.439491865687777,2.1620251149119527,1.989622061397885,2.702380497226045,-3.619883500601461,13.903603397650771,13.3774542732246,21.77585576099233,15.967961538588838
6.783740702819778,6.015739801103842,7.901453979925009,1.8911379173390297,0.9486681573575966,0.1687083328994875,-1.7799729487521507,1.6217364919797228,2.1398547371970835,-1.978758805011596,11.643062420304606,8.595601359301156,14.904672415598554,10.144738665201883
4.73749072896841,3.40042954838752,3.343765910969495,-0.4108218926518771,-0.4927260729988588,-1.5423952346909455,-2.862360070703624,1.317330233366642,0.3064252391795889,-0.9185944912116611,6.580176458539279,3.074154162381319,6.119155150741506,4.634632974529495
