AF3,F7,F3,FC5,T7,P7,O1,O2,P8,T8,FC6,F4,F8,AF4
2.223957828876914,-0.5462186570465866,2.2732825512516173,-0.0017579461406422,7.117924533065343,1.9391544981991704,-0.3126212124786154,3.245261717082952,7.117051227176864,6.569947290000956,2.86861487056336,3.891871862802933,5.411790560479614,4.621379718600755
4.215645787433696,-0.6710020750124421,1.104871840040979,0.8701623508035676,5.656790897355418,2.5129296455311594,1.635028088838378,4.071048699540123,8.516461227093801,9.392799072019605,4.551275592373213,4.114814073479066,3.722430445894274,7.168203681546564
5.285024453477172,-0.6819811969014475,-1.953990715774969,0.9111700399287436,1.0917256516746807,1.773124699275568,2.164700519520124,3.803228273422829,9.447336190887672,11.211209551285318,5.58900197452045,3.726742559979024,0.9413177095074298,7.987190981644876
3.830664138030277,-0.5250451726296972,-4.228522298314608,-0.8387885064240157,-3.8351563325646936,-0.4149112329304241,1.295328147379983,2.6891832346139397,8.72361797141895,11.393587408819233,3.288915123449218,3.1803276980013653,-1.7993954816028914,5.733454943779091
1.5286377602824577,-0.3927263156829004,-6.235332591867654,-3.756516108844372,-4.3092483318649695,-1.8599246876962163,-0.4460172514321541,-0.1653468870510415,6.03657127704384,10.496853930937746,-0.5283146973388808,3.127505318234358,-1.6129322527443937,1.539066341695972
-2.3476263398695294,-0.993034827215808,-6.276700165963647,-6.2406052511399785,-3.064075327436524,-2.161015578580302,-1.3717744640425713,-1.421042997918483,3.500594764754785,9.490547986959832,-2.924866606284656,3.6535990987053615,-2.3547162223180798,-3.4706122044797283
-6.31782013183187,-3.186282625345836,-3.712771542062591,-7.148283163388166,-0.9125699957621916,-1.138919654391517,-1.23569132862901,-1.135067207330453,0.8195987222869587,8.537014871891444,-3.7830342650423177,3.830467215148225,-2.4753772643795053,-8.797533871194357
-6.455801884001209,-7.058504604773429,-1.7655659401425894,-6.673713705981595,1.4742451286932925,0.7763649753847297,0.0389778108676885,-1.2624657356477476,-0.870708463938055,6.673595715042458,-2.272849873234689,2.200283402472099,-1.1692087152478985,-9.657217011867612
-3.946759571632376,-11.261314566578694,0.0510454316250902,-5.89922877108147,1.0420184918598996,1.5475587061947342,1.1530336804877528,-1.140746681122307,-1.042911582924029,2.8712402271312087,-0.3601154045022143,-1.945872613839788,-0.8979534516169083,-5.4134518689851925
-2.261334581073508,-13.463331694685142,0.416685136257087,-5.557956456215961,-1.92513398698102,-0.2276728499352579,0.3596727334261448,-1.2834311807700869,-2.399047953552925,-2.506943114091327,-3.4649670143290967,-7.467435306288323,-1.5114326475106958,-3.0288671607874558
-0.5271905357756578,-11.84042017802283,-1.402401621681448,-5.273530627544342,-3.997810359945788,-2.6813396924117345,-0.920365538477226,-1.9170159757923355,-4.611226565714352,-7.396343785906681,-7.888834443424061,-11.556635793408024,-2.889425001951905,-0.2979280173255644
-0.0478451826488945,-6.497152937439177,-1.5643076605562232,-4.024786041557357,-4.198713515824561,-4.020762976587143,-2.021297986505519,-1.9136596168505573,-5.0740335750009065,-9.4321349674171,-8.616365319107697,-11.434700660435478,-3.8373449982140393,1.2306582296399384
-1.2321890120739778,0.3989819992849359,-0.4403790923549081,-1.360307951804144,-2.3860637049380515,-3.2295453323510097,-2.326240671703792,-1.400139159312804,-4.06657929505786,-7.931724353486744,-4.377760132464454,-6.486824405014185,-2.198127424444863,-0.3506084702871685
0.2943129773372961,5.975061884589402,2.1665509926858912,1.8587472608321347,1.713073008417107,0.1558612659299595,-0.0832757970849239,-1.7520111092578872,-2.733621493261313,-4.598059111597657,3.2252635701771823,0.862126439032532,0.8324810713470141,1.7837105654711911
2.467245343108184,8.464592176968655,7.109793059530904,3.97061634819225,4.82373692833017,3.3824436747556046,2.3335704042904344,-2.876962482383038,-0.6056625803695888,-2.1492033438951927,10.18989767146076,6.46788096589361,4.362879308177135,4.58834650955752
3.289293470776585,8.104050233581145,8.315036750635093,3.876237043139419,5.059859572699172,4.457329447315534,3.265280042377407,-2.9301505687108103,0.9837668138571192,-2.020645501616934,11.315158258320633,7.220833605091963,6.050813023655359,5.009402561494462
4.369217323935512,6.572900806519536,5.681985154615895,2.037028340918064,3.351549997076198,3.477198986982496,2.94253179529006,-2.0610330471666947,1.830961179381504,-3.227651074832945,6.043298167663542,3.2101194520767757,4.011432919339059,4.53845187204676
4.515373388080107,5.6219731538701385,2.773720338329702,0.2013630661464378,0.575067278194273,1.2038285539118867,0.5366153293826164,0.4018468570410285,4.55681137230415,-3.4354225491435493,1.737304995935924,-2.391768987930279,1.8837054155296504,1.5608589975220586
5.197499521051085,6.016914743561774,-1.7662288358051634,0.0781498701899989,-1.5804973778910203,0.2092047250674198,-1.4632968859565665,4.964521682654174,8.962137238100684,-1.2284638761327222,-0.4827467670915588,-5.656906740426669,0.3099188313795443,-1.5162493263994643
5.42581072727886,7.410382868293508,-3.449114714157302,2.06114734217846,-2.0728412446395423,0.3913930636549957,-1.7762831346348202,6.501535876731351,10.003323768716038,2.517357451724453,-0.8623586887136491,-4.646318363782349,-0.4097814680872258,-1.9387059703873684
2.9471102521276387,8.887155526264344,-1.5908743042251487,4.995219945048367,-1.5055339845239752,0.2973697001281562,-1.201547699981973,4.95555237349582,7.774031644245691,5.361295138644257,0.1159834699586902,-0.528881629701164,0.3220230881853829,-0.9134405241136436
-0.1916576963031379,9.534125759152923,-0.8030793914395257,7.057939528704168,-0.1701561339760854,0.5007291578820975,0.7598857309887399,3.02429186604836,4.616425523558744,5.368108433512802,-0.6323451294506564,3.569997950456456,0.0298020617129796,0.5019780320767779
-5.402411672425465,8.707925113207088,0.0274905187566686,6.987871877773769,0.5508771275749432,-1.287218669596594,1.7118422104920072,-0.4628859448702266,-0.600078120640009,2.642179484663699,-2.4162082608789,4.868471918915342,-1.6138725772511688,0.4760506624713034
-8.733303235258862,6.175410850292913,-0.1730287989605553,4.791014880115654,0.2522700885553591,-3.3212772461453364,0.7723062511236409,-2.327001876394848,-2.923250138007479,-0.9064852353071764,-3.616724849802739,2.5983540686657407,-3.259891704371705,-1.3289299545823472
-7.314035595766538,2.359987963594776,-2.1434301021698774,1.605349463364657,-0.3125149327053872,-2.88901868321154,-0.8227008672247083,-2.1537853455942955,-1.8263222628527669,-3.1537937978819723,-3.659701478335623,-1.9212521666805984,-4.080936489790788,-3.143249623053556
-7.112731365654818,-1.4829871798021204,-4.2594370278392,-1.0061905368842696,-1.6556428676193011,-2.7915777007258837,-3.374839175780707,-3.203462219811017,-2.070615704298843,-3.2467013435687004,-4.090751703197722,-6.426131245622081,-3.913930318543648,-4.499563660543464
-5.951932411428192,-3.631010920363699,-7.025481764661747,-1.8646375233746308,-2.1216791687984604,-1.1667464720122898,-4.91717325918201,-4.7367376618027945,-2.5075277337299062,-1.855665289292029,-5.529411668483594,-8.99863267858231,-2.8865760893164945,-4.53796707224268
-3.067412139070105,-2.9098788595440253,-6.731879544870686,-0.7381001976047221,-1.2008778891364904,1.1660232901579328,-3.7736188298373374,-4.145553872899825,-2.1547332489143045,-0.2587500216712843,-5.729993977523683,-8.76464018176533,-1.076563426807712,-2.831689179509969
-1.018366335620192,0.3042497930953951,-2.862473912210004,1.5426880077826497,0.0326925896329864,1.4428199869425054,-1.1724935260843106,-1.6360198237360175,-1.5684742731602277,0.7793965292928071,-3.642044334149448,-5.957814278539333,0.5189430997740697,-0.7402399779552216
3.039152362378255,4.08807210679162,2.3892908463978246,3.515199556340452,1.2081283858214844,1.9133875668179603,1.3238758143977207,1.6177637906445876,-0.180000148983415,1.4132154589845194,0.261290334164082,-1.6528682468569689,1.160354822450696,0.761627587805896
8.001271245522474,6.270042658989418,10.110257358889577,3.952039387629557,1.525685377103983,1.7968477766096993,3.127188066160063,6.143576189220927,2.08059761318053,2.235458931413944,6.198808599739533,2.668720287314879,2.053278854395905,2.652885985349044
8.606652189005159,6.076555833333132,13.28264993223502,2.7042976992501573,1.170871360582572,0.6777565664695147,3.1102554900735107,7.880479532316023,2.756397938744017,3.477918486001584,9.44617347652695,5.719743708669153,2.211931759791673,4.08031629478909
5.695857750857468,4.655457033394049,11.21194637544944,0.8878087723554204,0.7738944322010878,0.202166256461761,2.0186115826038358,6.372392637775444,1.768458687407114,4.643196868578844,7.644271517723914,7.015849776993771,1.8918889473306664,4.528339222421888
3.971862550638636,3.915051696495786,9.99432761658765,0.1179431773106671,0.7273405284235985,0.0477450348977631,2.744387414739601,5.74901122495496,1.210294348714038,4.886131970388412,5.980582476291398,7.079460730176265,4.021118772705739,5.944309037645475
1.8051005535738889,4.715633748901771,7.94103022058395,1.2449381625979083,0.9066859078777548,-0.1906890715268465,4.435515000787644,5.059521592269061,0.5658411497358724,3.799435609448029,4.091006037967508,6.936425394680317,5.987773850050912,6.689775157062512
0.4158378406273692,6.136464489664395,6.9377468621566,3.5737731276596088,0.6189755472194837,-0.0369291398074621,4.728611595891768,3.5405863654138803,-0.697311588822318,1.8892531883884804,1.8498223259823716,7.167106115190739,5.530446457622639,4.686753981351695
0.3813807696985489,6.515230592721518,7.8948831675882465,5.294517404372584,-0.1538851446755775,0.0588530254612471,2.7854329139793865,1.709725856597606,-2.344201509289288,0.2681195436091887,0.783622876744341,7.283352465986361,2.9053191401767475,0.8870959285556542
-2.418372944110021,5.180133643151486,6.273629191779257,4.884579766793396,-0.4241361702347531,-0.0997653791760216,-1.1280805138550647,-0.8191541281645364,-3.6225979784046975,-0.2373049730705254,-2.174515763378747,6.060389933727811,-2.049422857658712,-2.6513531633716907
-5.503065149360221,3.095087304273492,2.577730316073421,2.369979880973259,-0.3603739376406699,0.3328396301409094,-6.340197499336432,-4.0486693151503,-4.494271529225494,0.1710224735632701,-7.250924659953402,2.65502481037269,-6.958013662982467,-6.6625837094085165
-5.567197779034604,1.7741873220263669,-0.4932108568880523,-0.6455824987769506,-0.1319226646684471,0.5023351136268205,-8.390324161712405,-5.428838256858444,-5.057075671844051,0.3270349712447821,-8.769574131803845,-2.4256998134372374,-7.640757208039472,-7.902052677600772
-3.503480843597361,1.6343158705441914,-3.60634368201426,-2.2800683385826126,0.1327156759569175,-0.1019955456630644,-5.423521131551289,-4.783263748216688,-5.077292997940988,-1.0244482663799237,-5.957385824062239,-7.417017067549186,-4.405742734839676,-5.174586905822581
-1.0768714870222882,1.548684581807072,-6.272852558287045,-1.935462243789994,-0.8701087663502038,-0.9109532480941436,-2.059459402267554,-6.077944382626191,-7.132367625647052,-4.209224541561215,-3.3804587147489715,-10.480487368471303,-1.8140858935781752,-4.673071576867163
0.919431638163239,0.1156322804609395,-8.041873782925327,-0.7559157412861519,-2.3024055088006947,-2.7333003615606635,2.034037501262421,-8.904751302562708,-11.38001535176934,-8.250252152196339,0.8467733137699152,-11.030436948695876,-0.1762062065203724,-3.0611428918041867
1.0826705405031558,-2.6485889576357127,-8.726200077327574,-0.5181125865016515,-2.554575837874303,-3.623409481698616,4.342131420877486,-9.60603921442246,-12.00037228476307,-11.421631953620928,3.384327203699453,-10.08151906122129,0.2880191049452467,-0.0932784946723112
0.5931061083078422,-4.981624346671211,-7.942880552541041,-1.8889339832488743,-1.3866102655957857,-1.9421418885734687,2.572350716049424,-8.677833983246138,-9.19717059444688,-12.316039360324927,2.0698682838518465,-9.31617797271241,0.2536772999054448,1.4382280831841625
1.0870175782088594,-4.882826345212876,-7.081565878486538,-3.645468823555071,0.9583046023732176,-0.01696444199417,1.2480767565229722,-5.471196702865647,-5.07647721077463,-10.66678646130267,2.177795362411052,-9.661700412617058,1.7749943624358258,3.676545553171076
1.876995957519258,-2.0955113034448427,-5.993589851200107,-3.6952479548037545,3.7839003187772704,3.060973021609209,0.0697365533854042,0.8433735964489769,1.6553192075099286,-7.391420390702433,1.425547402529955,-10.5568065045357,4.244509459796984,4.401555061739019
2.1622767121310877,1.340991015555656,-5.434283116208307,-1.107337256066346,4.530946973989264,5.040511969263712,-0.8711605673135753,3.358103442038368,4.121651840026228,-3.902842930073797,-0.1910093660450036,-10.462292368296003,4.828625139870275,2.7648847545561184
0.9871530061821068,2.6027809830541155,-5.769112156218626,2.688391333505699,2.302082080499092,3.2547142806493383,-0.1155986982907368,1.9944201153272116,1.7518753246147964,-1.2354730500602145,-0.2572681459582199,-8.131437675377237,2.234650888927736,1.155465131050061
-0.3837545306253392,0.3941609146545941,-5.596663734148732,4.796930801378275,-0.6844550312372215,1.448923231624671,0.3670659664600532,1.4482315950395923,1.5982709460933189,0.3971117609442212,-0.3165782928990339,-3.6139065871567815,-0.7269034163050551,1.4841802699339737
-1.1503533500941592,-3.965680970449094,-5.186335312038026,3.267180118037754,-4.509923968367286,-1.116664909924738,0.324649414550282,0.2569823471307277,2.190292856198532,1.386118174967014,0.9231571018840316,1.7104969741614262,-4.366796707538392,2.904811157405166
-0.7527125710232481,-7.633685944794875,-4.451311169104864,-1.050624653778224,-6.182144188504333,-3.01504548432756,0.4122504088779397,0.6047147661786186,3.2543484852606768,2.165724029131699,2.77482650257528,5.985930252796292,-5.702117310088036,3.3988002503649395
0.2909526578589472,-8.53906578273875,-3.1596866209984333,-4.946882856627399,-3.5908506444831523,-1.7105653424784817,0.0421127815244449,3.196785375378219,5.877151308206858,2.8478427609709827,1.7669283749567273,7.973603927751753,-3.214453281811561,1.3703383997034946
0.4485064817583637,-6.878046366432597,-0.2413579108161158,-5.371687915201063,-0.4002040126124771,-0.5273684854057668,-0.313897713389337,4.131210114058454,5.656123128636863,3.325437752296899,-0.1627043159678051,7.705952578029418,-0.5572681195610021,-1.719130582510899
-0.0916697454498352,-4.600143799942496,4.558065160159233,-1.9321211213224188,3.888115489840858,0.5005913607393211,-0.3364338810909079,3.954500458466433,2.613436179018676,3.606355392682565,-3.299962403197973,6.369456154784859,3.508532780265972,-4.235344268439919
-1.3587250374394348,-3.53291258719157,6.413515356683327,2.772639038607239,6.312493015692288,0.816213314845879,-0.5292562696529892,3.964212143275799,1.6199776905382846,3.9176672774577863,-5.727601372931119,5.50976138145749,5.379245135549631,-4.722082428177973
-1.9629737731857133,-3.951452569622653,5.2845121462481055,5.240270195570974,3.822483636749597,-0.6296478902246864,-0.5069609653231015,3.542619277300434,2.003790072301841,4.423219844073258,-2.8975806591489497,6.011602863567838,3.049596954523587,-2.36346083815528
-0.69932969441049,-4.801768322831984,2.170195714014603,3.7575034797790634,0.9686047599649098,-1.1907020368868395,-0.0959223652972564,3.5340537818506244,2.693525574210316,4.898244157595582,1.8765568875944905,7.50544457317346,1.2357374603782008,-1.02780871694927
0.6678122151135756,-5.098739855668995,-4.192543743207424,-0.5255326388121291,-2.3901871122285545,-0.671097086946769,0.3525760282390595,4.062524012642273,4.564119807811486,4.82300387151324,7.659658142951756,8.697463713151636,-1.8240477971414557,-0.8563453398574987
1.3267816244635378,-4.948515435902723,-5.859755169714879,-4.810379955315549,-4.404594463429586,0.4953115057560878,0.7420464205260592,4.079376066447637,4.506756153707219,3.914183229546288,10.192565609404705,8.49944441259051,-3.7747625544930448,-0.5068093553690229
0.8604235177034092,-5.206974339477025,-2.4555171009833874,-6.860071049595304,-2.4678522383982173,1.917214936690204,0.7368297831338633,3.7560149367715208,2.368768731701907,2.564764559895341,5.699739829667786,7.092322811473547,-1.556900317029718,-0.1675515111919513
-0.985058281110925,-6.282975321077751,1.267048823980924,-6.311549894145041,-0.6208006045414306,1.265409816167422,0.2028009364017188,3.8580364691676574,1.5198109000643565,1.643949270297734,-0.2448037907417322,5.906994770246598,-0.8073756597333298,1.2162002109692909
-1.7898815101181689,-7.436022854296052,7.205142569665256,-4.31119761164132,0.7959112118495181,-0.452095590006903,-0.2864362559560016,4.2733125820148405,1.387147818285204,1.710745961199215,-6.456840347710381,6.333830246517244,0.2527356793980865,2.7456397258116736
-0.6631359703331094,-7.311294027505053,9.10113411346071,-2.244592321634014,1.7782158001024588,-1.7023020639010562,-0.5300305409477889,3.1053044533125225,0.4656470259567837,2.342853122035988,-8.64934038941317,8.208930885366257,2.0758929721969617,2.370726912862516
1.2378219454474988,-5.162087720604111,6.075874725525992,-0.8500073058604649,1.171147095838966,-1.958869127494916,-0.5403163859203755,0.3176627153867673,-0.7873080871787976,2.288095123170959,-4.992024478875479,9.563119819273853,1.2212474204144377,0.5252399305274691
3.167947185804965,-1.588644794114081,3.262905946377155,-0.2374602441077447,1.066721572963313,0.1342368080940843,-0.2535383869209852,-4.286473281246118,-4.426968842888878,0.4512443633505429,-3.339505493436029,8.122601739387314,1.0592666196284346,-0.3104315992814887
3.6619504432392738,1.8262071772294528,-0.9802438186810408,-0.3201737639608824,1.7708794185248706,2.242013381753016,-0.3721461940985759,-11.285681504044028,-10.85291436698025,-3.053124564154949,-3.324406160502944,3.381333905261183,0.6632246583592929,-0.1677316475826558
1.8657279335372037,3.602243167195996,-3.364215731269084,-0.9617417048372108,1.6432601654313133,2.6966745340581264,-0.5486894115579696,-13.512941653848696,-12.82776536713884,-6.696533408659428,-3.0794042512126385,-2.656433084553279,-0.8857150211169638,0.9548459799568252
-0.4296160535271375,3.303090126067622,-3.0864607899123646,-1.7797646233965745,0.897517879603976,1.9654364488540623,-0.1520645186104622,-10.617461612033392,-10.390402997160749,-8.456371664746156,-2.1703376994262302,-6.891379509884014,-0.8124692572419646,2.421423931305557
-1.7391195714202592,1.7455491953678035,-3.1702898473578416,-2.1195597721051023,-0.1515555741602324,-0.4076541789196959,-0.0656965520295243,-6.752623270798224,-6.623737347930125,-7.232860834867667,1.2497668797395745,-7.547575354414043,-0.4942165083026209,0.5191128868416777
-2.509860383017441,0.4501437249634689,-2.621290870059927,-1.5185801472981069,-1.9068904094946584,-1.875561491872266,0.4650435258090478,-0.1604501247020461,0.1461360489762428,-3.703640928703973,6.129500673178631,-5.449681584616697,0.0290995249605623,-2.717502747453729
-1.690169066455402,0.6867616282993854,-1.931154931467966,-0.2805975015543043,-2.46315082195918,-1.7279802185931965,1.0543158957342758,3.06758399523778,3.429353535044381,0.0620621384632513,7.95913091513338,-3.03226164860751,0.9528712632225728,-4.052729760030999
-0.3058270734351512,2.6170829865192964,-1.3951797234515506,0.5506748620241098,-1.6748637024481638,-1.4689201665719167,0.6120749116174843,2.157241583098869,2.645316057269972,1.9897554968221307,5.090660780134627,-2.0586847229220457,0.517632896599719,-3.4281345778127505
-1.1690803957498055,5.037191329036533,-0.6289850572992531,0.0095296182375976,-1.7251323681425623,-0.6311203642326544,0.4746497202779821,3.2316136982659542,3.9654632751418175,1.385466196681728,2.3743587211861703,-2.195801554893117,-0.7062457016931823,0.0422485709230507
-1.9651748159058773,6.002600745579694,0.1462838192786656,-1.857064620231957,-1.3528492249149515,-0.9847263310076582,0.0178822935844707,4.850160517969314,5.9489608884728495,-0.689232163764836,0.1586279742175027,-1.702937288389426,-2.064345102971719,3.585665583309698
-2.0197629481401336,4.09208565373507,0.8827892872437128,-3.870278625590154,-0.4625822071159262,-1.517310489812786,-0.6160961316719997,5.916483492727813,7.382382147581114,-2.2954809793959248,-0.9609555330600192,0.560956209293618,-2.716969257253449,3.879373357411028
-1.6797302130825815,-0.4799315600099327,1.5438063414248566,-4.636478047101962,-0.0167732165789003,-0.5795665310183005,-0.4947655861760871,7.179494995115496,9.02490614154058,-2.036405931981109,-0.9330943302104796,3.826523544474965,-2.022843615830353,1.29094297513941
1.0226579958605244,-5.753763082851378,1.842834556303789,-3.705964445259997,1.286999383764426,0.0388297405904297,-0.4207388727334649,6.810807075086335,7.936213496310093,0.062528332235793,-1.7069167180042617,6.05093954929807,0.0119484883744093,-1.399309400243589
3.147454925064374,-9.13107910647868,1.7058361179476431,-1.8958379000986805,1.8686629348706103,1.5867546498076326,-0.1593376186248714,4.675287564429358,3.839707227655128,2.778743282050851,-3.4485291553531474,5.819694984166676,2.4651705879850048,-2.5495263604142075
2.862079668665713,-9.013024480102668,1.066835297366087,-0.4804829755197648,0.4406903268471521,2.212919428482693,0.0464995714608486,2.7044613766823464,0.7866793135131578,4.673235033182291,-4.568401469466472,3.636002295125745,3.097343457345298,-2.0318947345722327
1.8265317484996055,-5.84320240091018,-0.20530526913026,-0.0427654822957705,-0.7972894361293787,0.7602926082870544,-0.1288933274503064,0.5412296538046527,-1.7541466688806564,4.966847486038856,-2.861684974522817,1.3756933391352113,2.032420329073122,-0.1150417826054402
0.5641508631122731,-1.8148679241804957,-0.13093244423445,-0.0952100153673107,-0.3623133065377512,1.1106394546022396,0.0215570878373163,-1.9028671653767264,-3.2066667501002746,3.73290519778762,-0.3192088114876168,0.473811294480094,0.7302261509525743,1.1423978472660026
1.1781139400214489,0.5709972332339657,1.3970029759974518,0.2070128048371309,1.841985388171019,1.2913335126888317,0.4285007319620025,-4.304568203776469,-2.6899684038504565,1.51812046090797,3.252900996993231,0.5747256236583969,-0.4139343275122683,1.3456427629772223
3.019668817597344,0.1128880130659162,1.2621267342976903,1.0350578646505122,4.357412223605185,1.1104780949466706,0.8716850994742288,-5.641635390032234,-2.9460572415490245,-1.094298823518277,5.479730687683364,-0.1326219192986473,-0.4920860242871469,1.2291776595274089
3.0774598300796194,-2.417087895280945,-0.2455540458535548,1.618202380192472,4.246683250650068,1.671182112820577,1.1613466928643512,-5.665742218592606,-3.617464477298409,-3.638187805884636,3.914125680171483,-3.2508332426582136,0.3528860566067555,0.7525660213183782
1.2594748220475405,-4.970684677921258,-3.2777569052428697,1.0360364472355474,0.3267776820516771,-0.7114414990296611,0.3190212562704254,-6.706767702736192,-5.69299719132044,-5.707143558196632,0.7637077986414442,-8.654468665161406,-0.0540684805318975,-0.307028916182786
-3.2253916633156106,-5.737206847648911,-8.554650157707544,-0.7141515434787884,-5.360390486404306,-3.203059832686441,-1.288513208629537,-8.561052468629208,-9.799814621944844,-6.929457269641241,-3.9452389543880657,-14.323277983599285,-1.404470743371428,-1.867945563701297
-7.200523840605976,-4.325805025447972,-10.110377809342127,-2.468627974187521,-8.069400380565572,-3.2071898007573534,-2.251565032738232,-8.617352433936745,-10.07598673904894,-7.055146501017831,-6.051515890262772,-17.550616507623566,-1.7805994788034714,-2.474110139121858
-6.81131195883685,-1.7710979098833723,-7.770853310997227,-2.793271671859073,-5.301188557956738,-2.244632846729299,-2.019035568730942,-7.133391277584466,-6.536975562529643,-6.049556497521494,-3.436615543925627,-16.59498640671002,-1.134393649336024,-1.499944550478162
-4.207228360492083,0.4922009225331765,-5.716662492221806,-1.2537516574313514,0.4784772182985907,0.4851864245690153,-0.348668475038433,-3.5826507767032583,-1.7069109861307732,-4.113676773127425,0.1830340055628366,-11.756476971414344,0.3143984465677341,0.5963747844773124
0.1596795219790583,1.7121180697670368,-2.6371325632521487,1.0933382950500374,6.376319437228577,2.738399443651633,2.103455060258331,2.6845131689664563,5.762378176339163,-1.6803768925435127,4.953299689117509,-5.356339125338294,2.382410592740816,3.7181051350496985
3.974720511078913,2.0706708092370816,-1.0430386975162207,2.471799830478175,7.764834318117683,2.513437006914872,3.3738663370667656,4.710180405645297,8.039608225733724,0.576213574248138,6.82806465021698,-0.6250174512800744,2.777353726204772,4.945837157031595
3.8877612418979406,2.0925440545793554,-1.6109294098570046,1.8029329329762664,3.5258405564770823,1.1808733551089283,2.443988536648861,2.2846323379234645,4.378276006411802,1.8239923175891055,3.126929069208108,0.0705706046719889,1.2626859508546275,2.9052754447357256
1.3207753816289047,1.9767138391022945,-0.7313136110268723,-0.4016866624983035,-1.409737958925432,-0.4948247014882378,0.0594812510674757,-0.1970772475990699,1.5883488727603128,1.3890281144567638,-0.2845808890366515,-3.2170847411942134,-0.0759852049485988,-0.0884685298266702
-1.6871303280449892,1.5316509790473294,0.936908551965136,-2.399208974120803,-5.163838762182452,-1.5143874559744424,-2.943288240236509,-4.325619456312126,-2.1914713609455583,-0.7634857660850569,-4.037329039338726,-7.783548867390668,-1.515091737266546,-4.054271656023625
-3.4091617937323364,0.6399290580377706,1.5526455207167622,-2.5315048499779147,-5.217984817736986,-1.5263956762585644,-4.438196181543337,-5.09866735799498,-2.6815433371716435,-3.719524740435376,-6.023869264836294,-9.909051092330364,-1.9493098779291265,-5.911152543817057
-1.798511220621155,-0.3701933789715985,1.5327892992601402,-0.4556931885491151,-1.345714438892562,-1.0458613681723734,-2.906890511680373,-1.684335907168428,1.3745430252497712,-5.829293290668791,-3.011894137569433,-7.511274434009297,-1.051268921393429,-3.6229198380381127
3.27536421143713,-0.8677568910550253,1.6685421954119624,2.6464797196249767,1.4314902068299993,-0.1352210011534761,0.2623562655584701,0.2400282449929769,4.578255401671722,-5.480755175253298,-0.7522713533020923,-1.8130746013658303,-1.3235129749488357,-0.9721327438317257
8.374287815053739,-0.3855867888657247,1.7319419742807989,4.990661161453966,3.2482499402394973,0.4972816961667792,3.898802919802861,1.8956582774045423,8.206314045963827,-2.049920736023932,1.5061924742125088,3.524678375678548,-2.17549381146103,2.212566168005241
9.213633499007935,1.0656577869163426,1.6124974815122792,5.48790901743957,3.2728094758177644,0.6873418071620735,5.364114232473574,2.2763129317546054,9.039884759901534,3.5613063917925807,3.0290839483937635,5.280776521090882,-2.6602992035508795,3.839955358750225
4.585405374020271,3.0383174687568677,1.410116920067635,4.424911699849919,0.6014774411532335,0.3949517641911292,2.9923353779501505,0.4193622304767587,6.018039451456602,9.2187985718518,0.877114147487506,3.1457079712678717,-2.884690406094557,1.4664668340736873
-2.8017921857545107,4.872431629381673,0.5547906585005267,3.072200095797955,-0.5244885002712234,-0.7201119081665984,-0.694323886903797,0.6304421422673033,2.4767157006913307,12.621957773361764,-0.0994732015319862,-0.3695943541787603,-0.7914010970162448,-0.1815230904895985
-9.902612071641231,5.918153050547308,-0.9966773666573568,2.6177531604586406,-1.6411513438186829,-1.469413829990159,-4.351065771234556,2.577407816305553,-2.6907073392864453,12.559837351994414,-0.4238251943089669,-2.3755595506993767,2.63776649541,-1.3472963366198936
-10.900424086800813,5.796007428736042,-0.2621851433040605,3.30518124550758,-2.5852261976088204,-1.0492837961144978,-5.277921777265439,3.4690882485580103,-4.638173189779827,9.568431253531578,-0.3262491517094742,-1.9910534769391572,4.625401979162553,-1.8567647487137424
-4.759396182454449,4.740947340421411,2.885157261898047,4.413666863289674,-1.22379582287652,0.299810296589183,-2.162206019165992,3.9932144392523945,-2.61029930544952,5.535901444740599,1.933412569816724,-0.4851188777922077,5.018397238749598,0.4068560250049251
1.0972619527964604,3.770102071379684,4.851565317220978,4.988692608872473,-0.8261226424688088,2.136670073447566,1.258634654911485,2.312356930071547,-1.0888733102718366,2.518922838765172,2.6065550119455643,0.6249986957045435,3.925063980397127,1.8836503078446512
5.919413526542959,4.264954901903527,6.174689654808751,4.645065382043896,0.0131442137392311,3.2872400151303776,4.207117209779359,-2.169237273362783,1.2051624479282743,1.584956014912602,2.399219040216159,1.27966562867344,2.792514346830329,2.854638971045111
6.384435366988984,6.968376409113975,6.298249280945089,3.779756223135124,0.9740790703857616,2.214471188865726,4.616746774896641,-4.162112254823708,1.297251979233071,2.408746398093971,1.5203277222850289,2.581581806655933,1.8454163815742757,3.0793294486349225
1.265367716875635,11.09705266293694,4.468559515288044,3.091274472225212,-0.1777651005932695,-0.4319703011765753,1.3897808706483787,-3.9457899124198113,-1.6127403815699095,3.716480493105012,-0.4879569347962542,5.02285579728842,0.5910590149896899,1.1549814335982431
-0.7040808919220823,14.474891069522323,4.960597538385715,2.8956626754823063,-0.4893693602110235,-2.234302955138435,-0.9708780577799409,-3.071486636510018,-2.789817921326509,4.100659684808278,-0.626015042808427,7.396925645177052,-0.6171326997498711,-0.3232310905643502
-1.3960422533795644,14.887576305895925,7.653106067781858,2.864187768573803,-0.7524990788057826,-3.3602049227354263,-2.9548489118428747,-0.4007589471746385,-2.9791706595922736,2.6979168511512484,-0.7458365745038276,7.746200199122373,-4.089333686023225,-2.20295258000966
-1.4876441646983434,11.753755053436576,7.774407471296526,2.399536768155336,-0.3523272538894124,-2.218922095148104,-3.562862345514713,0.9930345396189096,-2.2016027936932363,-0.4363790035964321,-1.0146978883712408,5.402520159884413,-6.367136043457867,-3.303855178931125
0.7698653453815677,6.739963164512597,5.929656889249974,1.2957673353140198,2.0580039359823328,0.9538878420628064,-1.2797279024803103,0.994500861049003,0.4082129000925431,-4.231172431792908,-1.218486786273768,1.9291350878388356,-5.054278367973252,-2.2655207537443856
-0.348013718962436,2.674808633490974,2.7857546928331223,0.0747466910547824,3.094131051842956,1.7815458494262175,-0.2593652795513254,1.971261996424412,1.672874884696552,-6.890012171104468,-4.3913161025238265,-0.1097424791789762,-4.327803726147609,-2.179072167818973
-1.737098171871916,1.510142019131013,-2.588671010985577,-0.3381285544283976,4.015037875018218,2.542670987029568,0.8724990340043058,3.2907762062084016,1.7187338607936786,-6.728384080466213,-7.504976522002028,0.6146596002201576,-1.139584901323761,-1.582843989841116
-1.1531712947668613,2.929183068444054,-3.9500199476086513,0.6229220636570165,3.424869767525845,2.19678258183042,1.7595434913901729,4.280060940277418,2.0701099072485243,-3.311540314465079,-7.557530696839741,3.118144306536175,2.2442106110912547,-0.4437436384176394
-0.7620975214085196,4.722651221829421,-0.971761402332632,2.571154274620796,0.285737373479803,-0.28311257923099,0.5123548563945225,5.168453005087094,2.1037614402967137,1.901810992031912,-5.0719076161167616,5.1520470677403,1.9390065001594132,-0.1783684552915007
1.0549621449593891,4.601848460495852,0.5336811930590005,4.250470486309709,-0.9184539247393058,-0.0213887733977533,0.0062192634186693,5.515892389804667,2.648376355490378,6.152242068731075,0.490648369587473,5.279594622946353,2.027728661832501,0.9476959176847356
1.8630082415400715,1.9472359468357183,1.8642143718959407,4.298270861757755,-3.068066767760578,-0.8036461302980915,-1.0783322469282195,5.189854372539864,3.867540316062657,7.063776408937294,6.42456065085892,4.02916452055163,0.531358467755056,2.101454842101872
0.9144732228652872,-1.8867229974287696,2.511530133948073,2.1796045812588165,-4.164944767603131,-1.7694976622379817,-1.7457067377154472,5.091125868260785,4.295027031446844,4.279984998855961,8.483538562261037,3.2254475341136377,-1.466127045079354,2.344085637876096
0.2274018311992859,-4.807932373323691,1.5468136662836447,-1.3511190457627684,-2.104318484997576,-0.3852862123166346,-0.0935922033201251,5.123852067657793,4.0771868375918485,-0.1943781134807576,7.357229545567121,4.332939295079233,-0.0570682577672781,2.240442829352097
-0.7399068167566352,-5.595044125199401,3.396153010767764,-4.587384528064336,-3.035797307227419,-1.7425197518769733,1.1212360536525168,5.158204328922184,5.138152842890949,-3.2405076629181035,6.203179647702092,7.352113564407491,2.5414751858400124,1.676423092625477
-0.8166360911994623,-4.563981240565944,7.902402025481944,-5.818253610762882,-2.594016728099353,-1.6175826789833618,3.2847035544289582,5.372936700156921,7.355350621838595,-2.5851585180026824,6.494083829843788,11.01189280372544,6.448267604610624,0.6571922441908473
-0.4321862599322836,-2.9710632688929586,9.480467681051444,-4.324880835938192,-0.6770083801189446,0.025508933446248,4.40286182968024,4.68441954673999,7.904405063182647,1.8177766741470436,5.970124205777861,13.73697056314382,7.9687856986132655,-0.5493455344683262
-1.0890191311470236,-1.923080657039628,8.665676633531728,-0.8388533459909917,-0.8407094424689535,-0.4773224984375599,1.9804822819981185,3.0422057569686016,6.971595289741697,7.750506594792959,2.8154170395776776,14.42521564017813,3.315439017470068,-1.7318874064496843
-0.5313332979146415,-1.7629447817866932,6.7762489901580825,2.824319086527705,2.103547289408686,1.6422965367026492,0.070385632784138,0.6488644771163838,3.5473212927164863,11.94544009842788,-2.044086049431624,12.654669725018714,-1.960047733203081,-1.4744647651421925
0.2962718844091455,-2.2047639817455185,2.6780232575481477,4.774198521113664,3.985364647114461,2.5960234849594985,-3.44497538903446,-2.7995157407701,-3.164636058363577,11.858367281526338,-10.46111293859717,8.655684485590646,-8.148753889039472,-0.6247826460463247
0.7571026339189957,-2.77086623883162,0.5025031685161716,4.120963047661426,2.5329009957939808,0.8588633035595354,-6.185394570616683,-3.8235685297244144,-6.172095774649575,7.117945799907315,-13.832710159510087,3.385089994820415,-10.48149661614208,0.1205878131983061
1.8138506010018332,-3.045681846938395,0.4227970225174481,1.4588788844566234,1.825685704726156,0.3520514016199201,-4.102430589312186,-2.1839404938270626,-5.484313950008343,-0.1223875371984619,-7.931235566728419,-1.5157510011562865,-4.683216367500707,0.8515162285041668
1.1782879411893792,-2.735711072209253,-0.5707548648546995,-1.564840958340748,0.3769429731769866,-1.3792808946046715,-1.9831585722499168,-0.1281736715757052,-4.272129297552223,-6.264452838920978,-3.27127296471622,-4.3224815846305935,-0.128820856731964,-0.4218567362848864
0.4880266653634987,-1.8094979910407505,-1.5815238814585169,-3.3241525044583167,0.5707365581683218,-1.8132424639386255,2.380995984965986,3.2117017255631124,-0.9408731565925544,-8.331487264972015,4.082306538665792,-4.277926814100031,5.242320161745549,-1.4706013729252
0.5585501509972508,-0.7375144450751077,-3.0267835485995462,-3.212291519339329,2.5713858626018395,0.119867777769237,6.434201910754671,4.613073693892128,-0.1106635367846052,-5.8102433401934,8.592034047977771,-2.249371121903824,8.291214566724102,-1.076545520309159
0.6472962930763266,-0.4687437222907749,-5.275062725324616,-1.9001518181963164,2.573408955853413,1.1445899802327313,4.962067517207633,3.619311358266263,-2.238156512310564,-0.9861593249300202,4.546408083319217,-0.2264634093330597,4.318108745043812,-0.0009701698586642
1.0001016012898,-1.8636758342122368,-7.6366228353164,-0.7350768201998146,1.075376695012757,1.4930492205210844,2.1314565415951257,3.159652715996262,-3.203836819606443,2.582376084545234,3.623196073252979,0.1054683057849041,1.7980990530628926,1.4899217061558794
-0.3636685386161483,-4.873720235620661,-10.326550685811862,-0.7680806979397934,-2.668248849653131,0.3074256395229834,-2.657085883648199,2.410402232975506,-4.067798603283972,2.445284007151068,1.3104371979048892,-1.4524043424929367,-2.246240633193908,1.2794923772301854
-1.940567934205668,-8.197464807756813,-11.07843571696616,-2.1045441397991427,-5.797629846819579,-1.524366550670124,-6.32754493757966,1.0596293356206874,-4.589267049882227,-1.2004115792433363,-2.2077019041371173,-3.67479714008528,-5.783927572152063,0.0316738029585795
-2.3086725467024296,-9.897639815136609,-9.604982321118603,-3.961353067545128,-4.94684127200241,-1.762825445480081,-4.289461402735403,-0.5932183223457842,-4.212577787894629,-5.899374322787757,-1.615580103448763,-5.0672943940247634,-3.8847420119893634,-0.8294946625965715
-2.434665277309103,-8.671796365367502,-7.199691472509834,-5.285451113425901,-2.8893003799795363,-0.9306967669521992,-0.7474035456381264,-2.58019418158389,-4.658567099536306,-8.867711187216763,-3.5348773006679006,-5.009251632631517,-2.958903254573177,-0.8831802054505162
-0.5919501144671335,-4.850290604855708,-3.205483235378907,-5.452778625912403,0.3079619648595798,0.6935809915358593,3.068709683030465,-4.859272720560125,-5.768619915688535,-8.941356726439109,-4.926967737133001,-3.961972669858985,-0.644631652780094,1.000722464056634
1.6364170281772887,-0.338358477854868,-1.95586314771743,-4.603061960141332,2.6735334486913533,1.7872320400123056,4.838112120040799,-5.471551282866666,-5.946933056195332,-7.114366968267886,-2.9469108845704417,-2.8192736996426264,2.4488867722764334,2.6838359053669003
1.6929535798496098,2.492217817965587,-3.872046958772816,-3.4588344217755296,1.753638226777487,1.0686209163018088,1.9538751455357612,-4.1866524823654965,-5.396323841787793,-5.436373824135705,-1.8200800630481888,-2.180261196571037,1.6002805928041948,1.8675338854644845
1.9231548658468849,2.1943953062504638,-5.705829525003946,-2.794657598221629,0.9220620637335696,0.1267596016244893,-0.6774634871852399,-3.69307126244668,-4.590134123184254,-5.3140687803184985,1.2413280819902,-2.1246438231522866,1.394351322423285,0.344061504850804
1.5431477667997484,-0.9869532841811656,-8.549444344067162,-2.9156939971759392,0.862142689894108,-0.548305586676534,-1.78805924212534,-3.5842800027875352,-3.237464268351183,-6.591789747980695,5.09218858351198,-2.421585532892953,1.1114955072711292,-2.24708411663054
-0.5012395889348457,-5.360609854571267,-9.495660990609473,-3.492777474377668,0.6507499634744159,-0.9148088908986396,-1.871431956244889,-4.059215941832936,-3.085514600643627,-7.983312966192603,4.785264566303064,-2.803102874315993,-0.3838108090309187,-4.309264213560131
-1.7465310046928042,-8.757791650464936,-7.975660360388322,-3.881288037723482,1.0220190783646497,-0.4304551931880411,-0.1863987410163889,-5.650658309082494,-4.290430842192237,-8.273899021113282,2.729386983524485,-3.1432366608757576,0.009360379726416,-3.151484937349707
-2.300841101022196,-9.608295987402007,-6.219806378672851,-3.7044432511119183,1.1192029895902138,-0.0888595622561419,0.3167274892294744,-6.36958208320874,-5.034408386950072,-7.207639807791425,0.9238817188959352,-3.598713163150004,0.4407188306094888,-1.2980371005503049
-3.220507754888177,-7.625780825780319,-3.367337657023315,-3.231304421419381,-0.148439134676009,-0.2033778534235142,-0.5790374157145746,-6.352263950296899,-5.696512602280039,-5.461142235117544,-1.4233895919386852,-4.644499811895866,0.1153255970190196,0.9705982010435548
-2.3662239770099798,-3.889674497455236,-1.5521469379510593,-3.1761327867251303,-1.0896568981834056,-0.1108479822525397,-0.918463115667138,-6.438386258629212,-5.039794942298071,-3.978019801155803,-1.7324855111468986,-6.774578234797319,0.0995147268430101,2.5679221992810453
-0.3090698332070299,-0.3096730970886128,-1.102934833901317,-4.005326818605074,-0.7859531635874138,0.0864789857709074,-0.5428731264839282,-6.258219927599445,-2.649988474960803,-3.3442789388971903,-0.0216319324060281,-9.88726078827857,-0.2917669561169924,1.346033097250983
0.1117441850796822,1.379365730488992,-1.2999075456917577,-5.329323041320777,-0.7757654550572546,0.1009536319329579,-0.0078540367763117,-6.070984729727565,-1.2208446735045968,-3.5751846121628645,-0.5378621019723049,-12.876500861850182,-0.8870004860511422,-0.6634340172582078
1.706746754653567,0.6711420058826469,-2.815908639312588,-5.999858872549236,-0.1882182881537473,0.3223420572720579,0.6271455040954116,-5.934491189650853,-0.463547035459402,-4.192698373377024,-1.568729996540544,-14.033741948816008,-0.9817385412821032,-2.819743082891901
3.1778275069071618,-1.2920743426512615,-2.9595300423718918,-4.9759827541401975,0.6210086400787574,0.4401391424585155,0.9713357080481252,-4.776819362238369,-0.0287737122933762,-4.382088230122804,-1.4276358649353034,-12.201223344707724,-0.588058515453672,-3.19613902839102
2.662303949083706,-2.43375840210609,-1.6505346268277137,-2.2829989044719348,0.2793326408839458,0.2444682226543735,0.7298804325979438,-2.576370786956419,-0.4530221004750439,-3.271933392693718,-1.3432434437281444,-7.790244527161406,0.0088157055192751,-0.092187270134546
3.8900946068352353,-1.3070372695897383,0.3442107902333607,0.820923619112925,0.1900543147957775,0.3934246331121878,1.0184720062403814,0.0656740676054076,1.0015420606446133,-0.4546679233618143,0.2220532440926669,-2.7043679432216585,0.7400787491361733,4.105003073589929
3.702870114812189,1.628604929542547,3.7161561107272703,2.7317498349722804,0.0315906403362875,0.2298696203652259,1.528865600731221,3.39801974563122,4.422098573081297,3.4736510861904613,2.2832375661775286,0.8988333253326353,1.9784540103116937,9.230302874144442
1.391173252148321,4.173419155559813,5.097548101034185,2.7384820617115864,-0.4997303697749481,-0.1907224816295325,1.098645704957642,4.618335326367462,5.526912741718571,6.890835242102391,2.331305944823596,2.030800884836367,2.5524151268403266,10.491307598817713
0.0543915955484607,4.059557824904914,4.324499818820726,1.5259162707815577,-0.5091390962934728,-0.1350031605935783,0.0329694989447988,3.412237994484938,4.6689089446731735,7.93757382275826,0.9701470823369972,1.331412163074834,1.7275649228888053,5.122196465935531
-2.0010563544295388,0.8449816388320812,3.18546196074627,0.4847170446298676,-0.2204204058550984,-0.1969839998028115,-0.8554663216500805,1.5209875484892217,1.980186703062199,5.716906676869307,-0.363996109712732,0.2876941245240019,0.3092599749769812,-1.1360296441770732
-3.240874117710003,-3.573044604713509,0.8574113601262873,0.4787917232091914,0.3225637022764483,0.0657419460843851,-1.6740057994724638,-1.8307616137779985,-3.522396770878533,1.0462648832513644,-1.736150442717186,0.0036852758003824,-2.360702928144368,-9.561328630416597
-2.458371294315816,-6.307910794188878,0.4736593710830316,1.2196214178134213,0.8379877235988169,0.3468138123208208,-1.623488419148218,-3.2272568342789456,-4.759584828477059,-3.819223667932299,-1.983994155910268,0.579139247405962,-4.0341851168054985,-13.605999054755708
-2.209003429264229,-5.604695807800901,2.381867814687932,1.7763914183075826,0.8135768113910284,-0.254606859403905,-0.739336913532289,-2.2847430839829515,-1.5100982433308785,-6.340368728080506,-0.5482187179883137,1.4560245951930852,-2.7990735921682424,-8.315580487328472
-3.1061199872487864,-2.037890949164858,4.610889731562137,1.618947907830993,0.3065683176226049,-0.7806474698052792,-0.7584141151335451,-0.668369034043318,2.01743369204366,-5.036709101357857,0.4957086170693331,2.176370546020216,-0.9075558575855724,-3.6623755451590014
-4.505425375911292,2.0565113278554,7.997887436729984,1.1038794734129915,-0.4295540989859466,-0.9895061146527072,-0.3595365452098967,2.592594092360009,7.458186924680212,-0.311901118940284,1.3095056053665868,2.744437460564889,1.8509155559836836,2.747586688253598
-4.592394364967912,4.312393653897981,9.289419278144036,0.958755205889009,-0.7701594964570143,-0.3260136082866003,0.5765235271867434,3.7355184651591697,9.18488643006426,5.649538762503948,1.4006783594256296,3.344951422415779,3.608853284363752,7.205638370846909
-2.088854343068678,3.8534094253138775,8.090686613605833,1.4015552569854428,-0.3543549451700013,1.092398385752987,0.7869870327961594,2.4769363654111736,6.379570658299694,9.957220555427485,0.3759699601551951,3.880341353648873,2.3671842827742307,3.7203249998019
1.4053844000875402,1.605473895173068,5.768872183933587,1.9012478146280287,0.2123164203478421,1.3108375987949483,1.1972004334471662,-0.1910753785186154,3.8027389451195903,10.65110070616984,-0.3452974407822909,3.9277374422704447,0.823973942722114,2.0592870294576917
5.105628454801332,-0.589846774617568,1.3646886262522508,1.847099561629511,0.4886200436194404,0.3427903723007475,0.2230161579318287,-5.339721177671043,-0.0266711680095171,7.991607996940171,-0.6093841912359392,3.1901147493388784,-0.993227457744396,0.2538005036982839
5.970934458242767,-1.280179103953281,-0.8359805038916729,1.366479692378897,0.1743583358569494,-1.527330596434329,-1.8534107314037709,-6.417355510684861,-0.968991644406018,4.398930176361363,0.1530996873240043,1.936251253633623,-2.458583920678827,-1.9734701757137847
3.664761327019306,-0.2394246585832853,-0.5734401867390436,1.3267045656294345,-0.6733018976333921,-2.875330108693273,-2.14111838607947,-3.0950793857532943,1.855995507924728,2.800696549784308,1.132963900584093,0.9130697735168578,-1.877364472211389,0.3112350988022822
3.418012427237201,1.606460937184332,0.4241592023064944,2.4233054314672806,-1.1118619862726682,-1.147246227054973,-0.5352722755004939,1.4211958457922869,5.5214454185755,4.4455950134650735,0.4112527650921379,0.7688197132023822,-0.700545722315149,1.7600944428254937
4.07478914856198,2.981194709253316,3.286121309149673,4.277514720458306,-0.8574836112628665,1.7095259602125714,2.8931295085276734,8.779066493883983,11.322133458227736,7.929967851154538,-1.3426983055849866,1.5384791025501905,0.7280832379993738,3.083268546433877
4.047536741429052,3.157117673666276,3.7302992151230847,5.547736595822816,-0.098528010547138,3.5424603884094883,5.587696807966607,11.788625730277532,13.426880417423943,10.364888320577704,-3.0819468384999023,2.670702795444962,2.1080601436783493,4.436691091414468
3.218069059204106,2.317780791047266,1.4867972228828428,5.070248654017189,0.4781866852067251,3.113637867632334,4.404501311678476,9.764600717352552,11.192748474043396,9.788376572173354,-3.788229607962532,3.519175837309073,1.8824304748348848,2.595591163228149
-1.2081561071992026,1.2033560679381772,-0.4206231473344372,2.9777165375021486,0.2273524500530445,-0.5682665985272859,0.3765134993753478,8.429220237370139,8.033525973293308,6.753076679301582,-0.7012330349391429,3.791589259175269,0.697246384161907,0.3809382858832297
-6.931882981613693,0.4382490712480447,-2.9848543721094205,0.6887009574664837,-0.3215506016283191,-3.654108607135876,-4.579198019830771,6.037976030169142,2.356451706082181,3.6974543686243706,3.777847765120788,3.5772760747677204,-0.1514992357847248,-2.1819579933613964
-8.559424241132119,0.1493311300911983,-3.3572616622501377,-0.2888583114938434,-0.5287017026195096,-3.4913983559934807,-6.5773759479607365,4.752646229431293,-0.3009384251947085,2.695685491542529,5.421692770352093,3.0636303000416376,-0.7873586065659957,-4.093762819288624
-5.979903454054968,0.1367889844347019,-0.9744483317066572,0.3447084321521956,0.1980253326507969,-0.8480425935979554,-3.7800281528856554,5.375705086532209,0.6517343116589687,3.6318426138820072,4.010321644274902,2.334400927191254,-0.777055622993349,-3.7182376997014495
-2.751336417135737,0.3015099541909549,-0.5507479473954394,1.4921905461320684,1.7566287587358045,2.907205475700958,0.2683680188631496,4.172581440844501,0.2682184269557841,4.404722005210466,-0.405252350019666,1.4480876678709222,-0.3065723500742999,-4.310109757148845
-0.2244914758064552,0.8288691978876024,-1.496050565897053,1.7642678261056517,2.790460681952047,4.183876579311779,3.5175483520656816,1.743188050217693,-0.1425832216463954,2.898272117219655,-5.034853976384619,0.606706689124902,-1.7328225534651034,-6.0589181607093785
0.0072885140784504,1.9517280811993487,-1.9806042150407028,0.8508268780971378,2.0240539393726324,1.8784773087277056,3.928245092029888,-0.3457024188302867,-1.7204741491907696,-1.0910836978100278,-5.833901273675682,0.1205364561670698,-3.340563302070102,-6.326106194327622
-1.3149770851828826,3.585944166918786,-2.7770748561996528,-0.1303804943425248,0.1287257931646048,-0.9768134027872972,1.349305422726756,-2.6021822875649323,-5.197696177267092,-5.638066149165258,-2.705147951287554,0.150581878851483,-2.610393710202491,-4.247415710807318
-0.0650817531574104,5.248217357356175,-0.4284786273161595,0.3333123655999443,-1.6916871493058496,-2.4229558361400763,-0.5557731674980796,-4.078881480623105,-6.551409727705194,-8.27568456468903,0.7831337946616364,0.5097082215078288,-1.2414366064259306,0.4643492141443199
3.863082140066053,6.356236792904085,5.5211614213789,2.644879414981389,-2.6961420566854373,-1.419975842206587,-0.8208134977423339,-4.500622933556587,-6.044933186662074,-7.956125688665764,3.193657144942284,0.7708595793912494,3.0691962608824497,8.388389729580624
6.560404639986644,6.629256209008396,7.62596838623651,5.496816046089542,-1.5302953604074516,1.2302787235617507,-0.1832515548450634,-4.1712605976274295,-5.178083231071076,-5.763197172623372,4.031753088958733,0.6083285786882016,7.135534661401643,12.778026451246044
6.004754152929077,6.232947150476626,6.314540964894879,6.789319415892408,0.288851998242671,2.145730452705322,0.3980724586905581,-2.7225399976109768,-3.1597469305278354,-3.9021116597499983,2.4942252940146523,0.0596006718867627,5.609737545176927,9.695689836423009
3.186927760580214,5.570767043924619,3.527198410357953,5.351332783020403,0.0044088297576649,0.036618345109823,-0.6327266477240888,-2.188462206479315,-2.6144728538444384,-3.9016724440376223,0.7881225572711208,-0.5137224481326683,1.963394423826185,4.731503729661373
-1.2622356847517282,4.934678242678885,-2.3612419153383417,2.002327141653055,-0.8737033704931697,-3.2075377793979887,-3.2168369750153123,-2.641006707390301,-3.794376260463536,-5.48648895241714,-0.3364542715255339,-0.7066638860970187,-4.2710360452162766,-2.68583281488127
-3.72960225730889,4.3272424226992925,-4.332428861333615,-1.0084509895116869,-1.7563540884725646,-4.9105554066940025,-4.513625889879987,-2.815364808870444,-4.408231616694278,-6.932070979054984,-1.4958154651513442,-0.3589936612737148,-8.809672312189972,-7.550217439482781
-2.4211038954787614,3.590083275616017,-2.0264164031521923,-1.791321021529285,-2.257451907970096,-3.462262397620839,-3.127112099509437,-3.1764765925048604,-5.064401848537216,-6.526542836729007,-1.4320652036104602,0.3294933074785504,-6.180331512041349,-4.805101572746538
-0.6068108758402643,2.688474234449103,-0.8340995431483696,-0.3584950583008961,0.3122523330967643,0.7481137407335819,-0.2833322692882949,-2.1609048768891186,-4.981439353550271,-3.956000378266445,0.0049067846416617,0.8939063444554733,-1.0247315330657545,-1.6736081357009136
0.2842162502307966,1.8482886103724925,0.7904593199239182,1.4121948203516794,2.7394223200398127,4.941072246930697,3.666021106859195,0.4788721522555654,-3.794247122732485,-0.5412586920061386,1.077065833279943,0.8598487773997476,4.976336615348014,1.1420311552053375
-0.1520926210313068,1.3734096736768038,0.9309723055765204,1.4192968656915497,2.7844654898655845,5.704908910450143,5.502136783403115,1.4740929088577994,-2.826515900355877,1.8535845738612904,1.332853913055421,0.0627073544447398,7.786713326281471,2.8144989325671155
-1.5954358931608368,1.3025893983007109,-1.224965486068296,-0.7814314640530569,2.1492474509299413,3.0688695268918966,3.772387595710819,1.046993696742338,-1.8148729941908623,2.384356898259398,0.4200536820237345,-1.14965483733873,4.275734562906542,0.1120915844655605
-2.1466670141074147,1.279437226424072,-1.6706988622776984,-3.4906361114586844,0.5148567410875398,-0.3333144451253693,2.023258601267034,1.3793669971784746,0.7136744938786052,1.973493389311216,-1.951146690718748,-2.0455156556986798,0.0985624717378819,-2.9398555970224405
-0.5334604992896961,0.8490795912019422,-0.9240147986159268,-4.252923085003289,0.5641374765174783,-2.951975306306012,0.4539428371904118,1.9162654465957112,4.706141635830715,2.5160686328098194,-3.1028074870956086,-2.0036587422611234,-2.676385493630039,-4.50664962050298
1.835928892078488,-0.0473778161490088,-0.2743854774360209,-1.9786908282816,2.302829246718054,-2.965434370975491,-0.3037574513449911,2.9335861097016225,6.690158504628485,5.077758851965925,-1.899494149391973,-1.0508636575171124,-2.829413762742764,-4.332456972202973
3.0997288365987923,-0.8825568871998115,0.9375902351575536,2.014334239925603,2.654608011623073,-0.6959202490482348,0.4617670877764834,4.765952065914707,6.70372633294792,8.608854697911895,-0.1318702025830795,0.0582235901581924,0.0749148073678225,-1.6006152857378106
2.3764169266826665,-0.9244850191032868,0.9919563534533344,4.964065114462159,1.801669577650108,0.9340479074190742,-0.0096192369154059,4.785227645239708,4.68134348627164,10.469330425175116,2.38459035927498,0.4160250077273701,1.59139882242108,1.728482675319296
0.1203472581068473,0.0999209242956453,-0.2980653295942458,4.8542640835603095,-1.313172867770275,1.612295307782156,-2.077244377964711,2.9636679664545005,-0.3393134745506066,8.56903777592376,4.073834512625254,-0.2319565181349929,0.9415105952216054,4.598889173022421
-2.0507271608898043,1.663325964023031,-1.2591135097599695,2.0065221669757705,-4.545186674533946,0.9810425610522404,-3.624510768944535,1.7647475322893271,-2.850902246711881,3.354689468776684,2.5473888001076688,-1.2073102474004995,-0.6318198773892854,5.20440260586802
-2.8304113522213887,2.7467788607400507,-2.2779924783500998,-1.2412514558968013,-4.927292372939357,-0.8598745814920448,-3.700306104852012,0.7037934806933963,-2.852029264821734,-2.250220826025668,-0.0705535386619792,-1.5069705703878924,-2.3055354980835903,3.1617856279290626
-1.702412334348364,2.536958924743743,-2.5096585367306794,-2.4679337005871105,-4.524955818427318,-1.7584049561346922,-2.276038420235852,0.1253419010557475,-2.812145086396668,-5.140158839025304,-2.1915817207432915,-0.8129714543917714,-2.235666032302981,1.349625053680091
-0.8319750454471599,0.9457579425424713,-1.6265573159350095,-1.07601312505318,-3.738068632252287,-2.1403513840657964,0.7924642299764545,0.4787398229173976,-1.4827999316009726,-4.618941709960204,-5.246764963654114,0.0714934406706788,-1.3622690518897935,-0.7551705084240524
-0.3701156065753379,-1.3801740280291457,-0.4610529056990716,1.398752574264634,-2.125361835760934,-1.6507359417997631,3.118772648355443,0.2232528455561024,-0.8144209566058481,-2.87814554802479,-6.028347109814594,-0.0965927144538199,-0.5236842879452612,-2.0153701540099345
0.1263784524073132,-3.4358850339720988,1.3074339599917917,2.761164300347616,-0.5535760933410443,0.0677581887807352,2.777654373477758,-0.4690031912548948,-0.9889346354586932,-2.800956034325296,-3.0858055617312847,-1.6976824410604363,0.3257866868640945,-1.1993538979050569
-0.4806532917531227,-4.299952475922602,2.9153899043589577,2.0838239687219726,1.1501395249524802,0.663876376755353,1.1573447032931383,-0.9774452026431012,-0.2737593268897674,-5.087417049187238,-0.7967386719607339,-3.520961898690743,0.2535146993299523,-1.0310524227747333
0.6437811223579302,-3.4747985944525013,4.248455720874099,0.4072059324638033,4.7594721026857805,1.5962536653883357,-0.5266217447466421,-1.5519010549772692,0.9155582876327568,-7.461792013756394,4.1277809824583285,-3.446546358900399,1.3349426395811903,-0.8365689172098372
2.053849491919107,-1.1361959719510253,4.44369381776113,-0.3594404911024114,6.74140672109102,2.3329223986044734,-1.2512691691479048,-1.7925873984513023,1.7259051351755428,-6.818627168682966,8.538075292722676,-0.181370116683567,2.503972171998697,-0.2998163365743187
1.5944599046799215,1.7530744633238695,3.1474593327335114,0.6928014967519118,4.835667775276541,1.3611335152556387,-0.3693238035652328,-1.6187019980105737,2.310497479742853,-2.336731826004737,6.647850313677511,5.333191647817202,1.6409417466809626,-0.7323404341366029
1.979504804710048,3.668869666685097,1.560922852407041,2.5355342518892314,3.035727422856307,1.160460507855283,0.8269620630215078,-1.676764096814522,2.7603944624244745,3.405517017966723,3.825129491891388,10.145608345380516,0.7157307903549355,-1.140296518592526
0.5008273540310643,3.218867011524253,-0.6414903767796026,3.040631561804417,-1.0648186533066937,-0.371933663875755,0.1104886642729495,-1.886495453082602,2.913738961258183,6.435589872575175,-1.704808959167433,11.217485570481614,-2.184666109157889,-1.4362626826424676
-1.8462633176698668,0.0439888453208077,-2.562578593131004,0.8260968112756295,-4.530420421712222,-2.41490768357922,-1.5919760423004194,-2.0144656368855647,2.5735927649517403,4.716494695485494,-6.918653857281907,7.670785673619509,-4.697516751353081,-1.8549472207831048
-1.9894673723361869,-4.691963319133727,-3.9747340479716056,-3.5354576897310075,-3.168590810463891,-1.9548116732356,-2.188164651647548,-2.168645932888946,1.65998376789685,-0.1936066027092344,-5.227211649112438,1.5636244101271617,-3.4796402609164896,-1.755127306229449
-2.5466238914415364,-8.749687105497262,-5.4860693837190535,-7.954495500183324,-2.173742476706499,-1.469632807582103,-1.7861072294701017,-2.22776387554878,-0.2378090667467778,-4.544730034700315,-1.9300703320813,-3.5272540003118777,-1.810312377098385,-1.054866633435887
-1.779936393566715,-10.103718627889428,-6.7924664715621335,-10.415431400431029,-0.0567032957607988,0.4656203352663995,0.9646093627925244,-2.1716912922919644,-3.270405573484769,-5.483371667203842,1.8095283012306669,-5.065335057970707,1.0378103070245157,-0.2036993840718563
0.651231361421333,-8.271865502193387,-6.630345405623291,-10.29594637436573,2.387040813612802,2.830529091231221,3.946167701814384,-2.1915777679709807,-5.12533000766466,-3.11047494567683,4.352397165791157,-3.2274945479909203,3.4670370015369194,1.004052617999394
1.9157739248080303,-4.69846782421642,-4.856444223576188,-8.421703380332863,1.2775845099810077,2.1173173451645617,3.5831013847729127,-2.266540063286107,-5.769441939446143,0.0364758657664907,2.036160748308245,-0.3963579851436503,3.004007291647075,2.5817429427088068
2.690314422759675,-1.8091819512111869,-3.2485105103409526,-6.096625757376536,-0.0683412088822923,0.5225630683851651,1.373663730026517,-2.283593237356892,-5.393188246231768,1.2785158808605388,-1.1891210253448807,0.966440499101278,3.137679129053121,3.996499539426296
3.0198831071761187,-1.3684175328536732,-1.5391023193306836,-4.147313564890691,-1.441177969291334,-1.8129844389075271,-1.913519345929191,-2.2719337474357157,-3.35500545708206,-0.2455274984581343,-2.884029305491199,0.1742491739530436,4.059519953852761,6.218206126885254
1.6004977675919656,-3.3715449208956336,-0.974214444139712,-2.737072322248764,-2.488884756780522,-3.550641394413303,-4.124965829263848,-2.4475973630169165,-2.671327206097672,-3.387752848549333,-2.840835832216126,-1.602135690435155,3.782154949812997,6.351409846463824
-0.0366879442436574,-6.3088843004323465,-2.022054707005048,-1.8187674976903525,-1.1312195983816529,-2.422658700191332,-3.0348357717296004,-2.8167931609579835,-3.3386754105815277,-6.28419732099082,-0.5839195477783063,-2.819915017855521,2.7430993512563755,3.133328408433788
-0.9917898975036692,-8.497666480602646,-2.318620245454633,-1.5479847369087023,0.6580298163699105,-0.2392152481273985,-0.2419650306628087,-2.761299919706972,-4.552537440837968,-7.757303249225281,1.381582961335753,-3.043119160554994,-0.34546532161671,-1.1869628661420832
-3.093278974068913,-9.272031164736704,-2.225107635385218,-2.187387411951974,1.9875120576913168,1.8577744138354344,2.1032333143801405,-2.283016388535797,-7.045427795897498,-7.752907389224887,1.7147170288888995,-3.046285164574861,-5.7923071179061525,-8.771843820071062
-3.5283333649138413,-9.02163248532868,-1.147913331345365,-3.643764790787927,2.186357453989375,2.595029637034701,2.459298687258497,-1.1275923275212336,-6.313266815438458,-6.815430046348894,1.1902310200810673,-3.6284415436237936,-7.713784757762722,-12.023353238322676
-1.4389004198348188,-8.234775855585482,1.410182624422405,-5.1593749788612655,0.8220861133994308,1.571198510741426,1.086942281814045,0.9033409812764924,-2.0842048618910485,-5.354732081597746,0.3981301496576717,-4.447643089991857,-4.744228165251877,-6.700024503149351
-0.1656517838113771,-6.696547419490287,4.312452569724596,-5.550955098068883,-0.0788919409005392,0.7598227369975734,-0.3648032437896614,2.631935357167733,2.541996617695028,-3.3682211381048432,0.3771615667107906,-4.070955292609568,-1.3196378546744596,-0.8955216650904494
3.2572191540396886,-3.782311245308051,7.875502851115061,-3.932315811562916,-0.4396493944071209,0.9161774955991322,-0.2577112888878805,4.121407142214448,8.632078436451126,-0.6982495626998002,1.193549830251366,-1.235329297674994,3.362604612874514,8.868882654103926
5.455396091085285,0.4508654108811214,9.115062682624778,-0.4410797567577873,-0.3240260099181017,1.2896269160423983,0.9347837280999052,4.811731049193945,10.32216119709522,2.544275186993076,1.452286529327954,3.78312755680966,5.124705399506677,14.179818049415877
2.4943691614431605,4.642761742185471,7.608280102764001,3.597935854936921,0.1104805312449084,1.0854006584092764,1.6228771415295875,4.359778459512588,6.759356755952799,5.779548319387189,0.1994096842736379,8.880778844144743,1.3288605624839531,6.939323691493396
1.2118678808738614,6.86098670819834,5.649143035286265,6.312508968923567,0.0948783991715932,-0.0516683120091399,0.9798355416425242,3.7174434187785015,3.992171194811561,8.11798195217304,-0.3409910687688539,11.250399638186636,0.6741122562481876,1.656372018112949
-1.587554964927039,6.149305625552927,2.4093819954897406,6.39385439840747,0.348049037567523,-2.174142572355447,-1.3348529722287892,2.632697241135288,0.5596274107965657,8.766525088627589,-0.5441808986712425,9.197628979312896,1.181496924371021,-5.726140478920187
-4.937516283950074,3.3931655665216454,-0.0267511583070895,3.937123752480545,0.4152697235403222,-3.195982462558244,-3.123001804105128,0.6520047815895157,-1.8815178763442608,7.446648527115741,-1.1150658071391109,3.4006441153234164,0.1353666199892893,-11.875121218102038
-3.314014545222744,0.57585362612258,-1.2925582054547462,0.3877733887465808,-0.1273593811873712,-2.1725455840920858,-2.7887953811972377,-2.163610831731532,-2.3351785697922263,4.589116779724378,-0.7652559600872093,-3.336194330142405,0.2589271440865406,-7.092811858745268
-2.9278755615114807,-0.9051834493741352,-3.647177672590163,-2.4039612141253883,-0.9865581706112404,-1.244663627682965,-1.4432323179741462,-4.245803066800458,-4.352987343008024,1.1766972102324758,-1.5548425176917045,-7.814083482057242,-2.681078711209275,-4.368288109794178
-1.700526186870993,-1.2207700969567554,-6.566983069545497,-3.3494374088022028,-3.093638716610501,-0.3388244165798384,0.5700929138869936,-5.537252915483207,-7.334513036435306,-1.6981466416335709,-2.912353038026032,-8.545417384588802,-6.809533809851937,-0.594412299876095
1.43069348004508,-1.458501846519539,-7.196226929266589,-2.6797741797893195,-4.193278749676875,0.0239140657416892,1.813695291233724,-5.508551060741884,-7.501488797755661,-3.3001828278038943,-2.4006026247337484,-6.6901627990031045,-6.194535135599123,4.978520285508964
2.289069314925701,-2.0953697801345754,-5.5596735642033535,-1.547554915127506,-2.181672889616847,-0.4586543537569806,1.2873412080299682,-3.629416169297436,-5.0738154236284805,-3.460977845652081,-0.203861236347307,-5.010722770045476,-1.8732333110955028,4.473003575186007
2.235570109395277,-2.2675496886788267,-3.800463159249887,-1.0377567240049643,-0.0108443045624583,-0.0356049780740902,0.2293370474212001,-4.342009148045749,-2.9983113806468507,-2.44665458026941,1.2133677415700506,-5.563209921590044,1.684493194929318,2.778025457637483
1.1378864993749778,-0.6629344921669542,-1.3275198279748388,-1.3451183082320313,3.277841085763974,0.7661646797442707,-0.8192565064458635,-7.649870650446328,-0.6154004450865651,-0.6658242691894998,2.1476137686444168,-7.9653517754017855,4.808838196109746,-0.7310116468455294
-0.922381313667544,2.882406330197512,0.3153424880522134,-1.6931921090706794,5.520216119409602,1.306594099104396,-1.2807202663037829,-7.800147783339086,1.5185368494359028,1.517860996838209,2.05271121858422,-9.711950190943924,5.441070751870031,-4.688250290744334
-1.922399059754562,6.809176512383857,0.7035322295808658,-1.005627826779687,3.440955465774686,1.6915239814100622,-0.5704669494313789,-5.425389210573942,2.885017658655879,3.7740253707258375,-0.0445137390102267,-8.309933366341653,2.629501380191796,-3.672469951672967
-0.7352705539535278,8.994398243632872,2.8479386583329083,1.1950959133816357,1.6869126537185282,1.8204374336831248,0.9592316340954334,-0.0106152148059695,6.622240874794539,5.730625539892117,-0.0619829188651276,-3.4180778591456544,2.8270517220120674,1.2111726401111116
1.2580870185696205,8.570406404284995,6.410104772531275,4.330832328959332,-0.1826129993434069,2.5802682334594755,2.714089820376063,9.751285293228303,12.631662944931495,7.012975758424858,1.1576744365677825,2.826221178095864,3.709643732016207,8.113265751353792
2.4003980561804177,6.6246735040674025,7.748035383441576,7.091633325753264,-1.651568927522742,2.971691380026816,3.290456216976596,12.845597784221985,13.919692205455172,7.400250018807441,1.763063597764961,7.495143080259595,2.521171467498146,11.235538905171689
1.461952570866792,5.118601558493651,7.119553397632629,8.29585547546057,-0.6349852212056163,1.738285994672217,1.6970115773676977,8.999525641319202,10.567418626183828,6.941076106880956,1.408210544007748,9.0285551107049,0.6857794534175897,5.961456873899309
-1.0667385928704816,5.1280227708430175,6.124838594687914,7.6378547415149,-0.3078126603525324,-0.0818710621811714,-0.6824126362516122,5.661351492118208,6.516971670306876,5.904235579414234,-0.7154416774542355,8.042613016390646,-2.2237488976826243,-2.1753418532160027
-3.0691433412924622,6.104691865392482,4.037638582029553,5.781398354724843,-0.8627814712329586,-3.47739070238274,-3.345916229768831,0.4100597238937817,0.2524868115679408,4.618645494044728,-3.682907476335648,6.337952670524459,-4.633162643241825,-10.904356437314588
-2.9932637915691496,6.726340168202,3.309573303803248,3.796925427360634,-1.6508212761659384,-5.655282918180026,-4.279916261653975,-0.923987930300307,-2.229109941190676,3.349320204980671,-5.14405130935085,5.2803094818451655,-4.3030371928355855,-13.691109101481317
-0.2415999421932891,6.298012029927577,4.239873010028138,2.443992128317234,-2.4663625372008804,-3.958237741455045,-2.006218119832252,2.9569995237135887,-0.0646680100605328,2.2697216487443086,-2.7359806724045024,5.058736608885624,-2.0256806753782235,-6.048861621101978
3.106099920781225,5.246884421346323,4.133973722470243,1.8390929065273556,-1.8662289980718425,-1.8752119360661503,0.5132204400918324,4.056135786524655,0.1254267951568441,1.4592878683833703,1.9998574935972209,5.195281915123218,-1.2594897050157416,2.079150773019949
5.1696563050363125,4.352236209601443,3.5400297718588334,1.6382494046266487,-0.160738712762504,1.357834124489835,2.973574117645013,3.815884688467335,-0.2341686833727023,0.8551564955903928,7.404605445874077,5.367955963846868,-1.3290369792999777,10.009361331899337
4.426043266434675,3.702194167080776,1.986302160175251,1.4448871978314486,1.5278329850114076,3.694576684459828,3.812923958312578,2.879533866376057,-0.2331280135858402,0.2135667033294908,9.520728915772064,5.49202493568815,-0.9817491010166122,12.739456039028989
1.548116523903217,2.559737521908147,-1.00583040404721,1.085805125430653,2.2585724027141207,2.4003128367072537,1.9553769999473556,-0.0493283286464775,-0.7840930863026374,-0.7970067798096068,6.414412375440571,5.106479046775746,0.1961975531487859,6.251432426690975
-0.9986394816769888,0.2535526056312491,-4.531979435279995,0.6367967368658753,0.8463678740558543,1.1663934031778012,0.3054633469052265,-2.3890657693080177,-0.4755920391847594,-2.355448453963348,0.006036644403578,3.124361829348992,2.1169466287457555,0.217922032251688
-3.122147039241971,-2.8956969750421635,-8.879247091704329,0.2976491181824343,-1.007762221870683,-0.2003037635853459,-1.2955919994680007,-4.366386012314965,0.6382455036030679,-4.258476099113764,-7.509039845835722,-1.3043869043689256,3.631212904114524,-6.585841209789309
-3.2736014381136584,-5.616754607417034,-10.617451673830288,0.2338317820465718,-1.6703296494484683,-1.3918245414614565,-2.0509516624331043,-5.139243472595527,0.3916125860510276,-5.9085636195784135,-9.78287826069088,-7.441571686275946,3.0650029571637294,-10.0074808416839
-2.035048519137212,-6.693953692489196,-9.325386036504872,0.4376293732108838,-1.068828705318907,-0.752659254920063,-1.3426236567195562,-4.085142247428284,-1.1150238693229964,-6.593783394201298,-6.24642962000702,-12.658875001902668,0.1671060508486131,-5.874961813009648
-2.370452778032777,-5.994941753592947,-7.748572718949629,0.6703313875452039,1.4698188620037662,-0.2460583067859673,-1.337640139835917,-1.8533636034219685,-1.7186986163792832,-5.926961612539415,-2.241296626826503,-13.984818916502896,-1.587596851549597,-3.0396057904424203
-2.324432391633229,-4.584464662411307,-4.979617265836613,0.5798150458452582,3.583511172753977,-0.1585441760070073,-1.3618786379275674,2.070254383759517,-1.7499835685641325,-4.172412251503111,1.4859991574837443,-10.461684470274813,-2.5547404820560318,0.7382703712934457
-1.1742211040784638,-3.8419267852989663,-3.3405626381125617,-0.0104231739284728,3.3203970765503272,0.111871183116337,-0.7624878177834596,4.270943562277269,-1.1807808723084576,-2.194822038872047,2.62002481802926,-4.194877358896832,-2.0451301644418924,4.035847111248095
0.0951448890409056,-4.356880553056968,-3.3042930990858728,-0.8534169936640268,1.3429704222707315,-0.0972711712179862,-0.3730368520035888,4.536818882210013,0.4151080535103299,-0.9513433173212178,0.5961019218852645,1.0692003787337967,0.1608356953477711,2.05290207519802
2.493111627041774,-5.519100061237054,-1.5166035548769037,-1.3550308439823766,-1.4638523139801018,-0.2659119957480311,0.8715589737661594,4.191456131519465,2.211102205086568,-0.7927317122995703,0.7193777475410539,2.770382625599268,0.400426694641055,1.6663626720062858
4.610204027516518,-6.116249782783683,1.487918297737812,-1.017079646080731,-3.4241302998432337,0.060092522509665,2.672036093101628,2.3152529569123894,4.357877199882398,-1.1182170426807545,2.4680943848541284,1.3361778158048023,0.8000799901439553,1.4457211187302184
3.687612317171306,-5.42986265904878,2.936812520386842,0.0826873846568787,-3.089127822644729,0.2102662644694026,2.665824128595794,1.5793668888198271,5.335856680707636,-0.8106933110110504,2.540546379150073,-0.5716521756187944,1.0159979547465954,-0.3437142862512813
0.8978842371047595,-3.906758990895611,3.159704224446835,1.2262015703724671,-1.136104442267284,0.304811959388912,1.2314711051719287,2.096092493511593,4.862118262079782,0.7444072906916688,1.779964108260295,-0.5570916853733934,0.154197633117107,0.2322283504009907
-1.1624018657415482,-2.7897701760285827,2.139667996925975,1.5539387491137404,0.3653593566673168,0.6072594369036672,-0.3385762600984643,2.85744171114986,2.6628777920361584,2.9084576227849084,0.5760603491578933,1.5894257504958773,1.51326850351921,0.6524238037931851
-3.734322355526525,-2.9286768367920786,-0.7399610988336999,0.7789979510178,0.8902531085374599,0.5652159716532543,-3.006073376326581,4.5312929170092495,-1.8710735508529364,4.123560543143242,-1.4912139612339892,4.147339775719104,1.993117313607844,0.3938611180114468
-4.307794925796942,-3.752437788834243,-1.717887742889178,-0.4767093128350552,0.2442926161763662,0.2055644216560982,-4.177962495884485,4.707145157597839,-4.387862866985413,3.229751668301958,-1.9347180603034453,5.3485738919483765,0.9697191021137734,0.7609908046404731
-2.154930369290943,-3.409848504735578,-0.7482493439952794,-1.0746440129547068,-1.014826361393276,-0.1711055512197455,-2.299254058859435,3.2399826379983656,-4.876872664664888,0.637453033176314,-1.405878847300961,4.922368517060477,0.2120784400921341,0.2127111217962989
-0.7131430199780084,-0.2094767479009647,0.9112126300108878,-0.2590197223955215,-0.7696780061115874,-0.654593857868943,-0.8030532944297568,1.801167565975503,-3.8449916093114735,-1.808296240441848,-1.422170784998947,3.945362884453516,-1.3227583795057518,-0.7419121220739074
2.598134414597892,5.678827936487153,4.184756182711494,1.6164616364469566,0.6214554976871807,-0.9017213263366396,1.8781010101166649,-0.1659621311028035,-0.1446377059556576,-2.281083005999278,-0.3735949535850709,3.4610422088861696,-1.006803066225642,-0.9381823262314068
4.710740420800254,11.744097159886792,5.2270226956858,3.1795444611666426,1.9054602155401572,-0.4704652098088029,4.209271788350569,-0.486522630276796,1.517562423203805,-0.4729637467023622,0.848291216238836,3.444636340316606,0.532484630503577,-0.5328704879697144
2.6804576683336894,14.546943028792157,3.818355588570984,3.008813981252274,2.3757276174845736,0.1715802520979749,3.007406379605311,1.2084072211957464,1.1698393537345235,2.2129336861564752,1.736692368426522,3.086951759188082,0.5753950086671069,0.11438894685986
0.9703939885196764,12.153573716269989,1.425922666062011,0.7967483473787524,1.07298200413253,0.4301868140850543,1.805765660140904,2.0679962280558963,0.5300005149490081,3.88931805401819,2.348427801245984,1.8830090842185427,-0.6139056375164165,0.2595175063703313
-2.608176857392804,5.735191424502091,-2.9615481906502006,-2.262532178534798,-0.8477334295501758,0.6847763322115024,-0.0551372457330576,2.594172458308024,-1.477564811222174,3.640130315981878,1.0896865108841314,0.2606411532683523,-4.422828195857319,-0.3364355846189109
-5.206552390799288,-1.027136489416307,-4.309383063761737,-4.297401038197904,-1.8045294726187056,0.6229239082998882,-2.115188662837679,1.8767768249315009,-2.114268513576357,1.9516385379531584,-1.5042228247460088,-0.8652932752042943,-6.9966768092049705,-1.0591221422478765
-2.578987572541734,-4.40954468347104,-2.274335546654178,-4.2071080382906985,-1.293810933290755,0.1865282551104668,-1.748387331820704,-0.6749675145061466,-1.228131875150314,-0.0027937472926851,-2.7115313932804948,-1.0274804084506286,-4.089319073042415,-0.9382106767213544
-1.2850802155901224,-3.1568229687243274,-0.3005559139122119,-2.519732334353876,0.166029358736652,0.2297532478918505,-0.9799812411118868,-2.293735669600677,-1.106578725500136,-1.305655059108176,-2.43148410396352,-0.6115823046168316,-0.0052238670484116,0.1788232523731302
0.5373013653008716,0.8538348459696863,2.8201018609439465,-0.8819162043661208,0.7067423911356242,-0.2519469962553975,-0.4564849880853073,-3.264047465148118,-1.1790379804852564,-1.6374414738459109,-0.9091710411857684,-0.383245180008771,5.939264222252897,1.872665220464875
3.411670657181835,4.229733370908889,3.6537911689712463,-0.6173193090289715,0.1769664410583815,-0.9604665442883876,0.2450984603367046,-3.754043582143632,-1.758004237879946,-1.086850530758397,2.2262233810665437,-0.7216469269870913,9.611424223852334,2.857309756642498
3.088101129361447,4.614035401678848,1.5850009170973969,-1.6567588550815344,-0.5560936738502924,-0.8163933675662689,0.4455472800009967,-3.1935916476777693,-3.1853974283594937,-0.0274827797529724,3.758165331025133,-1.346580855805314,5.971691668800386,1.91451324614518
3.57080252450407,2.190160250267581,0.4273270909633321,-2.7851418132414665,-0.9990161803083342,-0.53711850215404,0.3383612506823519,-4.101557555884265,-4.159546829446338,0.7493558273090457,2.0128796257725456,-1.7078553937119525,2.154362404855925,-0.3403229036141029
3.6085000675099934,-0.8674643408627958,-0.6861650893978769,-2.8739087076624514,0.3619593622636713,0.6002050034990483,0.9045588571909376,-6.4723376106868935,-4.802959734683601,0.1409777913138441,0.3343069879472657,-1.53594464861186,-2.405256998372461,-3.4809969980246382
0.6910055079274795,-2.3102040811072584,-0.9829286470557372,-1.8535204205992957,1.947279062324559,1.858101471909504,1.0650458203153816,-7.523284854771798,-5.253117672303111,-2.5045512204819147,-1.517811687961228,-1.0086386040827051,-5.76356091751662,-5.140655139075748
-1.8439847463054069,-1.4490619427681397,0.1644123139888722,-0.5495820392758333,1.6145157363078115,1.7455537518754427,0.4351554821792815,-7.645690112777285,-5.244345015261321,-6.446212981032545,-2.8462939376081047,-0.4874814802460605,-3.753299705637329,-3.4530094039278345
-2.333765017110501,0.6704262448758982,0.9508600241198572,0.2682718970977475,0.6790887784518543,0.9174826309955272,0.2551282381554373,-5.756804468768042,-4.426252362646805,-9.53165986784461,-0.3305058050004362,-0.2020070933981514,-1.3806255163607437,-0.0268486265529122
-1.8146738928388493,2.3884988501094995,1.7254387750570397,0.5244059398559102,-0.932755008746935,-0.314861656966844,-0.2662400830547859,-1.1868996372070142,-2.655481326635788,-9.59517209526416,0.6625296649633772,-0.1943754270115505,1.6118009306854777,4.554394365204285
0.0826809518224175,2.720624681237041,2.1830962345698763,0.5620542051005941,-1.7598629517389073,-1.1539628703379674,-0.4338747794834056,0.5053529474849333,-1.7552189902141049,-6.310398854823006,0.1856371572574804,-0.4626050275402349,3.8606318170866514,6.70013866369482
1.5580720119587388,1.828943002920937,2.0136254830858475,0.468830553665498,-0.514756252773246,-1.0109281823184373,-0.0818362972147803,-0.5842743199551675,-1.7207788651731035,-1.7626541938159337,0.8024897778543343,-1.02994976001753,2.214120587789262,3.990597098817082
-1.1422283868279273,0.5771788576505514,1.4897080654024972,-0.0530375439309409,-0.0284066314723248,-0.8758633925216758,-1.1762342078094674,-2.489697784040703,-2.9685285718771444,1.055471320591323,-1.5628739229671256,-1.8297828911087208,-0.7793456046751208,-0.0869763666583388
-4.021868043095816,-0.2212940366234761,0.3929064127489169,-1.0664789783685364,-0.6742458817109381,-1.5948928376330676,-2.496527296884759,-6.483631888425305,-6.043891319429458,0.6758441837363307,-1.3929000787127177,-2.5816821164161183,-4.747696689700321,-4.680659526018354
-4.231508656194948,-0.2596732030009434,-0.1434308174691555,-1.841595427935772,-1.5424563183959523,-2.1709930727639795,-2.7175899761115474,-6.946481834953349,-6.29088086903235,-1.67057805936588,0.8609203620488179,-2.892456550600741,-6.9806650270403,-6.3899873295469565
-2.3010587466734918,0.240458158344154,-0.064946687341847,-1.2348730948860975,-1.9922352020218592,-1.7457790871032968,-1.9569246176577704,-3.469330495992743,-3.6579960497835393,-3.272580566999977,0.4904950875552687,-2.56369646039218,-4.336018434778633,-3.000114371152716
2.709081117590148,0.746294449468337,0.4584622697243546,1.16059283799666,-0.2437378819043306,-0.0530465479344571,0.740501266075666,-0.4852801432611109,-0.4788308751500316,-2.438409912727707,1.997453050715898,-1.8068560527098043,0.0400575785570182,0.5298778921562934
6.302640479695756,0.7010998748334032,1.7484328910717752,4.258167414318564,2.88220377972723,3.318705382688122,3.799393884548437,3.301656777974162,4.317798001384255,0.0790182803416428,0.9238404830595768,-1.096236026156021,5.316567965354088,3.639769994362408
4.792036617486413,-0.1690163292017814,1.942283117699224,6.066592834836115,4.402268168291573,4.799985684189833,4.208666687997451,3.981019650132019,5.68237500917028,2.030954960054771,-1.891396612574162,-0.7467545671515836,8.224836087822071,4.47271390939992
0.5123913557587793,-1.639759275903316,0.9865288584740568,5.2718577594236535,3.1471540719694966,2.6049402639502195,2.358408178149068,0.6637246967654663,3.0533237080034783,1.9556587657767184,-1.0699024586153938,-0.6306185491902738,5.546092187403753,1.4252619502270236
-3.6080294241905184,-3.0864835573087817,-0.16278261356602,2.3932557197682627,0.1069974795955816,-0.3694443909321181,-0.0009948870267423,-1.2789299644804304,1.7542073508337286,0.4882912175924616,-1.0530216462590578,-0.3620631863875019,1.775294546162948,-0.6637504018472106
-5.889455373297842,-3.953820483276786,-1.9458732165226196,-0.5905498599840371,-3.322056190033505,-4.327301194162216,-2.226974406239464,-2.839331766398023,0.6443992080571648,-0.5254086900129096,1.2201106078342066,0.2001635569371274,-1.8195378142741885,-2.0479633797578702
-4.210942999633,-4.243960258652862,-2.2488800486071194,-1.8344442955609568,-4.564617204549792,-5.6696636196131065,-2.481977976335207,-2.955068018738232,0.4989280115304481,-0.051307453669267,4.351894861782748,0.6677936486012186,-3.4819100370503677,-2.37311941709207
-0.3998866205814941,-4.488505008286495,-0.8393570577081966,-1.0069139116506562,-2.7359710407041367,-2.2539469258964884,-0.6323805193712811,-0.6157584767615902,2.215711889817027,1.1375187389211303,3.276423141356076,0.4283872809354534,-1.2900002221347582,-0.4573613217958276
0.9721027190225008,-5.095332581182504,0.3061033783602013,0.7095510483691783,0.0298192648430953,0.011808582638678,0.2244212954069083,0.6743198211397773,2.202566177921424,1.4669561450409958,2.106639183145439,-0.704815127805773,0.6571655662379049,0.1104409695808815
1.5260048070958936,-5.682249666144372,1.689805300955426,1.828811448636003,3.251829434071392,2.1903458986271502,0.7930760469484806,1.3833265814129536,0.7669633819066674,0.3993971497696691,-1.2265334949001638,-2.163459755739467,0.7494472157414731,0.3353141015483162
1.4560469121554245,-5.211249855587454,2.02615963681284,1.7534145567553594,5.064921599587743,3.6175552923806578,1.3702920281320945,2.7696640070296823,1.1500688326943938,-0.891212130005556,-5.226479441731427,-2.9983235580483267,-0.6428805898580823,0.7164870853563371
0.6981692525531096,-3.0186966205425563,0.9251123592875709,0.9244343106660438,3.499872876110098,1.9762547810414048,0.6028194919622871,4.292571054675122,2.893712977984587,-0.6916143574128171,-5.223872062445841,-2.6029252957243045,-3.0604625577640707,0.1744359792317172
2.9691273898806627,0.1903421260924176,0.3627218473324635,0.0450302852649997,-0.1232575379958953,2.148794457787584,-0.0889175613094253,5.170316184289945,4.511226908863768,1.512767887521008,-4.544442923220905,-1.0556926206019028,-4.075690044407168,0.8085101499457914
5.5195489030995,2.517135833753344,-0.0178783286271189,-0.6545039639728856,-5.646949468174936,2.3706396568870094,-1.5403848575951813,5.388834241182987,6.512330125066784,4.545396660591081,-2.333271413514981,1.2177031061919763,-3.033978266511365,1.3144259856830034
5.318833538353292,2.311560426301717,-0.492728141073355,-1.382339785845275,-9.411940436773769,0.814118720017708,-3.3471472107655424,4.531602347062012,6.7387486250595705,6.722669746460859,1.0941609417139628,3.970300103959943,-0.6522327354234421,0.7916918226094144
3.122640628034665,-0.3588180542374388,-0.756966389941533,-2.2100369506120856,-7.414292211086929,-0.3111915341235274,-3.2429555159179504,2.3033905524777154,4.820601402553817,7.407684436817934,1.7022062923255017,7.137292591120243,1.48000739797988,0.389864879640901
-1.5103213261650468,-3.6632505400746096,-1.3014539293209186,-2.7655712052004207,-1.466403600958525,-1.7141590599140757,-1.0905832231077013,2.2646175389679204,4.548288543707148,7.351026374693036,1.4372407312313489,10.26552932341376,1.7136262430793383,-0.5461592900843241
-6.876635667995298,-5.539775416777463,-2.0967534945831194,-2.613973090212633,6.707236984685501,-2.586520844850736,2.8422118991587846,4.49580338350217,5.5185493689971326,7.5968208892792894,1.3803747368175634,12.127495286115304,1.6333291200748583,-1.1923381721415531
-8.134913117485349,-5.382934668977349,-2.5097652040426097,-1.878436202956536,11.50711290892787,-1.5613329030022,5.59242100809464,4.539184771558815,5.025229061475524,8.207051430679272,0.3782667179119125,11.25543913744034,1.093869474878763,-0.9609020441085652
-4.885201824537039,-4.267102789137503,-2.5823124970032363,-1.3185467003625604,8.634913965102182,-0.1892636056792301,4.64794423290553,2.9677958592788185,3.606871299125614,8.139688718595743,0.688185686261604,7.172436799146283,0.4876840636595081,-0.7305982477781466
-0.972471994611533,-3.5557547869744184,-2.8836586170581047,-1.6554758777089231,2.4516140371528747,-0.4047745907622716,1.1989776168331492,-0.7934276607807494,0.3695228974834864,6.348294409148792,3.237521453366844,1.2007688864269,2.372569953778048,-0.4067470034331459
3.354220847331374,-3.4005272223394485,-3.317164270774024,-2.791293320022845,-3.273929128076896,-1.2185153098996997,-3.3402284630241987,-7.724605955330538,-5.249946450847995,2.944980524405935,5.336413533668652,-4.086955759527939,3.5527038000635307,0.0496825609458547
4.926181614795752,-2.727396592300508,-3.485800047013398,-3.768376494375616,-5.22526029340712,-1.8499394359929289,-5.604233708767737,-9.06212532387397,-6.671672640543149,-0.7103566583366785,5.893140024431846,-6.515123992007773,3.063577607120051,0.6366373866479795
2.152400987004395,-0.7029691584144615,-3.455318792764548,-3.6131768058789646,-1.9452804042951723,-1.7000388002533406,-3.3967222122409417,-4.598010143658864,-3.765743546799755,-3.026949974913066,4.860019058537278,-5.745557247822276,2.0430176727506333,1.2408566219748605
0.5267097086246609,1.9455413628760423,-3.362407589616857,-2.310322431597001,1.5477376393437932,0.4971969893084826,-0.0266874258517325,-0.998079417482864,-0.6673867095393438,-3.3327394372915364,-0.6273199681238265,-3.3453702945193413,-1.355625223724449,1.0942539852256998
-0.2672588251757417,3.2933858968844163,-3.1427312151580518,-0.9659918271320862,1.1903082063358523,2.988355172031736,2.6582622353128835,3.585330890632447,4.09314292774605,-2.1989469790168528,-7.655373189819905,-1.505551225863229,-4.215325037865003,0.2125708586197388
-0.8489772250204786,2.0448588118934765,-2.9726712428593496,-0.9340610200268884,-1.5211552242206334,3.690659507691374,3.609232293221997,4.826419534547056,5.596149368515657,-0.8328855653051335,-10.067211062661542,-1.521138888463014,-4.304328895580402,-1.2339864674598398
0.0447260381927985,-0.9943748666948408,-2.8750879367690096,-2.6221134603779035,-4.150849669730674,2.5653347665223643,1.6756523278546436,1.4719443542181871,3.018556109284674,-0.1932966981490551,-8.094269270434946,-3.1648186035535275,-3.110704964770862,-2.229286139845168
-0.4645031916254746,-3.3816507682392114,-2.303511194364365,-5.007087729112413,-4.9948080800194425,0.2704013691086117,-0.5058712246400847,2.176309298257785,1.8566005958291247,-0.5106449065402501,-3.1628347923528985,-5.17045901469757,-1.1219784373532942,-1.2467671119070671
-2.123406571568773,-3.1316537052835542,-1.2612871307970213,-6.305521905683349,-2.092601631201714,-1.9293598255148052,-1.090528218574292,5.986146697708839,0.8930664332115816,-1.376580863142209,2.931600010749325,-6.168891612541586,-0.0148061269313737,0.304721420776552
-2.201329502781044,-0.4812896920903426,0.0605505704607251,-5.289417770997289,1.7246689007419789,-2.514707464840391,-0.7902590193271446,7.308200817557551,0.7028071927880166,-2.129869179653753,5.404627354375311,-5.343206270111779,-0.059336021730936,1.5914676006907589
-0.7409867325319681,2.3871607966282227,1.792792079586346,-2.213262355764442,2.786930503668478,-1.3948818984875868,-0.3205452208036596,7.39496116275362,2.155901802033331,-2.245267259681185,2.94706682588286,-2.6229070855563066,0.3866898144047252,2.1103679456759643
0.5453378733058559,3.430761318015982,3.492795925276149,1.365017241580432,2.106370608835024,0.0689485476746724,0.7196074444996965,4.48681586846768,2.401438149512069,-1.6152830021715945,0.484297069133433,1.3344176326466195,0.6999768261664856,-0.0198518367956312
1.82670723085648,2.65197913676937,5.135810463188857,3.709205796850824,0.6306790426257374,1.1471281129345992,0.6500744345661917,-2.497098583131468,1.7475920182142792,-0.6661274613213379,-0.5485632259682308,5.249166205695559,2.127886870536177,-1.852102026241789
1.849867015439401,1.9875729206026165,6.158992234114806,4.094825410773666,-0.7155929125390479,1.359499386080108,-0.5177268225624632,-4.717568780095019,1.3727126153333151,-0.170193604925771,-0.8546792593840635,7.617297526033838,3.101083959654659,-1.873963584111923
0.167836225010599,3.281177590895169,6.372041457395337,3.1806138038352856,-0.2509128205453766,0.4390060502678143,-0.706048856164001,-2.3175842332129584,0.8135236332730018,-0.7026043901716434,1.106684648473553,7.517478901520093,1.537508098551267,-1.1528447051787003
0.1519092124612164,6.312897699608442,7.081955158055104,2.374153219674838,1.5416441536020886,-0.8708298733557608,-0.9926233476486188,-0.1491106844975719,1.022938066108142,-2.0415047040150966,3.589806180520278,5.394399210257518,0.6686918143263222,1.3549347846438216
0.8608527451513537,8.849690175908506,8.155581556821227,2.7873208836022627,2.353786967863982,-1.8627501660269408,-0.6319783828309371,3.638640838545803,2.179799409261655,-3.081752649669795,4.016193284680839,3.0200923833880893,-1.1247692511907033,2.648424312414233
1.103060210071734,8.749600647168478,8.24717163592391,4.596198989973743,1.9005801604822328,-1.9883026241012005,0.6486165211900332,3.9587946816175785,2.011770589347716,-2.5639953099322668,2.9469844673229573,2.3077259075225243,-2.428517956595868,1.4617031094326751
0.7844720216261684,6.131661541473704,7.500431176723304,7.147591415295409,0.4995256443529932,-0.9959241313406688,1.4632158221192488,-0.0253791157428941,0.6331626125953074,-0.1862474437160699,0.5131574065216122,3.722357966738685,-1.2326107578730383,-0.4439944191616665
-0.5926303040978329,3.474928061821771,5.841479045057852,9.490664382109657,-1.5133878208264675,0.3774364147079416,1.0645719109409642,-3.0576795816735163,-1.867491588075724,2.8573397960730347,-2.2096223497545995,5.672969517735936,-0.5256198604163336,-2.0733250826350598
-1.7637854958360168,3.425949718409072,2.960746253176592,10.795944246137909,-2.536173565322071,1.5081925106793883,0.0777286000849884,-6.417222636586914,-6.045582582260767,4.538999854190735,-3.0798339091604285,5.642987815400545,1.299151482787327,-2.169767358562828
-1.9311125628143728,6.271958127522183,1.0826948661244802,10.471570685208206,-2.018776289347956,1.8562897637314024,-0.520812447888548,-7.530191792376335,-7.891771107777659,3.467528731884414,-2.0908881642962585,2.302572721231116,2.1894637351173123,-0.9753966829385016
-0.7848145609008891,9.406905927928191,0.2456040944754731,8.214686253584475,-0.6119645939604124,1.3306004573483314,-1.0220949573372335,-5.424070044718655,-7.280014824231519,-0.0204342799563619,-0.8989096693281147,-3.1854956945275177,0.4223635241702842,0.663563530903206
0.6906807018768412,9.338816718258798,-1.590662638383565,4.231454830304472,0.6324281451610512,0.8763703388392207,-0.9169266385815376,-3.65584546482742,-6.376353278093001,-4.085923844614072,-1.5869993002529008,-7.906208417385002,-0.4086628676773802,1.985745615071402
1.3936285927228282,4.54085487647076,-4.004022590115428,-0.5424861791793347,1.208617309067924,0.7679659904125024,-1.116388772114946,-1.3732635522867302,-4.2318384292866815,-6.740019840223297,-4.026881379351282,-9.45664880677812,-2.0154517116005675,3.327994026507895
1.3519078271696447,-3.231031294113194,-5.675629754450566,-4.6416858421589495,0.8273775266060933,0.5491328036651265,-1.6319704525136118,-0.0081631888329955,-3.66232935476411,-7.170351526957859,-5.175887524827857,-7.819291988900602,-2.4875960702051274,3.979436603612685
1.214334371238826,-10.152336617534331,-6.7999834400014345,-6.811035360896966,0.1628660614973469,0.0588532252820218,-1.4320484629530832,-0.1756935707326879,-5.018736360873242,-5.995992931468379,-2.59508283791462,-5.233497535184668,0.4668885023739531,3.366347243785801
0.128099506462078,-13.002261682954328,-6.702562247091304,-6.809035740578096,-0.0241683364452858,-0.3259020927499416,-0.4351854236221111,0.1608211055047635,-5.436952476304441,-4.443702751848591,1.1618302076418665,-4.222629521713685,0.5459796455235535,0.7707704521702498
-0.7551869926460082,-11.217201765014003,-5.03520339298937,-5.568177872273367,0.2630794085581074,-0.898841307700458,1.7255358990112484,0.4974149045198435,-5.5691663721007485,-3.3590292163101623,5.283327599194736,-5.540604169773289,0.5753853217595923,-3.947788870169254
-0.373275759436725,-6.944109969842621,-4.094012450843738,-4.489834428710246,0.8514501611233476,-1.1547313942350206,2.985241077112556,0.3499259728411995,-5.123702995731904,-2.9027624110967665,6.838225294046244,-7.780560281227302,1.247397589148374,-6.538134621117508
-0.5122834149270996,-3.301417407354613,-3.7363471873688354,-4.42491109405757,0.7033963790278519,-0.8161170082641364,2.4189271688880307,-0.0754394230680763,-3.654590080781008,-2.9285337514728127,3.421755461372118,-8.829255374632716,-0.8010814656957866,-5.494962742816439
-0.8059843395594115,-2.25160958151114,-3.720627325074798,-5.18543047326169,-0.6135703311431674,-1.3203937091479985,1.650342099263672,-0.7638756348018939,-2.677087044142333,-3.361041076078997,0.9659718748803072,-7.746934218084512,-0.2023465466972407,-2.879193007474027
-1.9840289045584545,-3.557848245467497,-4.569215766540215,-5.935243743376493,-2.6874574958903805,-1.957969852721125,0.3998596903483622,-1.7553563347746854,-2.040926316779118,-4.09402496830408,-0.680718495480194,-5.433812512641588,-0.2680183394766459,0.7527458062302644
-3.5131860034050666,-5.380175931058357,-4.393909061712151,-6.006443959712758,-3.857159309838135,-1.7737296360282024,-0.3628667927094752,-1.925654348699455,-1.4183759088032442,-4.664523653597506,-1.6458025581525653,-3.6607206037512254,-1.923709194109672,2.5145579049228157
-3.2917930536892275,-5.875060348133104,-3.223890710393298,-5.370864160964889,-2.839585716882041,-0.81754869500599,0.1086335392294107,-1.168207628149199,-1.0948715827988147,-4.316940760854422,-0.9093070208246432,-3.464697387424956,-1.7778845002808294,0.8426228875881023
-0.8823355809155914,-4.507861816135285,-1.2715751987591717,-4.431086714978155,-0.1027889452852288,0.8142146340299301,-0.2952716428457291,-0.4048586671737879,-1.1129238537269637,-2.6071210963930973,-1.240245468772926,-4.300848777641948,-2.022442806724804,0.2471404181475882
3.339745072809835,-2.129146226279279,1.930585906274812,-3.487410337260082,3.6141202028184662,2.5317385806931405,-1.046254974948662,0.644053385598667,-1.5407835125071263,0.0435060105348219,-2.147112881458151,-4.549094469600631,-0.5423587010414734,1.1520548927737329
5.625466502792275,0.0549546923835819,3.110896876960942,-2.4753397271496507,5.305120021671638,3.0336218306882103,-1.0587468616373117,1.0860412610672272,-1.6668434887154298,2.5375925674727995,-2.374412395909426,-2.848412566222561,1.5964173452803765,1.4018760776615424
4.312283552821571,1.566002105258196,2.1382807818541942,-1.1803936871354814,3.625675864216873,2.040408145193142,-1.133877868588404,0.7348477296322399,-1.481846966931702,3.989231510884633,-1.2336302173563425,0.8123895724440935,2.3831338079403297,2.0309206234294788
1.8379774270991929,2.801286484378544,1.4615460927167074,0.3909575581958435,0.9924795291772852,1.15906918179351,-1.2550759245972138,-0.0093217314929309,0.3565677585917339,4.450993398486855,1.0194578994972785,5.018582330316455,4.2517161810820845,2.454831888177398
-0.85604592530656,4.249664840213349,0.361021137953177,1.911962460810603,-1.8656525543028155,0.3386803538560789,-1.793625090474845,-1.4491903987457024,4.188485221579295,4.676550275346507,4.021052296688195,7.877143056801451,6.093438954874334,2.4098511126803537
-1.671487648995588,5.709499267166059,0.2108299234753584,2.9772980058348466,-3.001635093342398,-0.3238433782340238,-2.518172936424012,-1.078533892039396,6.242564576024805,5.092702458738422,5.49675200751512,8.30922319685763,6.1428690118451925,3.2459511922061783
-0.2148317255567585,6.37571384501198,1.4233983634369514,3.4003218380240483,-1.353146408911795,-0.4332782563753798,-2.151298416166483,1.2917481312258667,6.70185184918575,5.069291109964382,4.201150958876378,6.78179769300808,4.64214556011333,3.786516339149243
0.1737482042156284,5.6977765071927,1.3131280954913724,3.298563682020209,0.1224617392538034,-0.4221987681476785,-0.13921237899366,4.817793677446088,4.82509833938316,3.4125890184344243,0.974645104072316,4.934801849851752,-0.1689407917310126,1.374768503573375
-1.2713227018919926,4.0881534183588855,0.1914669309114521,2.986765686138284,0.8665923380431578,-0.1733986853953363,3.310214668342609,10.2102536454883,-0.4027017122287336,-0.2088007533778721,-3.8227556939786207,4.341373166503587,-7.308869875231288,-3.122448475157181
-2.8442392608385827,2.7223189316572416,-0.0855329553655444,2.850772414262124,0.8095480579255084,0.0356735704928898,5.296050123693668,11.555860603351157,-2.5504704158976947,-4.300734739101756,-6.320231665760162,5.332524102543864,-10.358578155460142,-6.906397645668149
-3.249075866546112,2.58733971153665,0.1158325933149724,3.2485773427143414,-0.5241639033674999,-0.3708543798532158,4.084801958797179,8.423057455398745,-1.734813270216364,-6.243795201503474,-5.054400804070112,6.8246996164002525,-8.076200218647989,-8.064034029647857
-1.7196030576231405,3.6416921506101545,0.7889492594748203,4.337096440022094,-1.4952796146860332,-1.8750023560394533,1.5860107750933543,4.240632691084239,0.6820039104432001,-4.363435211898725,-2.493507077070679,7.290760924278246,-4.135382631438573,-5.635064059334964
1.832530068366633,4.809407464531802,2.259611878610412,5.837397201277625,-1.808881313281472,-4.137243430733268,-1.4764033565633452,-2.511988368526668,6.251998244858311,0.3872781629039608,1.1209961870057314,6.043423680389438,0.7144636451887894,-2.085658919302265
4.382470355407062,4.80395014563662,3.0781919693359345,7.003123116905726,-1.5154270912673664,-4.777847030074168,-2.739867588803831,-5.05597292817115,8.650831357782074,4.837253210969763,3.4718452699832283,3.749428584567141,2.938670500993693,0.8133414590952752
3.841041125397763,3.151383580194121,3.262582138563333,7.035886026793307,-0.4443763712433489,-2.5414407530003515,-1.043251979085385,-2.6180687574830643,7.724896087103839,6.062452798756354,2.3276726059148403,1.823998812874976,0.9064420369030648,2.0812830409476053
1.195772168584584,0.6754997438158767,3.8083041036307184,5.76796007221985,0.497497971066506,0.6814477950439327,0.4210073731303937,-0.3722697663332313,5.988368292821312,3.909975681583063,1.2003104649693983,1.352885880081942,0.567158719401966,0.972657614935306
-2.488650732717069,-0.9399317526427922,4.436057640854027,4.006213659494989,1.3659019321104815,4.625901229677494,0.7799053969410166,3.4229804417502296,1.9083556171444025,1.2760789587416923,0.9480514357504156,2.487069823371428,2.751253960877278,2.2179011080350364
-4.360532968095632,-0.3193617329493605,4.621593381143577,3.0597908636144666,1.5699835811862914,6.302665453254765,-0.118859006479442,4.177545873502678,0.9425849128147854,1.670815053431923,-0.0798934590947454,4.63801648743322,4.24761183271555,3.839597132495133
-2.858605681458714,2.4458624030518195,4.431956720238439,3.67967904098596,0.941058041478677,3.8507960995169546,-2.0563009278181723,0.995270269028282,3.4773213781919954,6.051396981122252,-0.3363862601260816,7.007127187166631,5.008358837064666,3.4326572803475988
0.1351511091221421,5.561274313412127,3.8798562525322176,5.284246346808402,1.0022995719827388,1.7003392635144432,-2.7451032123836,-2.1201855028503367,6.264191498312616,11.72712730686193,-0.1635105900173266,8.85351809885725,4.051033810139145,5.099539232759099
2.79273593137498,6.615686507912159,2.844815077356716,6.237695135334633,1.3237441700880408,-0.4255260314920178,-2.072891616063647,-6.476328235913806,10.650799298552023,14.438501040219748,-2.0103311969249447,9.45407167132835,0.1964055328132087,3.037011189386188
3.371238041193156,4.358518203766977,1.9504945889307623,5.089200270273992,1.4298571036780507,-1.7919497589084366,-0.4788681741485491,-8.21050263090996,10.50131983696767,11.913724061003307,-2.7692730455399133,8.179009574545717,-2.749736702878312,-1.11283877422525
1.421982357328387,-0.2044441186715744,1.1990290794824214,1.8113346728321176,1.2407227190846628,-0.9215742702323256,1.4312277303693048,-6.588087854764544,5.058601215084355,5.82740504629804,-0.7539905368003686,4.9109264298282085,-2.678158110193634,-1.7688152596991142
-0.7971117104595351,-4.402839896295049,0.3695591084413193,-2.005088243197619,-0.2811829657090763,-0.9520977422420572,1.318086904629141,-4.552239975539616,-0.1128004248847632,0.4270196931117738,-0.7164247232249321,0.4413198200668375,-1.8450411615794264,-4.049818393714477
-1.7957336386567109,-5.838521061667478,-0.3898895499051718,-4.228934513018203,-2.439850156947146,-1.5008062088798346,0.8786314712796885,-0.9626851348914952,-6.5324993519008405,-1.001371858384417,0.6095314359863664,-3.728872301073437,-0.1081563226773042,-4.082070004376154
-1.601634606928895,-4.146670615218554,-1.6745030652793438,-3.742985533822015,-3.2738361853069717,-1.3484513641050115,0.6934402945313676,0.7570374400400312,-8.4614348081469,1.2275642421151716,2.4862045677725075,-6.243727926132927,1.1246019565822878,-0.9491185279232166
-0.6055779809023037,-1.1724893075265328,-3.5230257489017878,-1.2866103171821308,-2.392484103599303,-1.07971437125863,0.1195372328404834,0.1124179658089843,-4.648223809139452,3.6944039684552905,0.8976704629228556,-6.743486493653144,-0.364966864899704,-0.1468595486101534
0.0025169036102781,0.505899326303016,-5.721961974581046,1.0560754984634286,-0.7793726572710126,-0.5144173967341175,1.45300013750372,-0.3767366046354371,-2.666503761674932,2.9814320672434818,1.316518215601801,-5.958224702823038,-3.0576813375723058,0.5722359841769513
-0.4249207396193988,-0.5549052550831988,-8.431714130475143,1.3333557081163363,0.8820704364232579,0.4045802914534565,1.851399301783609,-1.6417501206727363,-1.0408800865041596,-1.3803284483225085,1.458581398404568,-4.978755868568328,-5.639991660409409,0.8572898548349271
-0.7586963471405842,-3.839168716662144,-8.991272331449885,-0.9283173249852794,1.3231594456800353,0.6446848397092775,0.5364444505369732,-2.04525805112479,-0.8730948542835295,-6.655482490118331,0.118101630103977,-4.422830494648146,-5.995040095741008,-0.2157379781224755
-0.2466716665463603,-7.5240138250943716,-7.160064100922118,-4.472932296878142,0.4498118559602,0.1866235525225967,-0.5938861082627888,-1.2652371164382423,-3.503710530909555,-9.420443175328614,0.1208483379146618,-4.257921157747603,-2.471435814552183,-0.1176816918876997
-0.0988358680218234,-9.87114066156591,-5.429787893441989,-7.273759768736667,-0.2950429559131119,0.097934216556991,-2.030752426828081,-0.6488010893909927,-4.407511618422559,-8.493357496388533,-1.349831633775992,-4.2970079880456495,1.1001851849713584,0.2881291713709792
0.2007009956819098,-10.233353148757956,-3.1800502584095294,-7.925327110913798,-0.3961816611547107,-0.2057786108463272,-1.8934180614623493,0.265875369447013,-4.124707694819665,-5.668283929844847,-3.183101973080105,-4.643659764711778,4.010213379164039,-0.2490295023180997
0.6979085622252774,-9.070414635385175,-1.4997568748422192,-6.430450233502903,0.2550109349518926,-0.4765330961931096,-0.4366713111087779,0.5332376856069653,-3.4725014636371787,-3.740051875149163,-3.2133502888563354,-5.461909778123996,5.433213199386079,-0.8303259513888763
0.6862708434443413,-7.198663872433659,-0.8356012864793706,-3.8924531756848992,1.1932478383008125,-0.105363926255825,0.4262822920822299,-0.0440167349340406,-1.6343857847298306,-3.78935589197895,-1.5539237907937553,-6.305415709603309,4.03028817715115,-0.8407405224995341
1.6607890303732469,-5.000574635976292,1.5140260463288109,-1.5156939275864545,1.5901822669193588,0.2860984098233253,0.6683677228402285,-0.6373926597111009,1.3051897442384732,-4.286040316088737,2.1947387642497884,-5.920289722169759,4.453529269763602,0.4395175954974113
2.886378838055179,-2.236735763180434,5.295285492398745,0.1817913472979491,1.3422697595886357,1.3231337660116782,0.0761722940336845,-1.5183466890857231,5.548946093455046,-2.776666059600874,7.198118569829194,-3.102492988876421,6.289379997985892,3.4290366493156865
2.4732834353182764,1.422974645397865,6.538858258492364,1.3416747442679906,0.3557638440446459,2.1301048010302908,-0.5858880409744625,-2.1561641657128825,6.943085563530601,1.5181182681212777,8.947869115611553,1.9404497961401117,5.640435157527821,5.287241211212417
0.3978290456775843,5.620915249769418,5.429292950404445,2.125082953123496,-0.9580636996638174,1.484171135622328,-0.0853737242352504,-2.4275264561181187,5.189521452354871,6.6651483120898725,5.252766547650538,7.047008336495424,2.032681721932282,3.528587706960129
-1.2490170010125492,9.00805391634406,4.086050683309965,2.222707519529216,-1.1487802208820728,-0.2212022754004922,0.0051507928991646,-2.7284304078111594,1.63193100628607,9.478421563599866,-0.3161172263776708,9.204493693061062,-2.2291601571897712,-0.0141775680469254
-2.436939800988737,9.819159027234956,1.7065397848364858,1.0758707181938654,-1.1037822067931036,-3.086826384091089,-0.5435055358004848,-2.892800498050585,-4.918180799920032,8.095796170143387,-7.18099662843801,6.666657134166535,-7.688043016070903,-4.759368596733564
-2.5370749202307232,7.039121618058097,0.6605523673507295,-1.4004542182185062,-0.813950424321704,-4.262640096241856,-0.5728474161994065,-2.181329050041192,-7.625303556900933,3.3700285295851424,-10.468863692771034,0.4007050202135378,-9.755989496961174,-7.206164317371772
-0.881461800248728,1.3343747121318597,1.337767261744195,-4.373617663732992,0.1297219961204622,-2.152604936308018,-0.4368446636814526,-0.5286973595091554,-6.100180119446637,-2.008950374896081,-6.829161417409485,-6.405925180030897,-5.574834066538077,-4.452254452381326
-0.8975392882132085,-5.000277678738065,-0.0970910661236345,-6.489433446526505,-0.0788359685976982,0.7728542306843678,0.6275085835937133,0.7731802468662198,-4.80019677729495,-5.679632310903608,-2.8734493262448435,-10.46068067724334,-3.15552394494009,-0.7442638709049086
-1.6683110506216403,-9.166305966142666,-3.188181199297138,-6.845732573717242,0.55039530291006,4.549239797449116,2.591531451038589,1.8437678757472145,-2.097853595264089,-7.113818117262851,0.9398033029704344,-10.447851620767649,-0.2648859499493647,3.070081424357296
-1.60965999676609,-9.40234100727196,-4.568440380516284,-5.66892012333571,1.7828575687774362,5.658757599162121,2.8480045931779925,2.4702162183172662,-1.3441858175470451,-7.370078788099758,3.086886488638894,-7.526133067532712,2.411363549646836,4.874318246891617
-0.97575491132412,-5.990253108066904,-4.690082949835316,-4.0650085838548105,1.7392251853522829,2.061071804580806,0.6298889555557251,2.339069226913893,-3.1893440387742493,-7.668049421044286,1.3397543283170332,-4.075431409229132,1.675060682039883,2.644673610532996
0.7641175778788891,-1.093450433592464,-3.710955289776273,-3.092128432198264,1.5730519852228215,-0.8285225483106489,-1.019352949864257,3.174570238870375,-4.011534531511296,-8.241239357300458,0.1314767066201837,-1.902877262976414,2.6174650416191687,0.2879262915935923
2.5887898672760272,2.512889140937532,-0.9389949158180232,-3.020963898306343,-0.7570772160378596,-3.95669154980602,-2.3765054510846717,4.921164878239028,-4.674652211629256,-8.391306429045628,0.281388559492609,-1.32168625504511,3.0867725193147564,-1.5285190322680815
3.1426925738117446,3.0844791127117883,0.0195117171970275,-3.391000093526065,-3.768813416132625,-5.195816635799097,-2.342158986217986,5.157455167807538,-4.373166956398184,-7.428515348173315,1.0917632346739834,-1.5456502562560424,1.9020220837698931,-2.1871886204387208
2.131564833250453,0.9042348855002728,-0.8770447348334608,-3.640547735156918,-3.984956942277909,-1.8713430945819909,0.3454996254894736,4.072155728539845,-2.530013242861166,-5.453401396929403,2.701436341630998,-1.71390563363701,1.278761367060387,-0.7415966882183953
0.8773356555990616,-2.0506100904541373,-1.481075943198485,-3.586783245507384,-2.4506522199649483,-0.0273309782119197,1.2018302817648407,2.6239782312727544,-0.978358282670857,-3.267155200831972,4.070341868938596,-1.5521493088474028,0.5048827937179374,0.5583886019829364
-0.0139572995285873,-3.580658969308537,-2.5758361081973,-3.346838479597644,1.3304175005450696,2.335907291752755,1.2192381059973143,0.3369067284398161,0.6086284006125272,-1.6302146246901683,4.824634883511941,-1.2731099366486944,0.1521437863469491,1.4477207012229851
-0.5373821095730116,-2.824816624908294,-2.7568140305642443,-2.9862200763186486,4.81185408133666,4.21831967712612,0.8860065137479497,-0.6689416966451233,0.8442293123195153,-0.6819591108269591,4.065790859906569,-1.0907133264969566,0.3767547297280658,1.865248216514365
-0.3618089062309757,-0.722139078588512,-1.7251668620020175,-2.4254020633333653,4.223138461847601,2.2753160264884507,-0.3682010169343574,-0.1690025998539696,-0.7159801769606411,-0.0763296980693475,1.5337204361616117,-0.9483488712454288,-0.073928362413371,1.1468709218069335
-0.3124466837877391,0.9638991396791852,-0.4133029754233754,-1.6948290022561745,1.07479055853763,1.180375814531598,0.3195665137079084,-0.6774703149000653,-1.7546674439407466,0.397110392177801,-1.3270553559240714,-0.6684091491060187,-0.6241517114241425,0.1326700140781293
-0.6214349943084252,1.1976058564556809,1.6115096826560749,-1.104798608718987,-2.8236624348170825,-1.2786714632076337,1.1611313864946498,-1.7517628678917725,-2.6610425338449857,0.4384291606508483,-5.629424913922758,-0.247173059550029,-0.6932107172525722,-0.8628773602583155
-0.4126240179226562,0.456944171573312,2.882920395401818,-0.9702437725161132,-4.676361102260674,-3.888951080132895,1.217425751181472,-2.395622494267481,-2.368694583253329,-0.439635362239926,-7.952442606763249,0.0660844784047398,-0.2944115291287145,-1.6044644958212575
-0.1198223270443054,0.1277620282243354,3.2487835889251664,-1.1290171489985248,-2.437886869196335,-2.723993627420839,0.4445066337872467,-2.949577276608699,-0.3597218409894612,-2.203460522248541,-5.587896911394362,-0.0381380465956944,0.3796265484818741,-1.6379055270120833
-0.7669536918791132,1.1577832930256378,3.170808656737103,-0.8607024488748074,1.3834658268802544,-1.4558714175692036,-2.716977535334496,-3.2720178770600263,0.4182841101446952,-3.967660474556382,-2.896414101090705,-0.6886791460550725,-0.4237663403669268,-1.5400464259445164
-1.8211186581205452,3.240475024200233,2.2179954960818,0.5559455294488913,3.899917882882998,1.174517069128579,-5.858548248546711,-3.242538954138179,0.2387753601295385,-4.462425184901303,1.8481766111035087,-1.7379749476407331,-2.820678196036731,-2.2070860818368145
-2.807056370516912,5.208466907110324,1.9538242115720348,3.1326008690672325,3.355113596616744,3.678416088110545,-6.13473917555996,-3.134598063236604,0.0035271206224331,-2.935654076937769,5.25123439878086,-2.784468766474287,-4.626237750616574,-2.851888132758298
-3.232946277353677,6.144588105480057,2.416032041207504,6.035355357113435,0.138012883782152,2.413389734348136,-3.5534651567953555,-2.8835810250578846,-0.8423506937915604,0.2858148395270703,2.760479297516964,-3.2151842782540854,-4.220523062109134,-2.7729504394694127
-0.6266493776223028,6.116272983386008,3.1559059887860523,8.197027607965104,-2.0284610880943923,0.9270523573846068,1.158455029571128,-1.3910414569506502,-0.3353668314084125,3.9969206407924034,0.9035356479978758,-2.329839321534348,-0.4936127820207979,-1.416122825788048
3.433630150294814,5.909786883798507,4.567880380275173,9.086318600441215,-1.7261424640591716,-0.6523613941945325,6.178729330053968,1.4217063865144408,1.6758507503877926,6.810148432715529,-1.0863442925896143,0.2891909911208117,5.171519336117848,2.000255042498145
5.262636074514839,6.128453456516063,4.155332208405517,8.899220218937046,0.0577094688128906,-1.860423207768016,7.4376379691602335,2.748936796186907,2.325541124429697,7.781379226269138,-2.388888910474411,4.230976427030619,7.90518080876921,4.919964891344187
4.445134386459679,6.554639213303624,1.7620055361871598,8.071663100410689,1.6986917450583243,-0.8604494394057991,4.685363537547582,2.6580744195539943,1.9307563126852791,6.688661675238528,0.5978089707281156,8.021427939740267,5.715320347258484,5.448966488178693
1.033550785180608,6.343939758093036,-1.1714165044694582,6.727330804089291,0.7051127694498156,-0.5688604985968531,1.6940948249800416,2.0635886497006464,0.9853882671873494,4.069855349062195,2.474569420452788,9.723789058861634,0.9234030901945144,4.737249653006544
-2.9061331643268105,4.830886746037415,-5.268506715475992,4.70519228582295,-1.925816064179152,-1.646661769209922,-1.18818422305922,0.3140145874348281,-1.076458285462137,1.117294463312021,3.142016546370725,8.260309559706478,-4.403274713001615,3.2375095102307005
-4.07921971940868,2.2096662193259284,-6.695259323048787,2.124248052164344,-3.363062839388107,-2.3779509987182883,-2.456496980142574,0.1226655848364458,-0.624038273639304,-0.7191639430829362,2.79477613495011,4.486283080208303,-6.2750673285419465,1.3536595101997353
-1.962901650448229,-0.50104897140152,-5.0154155219544485,-0.2151872458508634,-2.3300156137841226,-2.2132464945238075,-1.3369008699238214,1.6571006107293458,2.546854950925621,-0.5127755251604569,0.5682109965543694,0.903021608518678,-3.015353860854696,0.351887121908625
0.1702339671467213,-2.175809189527106,-4.033736002564536,-1.1991493858518432,0.4521531398865446,-0.4427309586742487,-0.8959326671919206,2.53421072200505,4.735053007570733,1.3835650125305712,-1.0407669831996278,-0.0961673514529586,0.2770524842771317,-1.013917297434184
0.7499109780834144,-2.3790088081205933,-2.845380760902716,-0.3427184569592221,3.2864071141423734,3.0791648441592354,-1.0330733274205888,3.3360191515148663,6.669302502405016,3.3605315993232114,-2.8349612162434816,1.8562869585739372,2.1756316663406943,-4.6299974742639325
0.9161435773143364,-1.579791525661122,-1.861556198809212,1.588556033437591,4.100803576467798,5.147555212271029,-0.6697663521896374,3.482329552684658,6.948509801030391,3.67113461089731,-3.0952597883227533,4.748627170560857,2.7336963742339573,-6.226832926322356
0.4848435461373108,-0.6261192654277075,-1.6565915329163945,3.0096519102120727,2.1744714273253107,3.8115458320596383,-0.5747653819878932,2.5840530846777163,4.814430862495646,1.9294141206702624,-1.672315547869334,5.897576053386398,0.8613951480153272,-4.499274397141372
0.3696820236045413,0.0355756132753501,0.5130940207470944,2.770104755428344,-0.5546873491293715,1.07082045304381,-0.8716445086472435,2.938453061602147,5.400013116822648,-0.3343605761997388,-1.5513555026429484,4.304901069421364,-0.5695803246246509,-3.0179717404931177
2.028176605308286,0.6829782924272827,4.528524934910262,1.1462230835410328,-3.1858410753494724,-2.5306716697070937,-0.8099179907045168,4.423971461184468,8.441332664520148,-0.7710726651571811,0.1608000386320518,1.5100875197843386,-0.6763389507751916,0.8849572223553155
2.447537716792195,1.8977047627036168,6.439974943427899,-0.3803218261443515,-4.303252579871383,-4.378780262673737,-0.879290569560503,5.313095253828245,9.21292515508375,1.7804650327987286,1.8429934715828609,0.1050705254310884,-1.013859514653228,3.399942414676337
0.537649707355526,3.8066462217341774,6.516838348200364,-0.4307778236707875,-2.906620831344411,-2.624409898937388,-0.8663847389992912,5.9857055131791865,8.483987979651316,6.0879630954933495,0.5884650255504635,1.3009124552523623,-1.355055934447692,0.9598691519354176
0.0557546045144685,5.6893390251840925,6.140797546282284,1.0346068531080057,-0.3557652785063933,-0.2069308700258794,0.4445843385510478,5.3361767456737565,4.478399453462665,9.292880653507506,1.5193287228382757,3.873471577420743,-0.4694152216630907,1.1184062175317129
-1.1066976184815287,6.296414093911912,4.49341458260563,2.678527580515049,2.7078762985746465,1.9721617590708929,1.5190908158072842,2.976798166683948,-3.8867064737717785,9.140022613301737,1.3903222673056888,5.453535978733319,0.3624091798046279,1.535216462806755
-2.1433517739633388,4.6042203794711245,3.646247416827816,2.9721424012566944,4.296623156099004,2.695405139812207,1.520075955455988,1.4285765175904055,-7.136059964316994,5.819149276936707,-0.8687910105415414,4.80512261034697,0.9448906462778542,1.0928317629458255
-0.8851237389131568,0.4654499118839146,3.7460218142565904,1.5078400028551462,3.063525200722499,1.0054646482819187,1.0700592184302522,0.4369648281695064,-5.375188782030667,1.8241392423347955,-0.4333754425180139,2.823547170349817,1.8528201658956769,2.8997058043607424
-1.95928150478846,-5.169021841533516,2.7556879771508043,-0.7322333203223437,0.6874379577411144,-0.7490103784127679,0.147659469494129,-0.2930356397728118,-2.586020088097466,-0.0760158578303182,-0.6776668727935087,1.3998854465676889,1.1316874500006762,1.5705304485936815
-3.082410474335557,-10.477412744637986,1.0931633975092296,-2.31395351159375,-1.700297512912034,-1.8590858203827971,0.0309625616836914,-0.2470648701153255,3.3716265879702627,0.9766579161777196,-0.8707380117550914,1.5089987078474547,0.5538867808595143,-1.4199203372635243
-2.502347665138461,-13.397547725788854,-0.0406467511362384,-2.5609703073922203,-2.621761610295664,-1.946956804383568,0.6693530495463842,-0.8286033355175239,5.204507863256573,3.431591655609437,0.1105072148775993,2.5319065895237385,0.4503478393750421,-2.8604451376409346
-1.9176569333393911,-12.59357478615702,-0.8489020618958399,-1.9492184212015764,-1.2752564198865706,-0.5968051883197062,0.7750566211776168,-1.9832826738389728,2.2598124916901026,4.848542338736888,-0.1755742014889323,3.306156356224294,-0.2352468084812879,-3.1782912606019127
0.772936858835201,-8.398885106903446,-0.958469331603569,-1.4488899976237324,0.3702910761868519,0.5060416346133364,0.1103915814149332,-3.1062118212968928,0.7345989191496987,3.994047490029541,-0.3212149392885055,3.476623299535226,0.1712152506536332,-0.6402099323518028
3.955803591745049,-3.00992811989134,-0.0904491318518315,-1.5528534726494927,1.0454759752130498,1.211875830136069,-1.655730196475122,-4.474466470920986,-1.054603589646208,1.6669538572273668,0.7463029110877644,3.5451856380004165,-0.1256986849212045,2.936467315434143
4.952716078730632,0.5920353074774383,0.4951380577341404,-1.924316461669872,0.8897744636635524,1.4963810823719057,-2.5446462357186825,-4.551987668988957,-0.8073303755286818,-0.3159293470444728,2.5088437865831787,3.707951968086306,-0.4659106396998285,4.813750827720171
3.912266199894889,0.5424763423170882,0.9230683513662956,-1.909333250978896,0.0733869553879684,0.8805062057384913,-1.2802129937543758,-3.166376680159429,2.4627744876170725,-0.8315667769663184,3.427719740046953,3.1123105897073664,0.1536602050149429,3.5600531267928117
1.2415729166306089,-2.5685838898727877,0.7254127916639529,-1.3160312892440782,-0.5968726516398716,0.4851856258283705,0.2901110431533361,-1.711745410892243,3.7324284102693226,-0.2089886988115044,1.7541990097747262,0.7136546735806935,-1.1660505714052358,-1.3155172451698771
-1.7979922387517684,-6.118101558120416,-0.4157323159221093,-0.6606433552091611,-0.2258729937554965,0.2602727708424153,2.1708427025304475,0.1852134916871752,3.6155109058553463,0.5078251020756301,-2.2100965719111887,-3.0779705992263136,-2.525026675649391,-6.457994169383198
-3.2441707409367466,-7.421728631199929,-1.1530600321643143,-0.6559304330590079,0.4625295840166845,0.0930462148592798,2.479919913566752,0.7271964680852026,2.448374950511613,0.803040125622668,-5.7462334768249015,-5.989995713525493,-2.9351523845147014,-8.010441946198
-2.467274933349429,-5.6721499968877325,-1.6548255409896284,-1.4783532149882437,0.7937471920614894,0.4292635789295053,0.4399796533990061,-0.4413323763594203,-0.7490833991307466,1.0521896173773522,-5.386510253674435,-5.650918426067882,-2.62965610288587,-4.73579694166233
-0.4187686609042199,-2.285825688590756,-1.636915797139349,-2.5580341961002877,1.028401379936542,0.3967692075492901,-0.4466492893673347,-1.1075933677165883,-2.1938631845995187,1.7033555278725956,-0.548637065936526,-2.0620276823342856,0.6208923608546395,1.681969128413518
1.0756637113739118,0.4644277729781354,-0.8024348955419881,-3.0999485884879903,0.7312957314896331,-0.0358948908824319,-0.9587865913428708,-1.733990284169002,-1.932895376850699,2.314518731625431,5.951362496671717,1.7887227186701755,4.469085586690652,7.532044269421472
1.2867253147480116,1.2051065046157934,-1.6890898653508857,-2.8091069189360844,-0.2141334131674391,-0.6571161129112941,-0.915247603811474,-2.928374067819264,-3.267489741267884,1.6426097602691383,8.837748587400746,2.16316751893344,5.536976032170949,8.320291433001906
0.3864484463241924,0.1645450885724049,-4.316740290306951,-2.09907004542718,-1.3001430145769786,-1.58103377862138,0.2728637389324462,-4.412184850264998,-5.54728371161601,-1.1917266110233875,4.993655208580984,-2.1633461866287758,3.46827808069107,3.642176785909275
-1.2661211419379437,-1.4656162436351623,-7.096533136284807,-1.6088613668086804,-2.4121916411428908,-2.1534776144417984,-0.4381342788407577,-6.368422161686407,-9.423173272668524,-5.6482374840988205,-3.0332925809994045,-8.644622846012926,-0.8691485849059091,-1.9395423055188157
-1.3038304663337326,-2.6298854004152776,-10.575019036774084,-1.5669627007069646,-3.6518203435143897,-2.659322555037543,-1.2845801665780456,-8.848966457895019,-15.520186379533568,-9.95079850790068,-11.1483028607862,-13.010017437502796,-4.863005815036511,-6.060888660209725
