AF3,F7,F3,FC5,T7,P7,O1,O2,P8,T8,FC6,F4,F8,AF4
2.674858439947081,1.628719180324916,0.9956511823862302,1.634506830811156,32.444532750229875,22.051689069447526,29.66333768650729,22.18465854275685,0.9514353295453426,27.30352405911005,36.624591676652926,28.63897225082904,27.632389910106166,38.427309126785104
2.5896082189943948,0.7295072987457406,3.73322638230218,1.5586702942443176,26.786367122427347,19.419425069722926,29.67202734688663,21.439315089152444,-0.5102785266380422,26.463053764195077,32.55641904100066,30.89593845466467,37.94961337207988,37.12519028076569
3.771001585661374,0.401049794809914,7.06980476081978,1.9139201167976576,22.285868170462727,17.24492490494572,27.73280529373982,18.82234293893517,-2.8838993460653133,29.54035671299696,29.03213295573969,31.05526648603617,44.81626897321006,28.34541406390477
3.3204505941134577,0.2604247656486654,6.850880327505394,1.445871322455106,21.49451840863493,17.88739138490179,25.704003889414736,16.23271936207636,-3.895905172068181,27.168479323361847,28.43235487158094,28.98791300896255,46.101654170452406,19.556037684959463
2.325668199846024,-1.3882998014246584,2.819266774481848,0.4957012348262306,23.54719627340539,20.8741071197788,23.492640008583933,13.563739045913742,-2.710263015485606,20.23979895271732,30.32131760198141,25.51754425841031,41.67084034454089,17.549045791843568
-0.4868732324019353,0.5361046056133227,-0.0828865191656034,-0.0371617424016611,25.323701502861752,23.31117385094528,20.27880007928448,10.673546641607803,0.3122675826764292,15.700624575374784,31.569404868256,21.512859957887542,32.697067814570204,22.663931141951977
-5.070666897207127,1.3223946497914825,-5.003153200823848,-1.6650151037338423,24.14431324033552,22.31090258088389,16.400059383111376,7.98308510361362,4.0165880553074205,4.462309172636879,28.51390031774949,17.144410230074953,21.314874664351123,28.498799225792794
-6.761004654691464,0.2406487474367,-7.852899179490879,-2.7936920812046404,19.517483100078067,17.218595462413134,10.900967802248111,4.629221113063863,5.331612136233433,-2.973219073202697,19.754039778071306,12.000220948815295,10.386188555208092,27.468881183619573
-4.403721625921352,1.0984356229665613,-4.725847503507636,-1.5563950689337394,12.725939782090537,9.834849306265312,3.641253720392985,0.7184564442671416,3.2064502546639844,-4.412131454527637,7.561389102340883,5.885189557936002,2.560110874864307,17.448806725142305
-1.716820873374398,-0.9147340739441404,-3.468553688889494,-0.9202437905228508,5.268525993411629,2.7840351375601813,-4.808939707644293,-4.642608033719195,0.1312155435720806,-10.786783005966535,-3.3151237322556426,-0.5046163062842766,-1.2231434962253047,3.680490433513057
1.802024976824088,-1.8542119285844196,-0.7458708320389451,0.1558265433036599,-2.0234175429208108,-2.305759707547395,-14.723628542648788,-11.708138443141763,-3.0020307691833805,-12.059462672957569,-8.803458064767028,-5.704360104635839,-2.427938072283382,-5.737063711294979
3.83572238080034,-0.5029184028429754,2.521559368980764,1.2357051168402453,-8.644724137657533,-5.384432385578691,-20.727785211644164,-15.285197910138365,-3.928384786643828,-13.266608273928542,-8.371914223973931,-8.388304419268934,-3.778491212816903,-6.749127912334132
2.712074865140489,-0.0664041854913337,2.1707525478520098,1.2729666541164848,-13.903730093402658,-7.327099218390686,-22.270823653550487,-15.230138754443203,-1.4345111078698076,-17.272679953891128,-5.389743751127924,-8.41875236076487,-6.997418004603219,-2.5141760103847446
1.9014891327337369,2.0613608018171607,3.140543328711173,1.301265146089432,-17.27076433502549,-9.056123405109474,-24.06702273535936,-14.81360056170022,0.6300306793390318,-15.038462129272688,-4.615144825707716,-7.226675351381289,-11.438165413378895,-0.1749289540483687
1.2175888384989335,3.30274184871288,3.9517998238091447,1.451037179654729,-19.16641103989906,-11.180096705003166,-24.791256827868377,-12.844158357887258,1.982850157917268,-14.336506970386916,-8.70509192990437,-7.10499607384952,-14.899956041048767,-4.377974418495569
0.0909468474923101,2.6397494120210467,2.8288493959360825,1.9718721998296969,-20.906680932280324,-14.017043825354564,-26.72155543837653,-13.511549677461865,2.149170293298005,-15.953227387668033,-16.445727046912225,-9.74546170834401,-15.83601414511554,-13.489290320628356
-0.8900810591967045,1.2357811546109128,1.1502724856386624,1.4215727066123025,-23.48634384703439,-17.532284521424003,-30.634774829689803,-17.47909811820905,-0.0340346011349441,-17.537898240543885,-24.021728920707005,-15.021394821850096,-14.853355166915662,-21.73179223932948
-2.178769188026755,-2.422949398579937,-1.6835724915219,-0.6042601022228717,-26.49540945339413,-21.172997782900552,-32.03212547010032,-18.592463257083324,-1.369158956768881,-22.7207177227128,-28.193825145367327,-21.021852192562392,-14.160971712795686,-24.899477028973592
-4.36995762256856,-6.077553952381393,-5.579722880371861,-3.914638683149242,-28.587214663688087,-24.0126710930341,-31.472174723757025,-17.717887161644175,-1.9543087001916208,-27.618263119158016,-28.76499854273186,-25.44620695445974,-15.613720999960378,-24.12034531714835
-4.533719034717348,-6.355919234953166,-6.502545860270633,-5.990395549368114,-29.17129100632769,-25.349167967152653,-30.258437621671305,-16.621630289638844,-1.7053348174479477,-29.225433746504724,-28.40490279124367,-27.27133257757464,-19.230617386655013,-24.22005794607162
-1.7952272659465691,-3.092624258771435,-3.4355633497637896,-4.2314566857472,-29.39454273624699,-25.256792204871655,-27.61642209015623,-14.28231434772175,0.1397382022254225,-29.57851800896137,-30.13418769783584,-27.24375166411517,-23.454290037400938,-28.466298537147395
0.562341755581045,2.5262594450968616,0.6252143515074204,0.5857829193258467,-31.034674582670505,-24.47201991285613,-25.133904148093983,-13.880459139092425,0.8539002080800172,-28.640263046349297,-34.647587818123725,-26.76895215892762,-26.708288299213336,-34.88211451944312
4.310983752238759,8.528607391070617,6.200788690216354,7.30748820280294,-34.23706344974539,-23.656467450765945,-22.9242345910888,-15.696613698917664,1.197092052027236,-26.19701035975468,-39.64649188997237,-26.332805974811208,-28.6857169984238,-37.76073827913956
5.851634742791072,8.66875209869248,7.769085877748905,9.392042876258609,-36.55806416475855,-22.80363909468508,-22.080999744369983,-16.141990226755752,0.9686004476863224,-24.96857175863311,-41.58587467271195,-25.10981936355597,-30.21978160216986,-33.03822078308065
2.7398133634676998,2.093267558988381,3.007708422921019,4.066790652641413,-34.70293469539706,-21.447360331691016,-23.191530060178756,-15.853096957088514,-0.441059097140835,-23.552889550023263,-38.30371717816206,-22.21408212315805,-32.01433085097733,-22.48147956003413
1.1749430282504365,-4.580334557883954,-1.2178664885328363,-3.093263931762517,-27.61737310087142,-19.44653451492013,-23.19229788053414,-14.981474781672226,-0.1256411238373035,-20.19417807309824,-30.488074825889957,-18.255817425261284,-33.56732994201889,-12.673891682419251
-1.7569611750105678,-11.422142022133922,-6.600012150674003,-11.544805232187898,-17.986537617909846,-17.424858631938037,-22.415166263377017,-12.91114902225216,0.2995215443069534,-17.343239214321322,-21.09266453186615,-15.37503144387108,-33.37508503239485,-9.57081480636316
-4.200200242814678,-12.103322687396425,-8.769381892404175,-13.876126827708054,-10.451617159108253,-16.250628013288406,-20.14647638159599,-11.81210631832458,0.4353099081340624,-14.58815486419961,-13.44978140487359,-15.396861984452585,-30.26135191984781,-13.501598939095912
-2.6369743169989377,-4.5499952024458095,-4.204325803660064,-6.723783311543835,-7.88502511095794,-15.98999210893794,-15.66901918688956,-11.628218287197983,0.8126563524717092,-11.554877611144311,-9.548703092441883,-17.790815629710778,-24.606583013766,-19.11229583433624
-2.091100472923682,0.6878132450152119,-1.1436440326307793,0.353559230619028,-9.001363592865118,-15.453111406670814,-11.196231591617362,-9.702185888684188,-0.3318011117401882,-9.684735850199438,-9.409112235312705,-19.5922613615885,-18.333889982060786,-20.242673219266862
0.20265186078113,6.890253767152679,3.1412405105611985,8.872997089750916,-9.523874669861812,-12.994862934275034,-6.361814382329442,-6.309334777983163,-1.1138916986108902,-7.692876218606019,-11.495016895435242,-17.708351040194543,-13.617987315840992,-15.289980706517213
3.2618965987159307,10.094272659103227,6.613857379265768,13.191632688623152,-5.953169343116883,-8.000516650727263,-2.3546536193529777,-3.108175190923564,-1.258708682996165,-4.732301239307036,-13.61849748817508,-11.680322502418676,-11.374064543563575,-8.300430833542691
3.205736027002996,6.087975388354077,4.90669082745334,8.448227037077167,1.4039714155956062,-1.698313937132184,0.3233909072597619,0.322132578390948,-1.1776085801440883,-2.7335387539419345,-13.906448484228804,-4.333304936869467,-10.694258909852351,-5.0242804632666775
3.004587597916112,6.080522251274891,5.081664947599547,5.349838974332905,8.827304823348527,3.560374637211339,1.7976635161530472,1.0170646810566817,0.4825395817321739,-1.156329160729642,-11.600301125509304,0.4358668020573759,-9.552155668043724,-7.673810485769991
1.1365306037867708,4.929866187216938,4.687922459311681,0.8729666441982685,12.520631987453951,6.031076417409395,1.47792624359022,-1.5667705749585867,1.705483015285019,1.0145369898784409,-7.382600365717963,0.8532946277329074,-6.154375026571643,-13.025712412539292
-1.815208075124224,1.2163294506561042,1.9432748777168167,-3.94516117351778,11.730820470021284,5.834598294709281,2.32393154160851,-1.8034717645523215,1.874075447961248,2.428452248059077,-2.8881445206263834,-1.3780254699167926,-0.0435237401410404,-15.23973329433943
-2.035624152054304,0.4616934895258013,0.4434681206704944,-3.2481215734710043,8.852657747678904,4.677295298892659,4.315801946857772,-0.2367589385861815,1.6396157242063416,4.247710900712906,0.4928488995398083,-2.7281449544504994,7.580798870500189,-10.608364475463643
-0.975392520995209,-3.6074500283776594,-2.2079265003469293,-2.961232119551445,6.770194391544919,4.365880649422479,7.92937631035268,3.747557821864017,-0.2837762521901465,6.943652285994165,2.685256377248834,-0.9407907022040264,14.392150322330965,-0.1926387595070764
1.1307780845567432,-7.451631895823662,-5.50384410385317,-1.7604080510622573,6.32373516185703,5.483191915109956,14.006053065516646,11.456990370146482,-1.7613478849545614,8.614676844696044,4.878062615511453,3.1910898414888607,18.102336451438877,11.3529361052573
3.3954447547330724,-5.956504942337814,-5.391373280793804,1.1373327690997288,6.372668602054887,7.289619574914013,17.675844466491085,14.8477706969076,-1.6427545691694552,9.74641150512526,8.230663687245283,6.813289171337488,17.777332583944485,19.15207632880083
2.5904087589591205,-3.414731854603797,-3.070998998611375,0.9141834801745216,5.979516014279284,8.679116491628974,19.05002317563264,13.985072638404525,-1.0583080657667352,10.76703469768529,12.463608428186433,7.667264043967577,14.520961196813914,20.82953397153034
-1.034775017066893,-1.378373802675727,-1.9174197295143824,-2.0080997458585976,5.979086132384907,9.12865933416424,18.46641397976544,11.889438361280346,0.4589456293600794,11.08887400510584,15.78192493037784,5.991422061402204,10.836522270593887,17.116489671936392
-5.9197567765085495,0.107514263893166,-0.5375676691401496,-5.9942142704482,8.021104490689538,8.850574303721942,14.694778406839642,6.7109224593598125,0.9707375322111064,11.019518597066265,16.43696028309472,4.184459932345931,8.833416537632104,10.8742057818568
-8.607248017757833,-0.6578365623269764,-0.3828161457026179,-8.354085406134695,12.12450806630369,8.304905643880375,12.00926881110296,4.865866010967968,0.0657904802168145,11.51265548892162,14.589785100674476,4.823138284344395,8.582691462548723,5.716615189671529
-6.101375922133909,-1.5072110062804394,-1.883366362021208,-5.50340492189345,15.594016200651597,7.761797376057814,10.248142419847188,6.810598907986006,-0.521914210649951,12.825478300169992,12.622846939390511,8.814952181770934,8.13709949624706,4.701395442393107
0.4557992317153198,0.6663922259728181,0.3447126639961126,1.2306484638084785,14.856152989103492,7.27278532195993,9.117937792090304,8.320118683730458,-0.904835077120027,13.314381985229994,13.30676378009511,14.919457220613936,5.435500788988264,8.976469679403863
9.28700299472321,4.204044226220401,4.394339788488869,9.62204890651232,8.74472318275366,6.811732092016825,9.63951622576688,10.935996216019904,0.3259140030254172,14.073441445826855,17.20085082285803,20.52673397480405,0.5009661461523933,16.707416413577135
13.231106384303208,6.009392903703694,6.423920856992552,13.50117679658845,0.1380041079411285,6.272279194230436,9.235234454515105,10.883423386077896,2.087706145786797,13.953110942168744,21.55020538224184,22.867050875661107,-4.154380696428433,23.315941950836702
8.031369354179319,4.71265859511377,5.888300583064452,8.640866589448216,-5.769429417668675,5.424040741297574,8.132177478841122,7.487945580538476,1.9453816352050688,8.918948866765847,21.884288239716625,20.112282447110545,-5.46471904478463,23.695766505357483
-1.3690860197556936,0.9154876766012872,0.9359701635377456,0.2165919823072473,-5.283159834674493,4.135015956094875,4.672590481865484,3.367600604762642,0.6199426608217213,3.3543048593691958,15.360222765381906,12.275909333355798,-2.4215789097003864,15.487588621686768
-13.457324449591509,-4.209850705845694,-6.479465289435841,-10.344106542431737,0.9974364538270066,2.778171184244272,-1.861323739052872,-2.581606738750611,-2.507746361320772,-2.6340748238091907,3.379182587238759,1.6780613500998385,2.9964836146218943,1.1264940183815355
-18.748342056317416,-6.752620956991793,-9.883529479377488,-15.605703090232668,8.676186692205555,2.2678681142541777,-3.2232277600726773,-4.438831354379798,-4.991910440644842,-8.135130412506722,-8.657840914190906,-7.647779726320863,7.380820755119501,-13.199587110667991
-10.846946464905416,-4.916455402373695,-6.383556674669522,-9.700959905063296,12.93340919357858,3.375326792362401,0.5713581701779215,-1.5203257053743169,-3.8306998053560175,-5.255435086886314,-14.597655227653863,-11.90445611397924,8.483494942593783,-21.315086914294383
-0.4137565338657332,-1.1096763798261935,-0.3248686894175412,-1.0878671141762308,12.055708904412096,5.799299488249151,7.105548162655296,2.0351553474640105,-1.0719957447011743,-0.4344166744873257,-11.67343895768238,-9.923400146503246,6.625643061418383,-20.918681414128883
11.144380726266268,3.8465587001881785,5.896950834463407,8.859537790060854,8.285913930089329,7.986377134272534,18.40373728463849,7.802974557186043,3.060837999163641,3.679332936369751,-2.543367854900577,-4.137481222788839,4.008771064262044,-14.636237341920266
16.899738018675105,6.6916795150173805,8.78698227750795,14.399018057993445,5.3687374201525415,8.15918724732036,21.740304369200203,9.053681935568152,5.932970256420815,9.047658229716715,6.466453946091008,1.058530277177006,2.887405240994489,-7.489920138683189
10.335241634781957,5.006890395395762,5.258156622796015,9.460912789396476,5.013842295181,5.816622684291353,16.28074212597785,4.862643805716588,4.588630498756878,7.689030566590843,9.834204955964864,2.6115287806380465,4.1784604468213615,-2.8975694924090902
4.118913198692376,1.196822403609919,0.8040045506105048,2.8226992690345085,5.542763909362719,2.3476369371714725,11.386147943006916,2.1078540707361046,1.9092144735389445,4.3264949361863945,6.713473610728755,1.0989100434282475,7.205071623071973,-0.5258738635720164
0.0892104603361267,-3.1136063254092186,-1.387467459519599,-3.110489117709955,4.037528941120939,0.0784063266680306,4.064715956062468,-0.8468024847570684,-0.9891773559710866,4.358352488825311,1.1317497264476517,-0.0979816755863254,10.20397306544912,2.288816182563423
-1.9265002291760784,-5.289900112430921,-1.741720038971391,-6.234662730900225,-0.1327796492871726,0.4677836488815501,-0.1421939917036649,-2.2108122566224644,-2.828076425544964,1.7808240898722991,-1.674822408703761,1.85444540716702,11.083297914730608,6.99795160146499
0.489212099467831,-3.1573071239594723,-0.4264855788160562,-3.108643360711345,-4.155805535085392,2.9451960636270518,0.2190773469676397,-0.8446420662657422,-1.816215998292166,0.3694862193803869,0.2887451130461613,6.350019730499824,8.375495607538994,11.574393311660543
0.4032683383028508,0.7547830633637524,1.2911754633664425,0.8307401822130025,-4.545458103805942,5.324006909109869,-2.3281984305669976,-2.34150476113875,-0.1729269068991509,1.437003349948347,4.350134210579057,9.60150043756417,2.3173997154251254,11.81785197255124
-4.289630524630997,3.92946962352732,0.2576966376522303,2.2378030235566477,-1.2058322183165728,5.395498014863961,-6.306509544163911,-6.199805533637408,0.3577440687871799,-1.8405499908729608,5.890249611154587,7.87529999357514,-4.687603156586448,5.218953923562481
-8.262255591281182,4.456641132582699,-2.547784399345881,0.99680415107485,1.6805852485063042,2.432388504045889,-9.469931036357028,-8.4490222749623,0.194461401909131,-3.948019563686569,2.5794092935454387,0.771737565897979,-9.200720103493296,-6.156704707728096
-8.735211024178478,1.3525699197985617,-3.918422057466695,-2.7613975479770865,-0.5077613879788316,-2.4370733544744496,-12.776727002534138,-9.912181624158194,-0.7165009665301649,-3.586548509353303,-3.786325503324946,-8.377898464335203,-9.289345470871012,-16.607588451620586
-6.7269689516976925,-2.9016835298874306,-5.039745336412424,-6.730466357197926,-7.804701046552282,-7.065205723719373,-15.635692114201923,-9.159387588883494,-2.114185941444127,-6.204954611307428,-9.327015594356624,-15.202907402834796,-6.534503524107123,-20.98786766280304
-1.6651206470648665,-6.027288841678956,-4.526312246164189,-8.526563276204184,-14.853196848344624,-9.617084494820972,-17.834025922991017,-5.375118397278641,-2.3367119627034776,-6.679037855671557,-11.724472636482147,-17.518280558293384,-5.256188606421148,-18.5675389274287
2.804287871005029,-5.668901183246723,-1.6832623208011617,-6.364245044626862,-15.874293285702636,-9.541540544317629,-16.77420779742086,-2.8405666882495293,-1.5558121795050357,-5.376869090097749,-11.836687755194248,-16.323570586320557,-8.869492371329613,-13.20029065984096
3.3796762646942287,-1.5828564831568808,1.0524573214118045,-1.2218253950382103,-10.86859343937482,-7.695540091025578,-11.94561191921588,-1.1677198453741495,-0.5278562088637162,-5.389818380201228,-11.93042760358469,-14.12168678664878,-16.244309792763147,-9.721161960343125
2.194004240733572,2.403008116008577,2.0573367362390997,2.7917821944002057,-6.536172456061365,-5.628276287143848,-6.048861010161307,-0.109116623888546,0.9061448933043804,-3.0310109485649286,-12.660458359141472,-12.482939051112936,-21.646955950566166,-9.803823067517698
1.6082839041260544,5.542793377523922,2.627771724134401,6.423532371243514,-10.116316629934914,-4.45513036917103,1.6682975042427752,-0.582357502823534,1.7568331301180649,0.323336304585602,-12.05687728079289,-11.041235599588106,-19.02952054935372,-10.848905898691156
2.0962229470084406,5.263010010404028,2.5972368033328026,7.278076108515568,-21.499158159671737,-4.0318545598392745,5.022207284004497,0.1548759204706221,1.5884651127620248,2.068357726750458,-7.570795868466689,-8.395636273495796,-7.365968140887418,-8.673211150419831
3.2900801803150506,1.0810449125649495,1.805334277744407,4.386850199028866,-31.40800674668961,-3.084975095370936,3.070738170106132,1.94883650150992,1.1050364887581527,4.323217359535586,0.9271409780675696,-3.675130069193358,7.694145959992113,-1.476290110419626
5.4575844234126665,-1.2006928127666678,3.685247787067281,4.592119113391938,-28.308975434205365,-0.3610453072416817,4.414656139598697,5.447971475319362,1.0420419429196195,6.707810941589471,10.2264588698674,2.6510651496621733,17.68290289958017,8.34609173824515
5.4874419154618685,-2.957356992098624,5.661388089812112,4.823041193949744,-8.503421230890666,4.032762254296699,7.700555118094252,11.358995667870191,1.90471285855961,8.403691898451724,15.911526647675316,9.068950603092617,17.70824493247588,15.933791872363628
2.904013959521214,-3.0513752294647265,5.002706965512258,3.486981077045622,19.610505879468263,8.32939486239087,10.370106071240608,13.480407028661974,2.6903007684570945,9.989220197999783,15.676665539245448,13.837447593115485,10.085672004225389,17.651686267330717
-0.3003400726480426,-0.4232621445265877,2.148961519272559,2.0644759973302342,41.297601527426565,10.358870125551109,13.759286027035852,11.751908244087067,1.88413897807458,9.36331373864057,10.990693941408466,15.726211487192188,2.2171946321110454,13.74563573580653
-2.2230504473296944,-0.2876857746734876,-1.7012769781348376,-1.9696257967467523,46.57260197796116,9.437044184825709,13.645655368316309,8.281247081826029,0.1874360102212858,7.764519167683141,5.854893728530044,14.520448581599794,0.598366216618814,8.048401703621437
-2.519642901839745,0.3429013213019053,-5.174003179905359,-6.428435230925927,37.16080504688446,7.137296704400853,9.576073425135906,1.5425151424951615,-2.8854136202902305,5.842938170956089,3.8223939754422247,11.269914708979258,5.945073482146626,5.189817969549779
-2.3619008442592966,1.276119289336059,-6.066880015550105,-7.859675499260951,23.67158698362786,6.016564868315228,8.013839173713869,-1.036457652373487,-5.230199264401064,3.146932847046062,5.62586935362458,8.029055053286328,13.234101868044933,7.482489302474363
-2.1895653900460665,0.4185386015818313,-3.5578030361786626,-6.002389293565498,16.112936076506713,7.283539218490219,8.241855139083636,1.027556205821907,-4.016172642730751,3.454649329708028,9.013593459149831,6.86141438367396,16.249576899116576,13.613266846570257
-4.309355268692337,1.5686287849970544,-1.946874409142468,-3.299459251110225,16.444094316735786,9.583099511679634,7.954806780689995,2.0538139065810843,-1.6536095603153116,3.8095920219519535,10.67439334524417,8.502166049384499,12.70308630823439,19.816998156612726
-7.42229736142891,1.444665366761121,-1.3749734233108273,-0.7699280009399979,19.20382242971668,10.184843901232526,8.300052884320873,3.7482519092151856,1.7549636979031649,2.403674659695901,8.791587049717833,11.704385769900938,5.8787171370236,22.54580795452577
-6.89919446482676,-0.1742806475825268,-0.618439531032704,0.8817933730880599,18.306963110979552,7.582679073711816,6.649793341414641,3.2095563993765057,4.279740589726753,3.0601523151426164,4.517061820749106,14.064229432035518,1.7788714493342894,20.820276356380543
-2.08422791961828,-0.1516925829722644,0.1872889383179768,1.4496394437448905,12.764342946490729,3.043082879138808,2.70775128546631,-0.4605146728931794,3.3213095708267804,0.8325472493831629,1.3819726148890368,13.929878380114316,4.268921342677373,16.7791953448521
3.6184325728661153,-1.4515109541578546,2.1553624263940185,1.851408102348703,6.250632425184975,-0.4596395167732794,0.5217497339860427,-1.9093647211582645,1.1596991150220632,-3.346873858282827,2.895072280767224,11.85901367001948,12.061267834348897,14.098204527294484
11.058336396952862,-1.998738299732984,5.817763713176944,4.097075398175875,2.263304466732876,-0.9854567621244,-0.3454773492950395,-1.834368457703812,-0.8497828127559726,-4.280770117749694,9.762553810512202,10.214734631782632,19.7540694416896,15.26905162009487
13.501853150088293,-0.8563556009363026,6.748401756559931,5.666105581822511,0.7370164284784622,0.5491658691812944,-1.3623888201690888,-1.6431626206914869,-1.7619084758860135,-6.340935845032778,18.665941735231044,11.012457214479909,21.959703266688663,19.53907600658756
6.471103343910907,-0.5905263251321582,2.325076840549399,3.684230853460611,-0.5928035439316588,1.2275467247730276,-1.8067839549372424,-0.4170288043520384,-1.0413294480615458,-5.827265108914739,23.823077714752174,13.79055416507552,17.259185640999966,23.066414365886292
-0.7815803368308422,0.6752818817713203,-3.3302759191244204,1.0008770982872282,-2.612121591694603,-1.1210921528299451,-6.229165252748609,-2.2276933072749143,-0.3083041293457337,-0.975751616899882,20.73152781182246,15.49946561778237,8.975878939981165,21.46812830645522
-11.686648149416037,2.3554515781064262,-11.788398264740058,-5.317523848715294,-3.897391303385501,-5.848432382122372,-15.118390533721398,-7.397542389756701,-1.4800071934348926,1.4374869478397323,9.659595312655837,12.800950258328427,2.3245926970994866,13.1485371098917
-17.845714095384803,2.7660843194479305,-15.501314485273133,-10.182502696773822,-3.631423271325577,-9.97386476717227,-19.256178018781785,-9.12276612049259,-2.9990451408101992,3.977057117630873,-3.8416020410333793,5.040839930598082,0.3388153692690849,0.9219471824516248
-10.270443713707651,2.4212504443337672,-8.962752330422349,-7.303459704535341,-4.411492632972365,-10.720406369507426,-19.21675402557712,-7.987722491501897,-2.816593524212789,6.823268212412934,-12.229429288679585,-4.607518759154008,1.861071822088384,-9.542684760184612
-2.303080814485156,0.3364997750202071,-1.5755418582277656,-2.7538277206577337,-10.58230607091082,-7.794504433908366,-15.149858851247176,-3.429454728529378,-1.219525221235762,6.753276357862344,-10.985835010013844,-10.977141448584472,3.091510902802897,-13.518663188229054
9.812931128813112,-2.8610741671747104,9.11181817674026,5.51458835040645,-22.86536825131765,-3.506377975306856,-4.832994798164685,6.171945295449072,3.012337371084584,8.57582453615688,-1.7231180830077228,-10.476025694703806,1.2160583152871112,-10.424582676903793
17.867845511283154,-4.190733913518572,15.75307159623334,11.779223499398435,-35.027730764726655,-0.8416586847890049,0.0432968995927332,9.710698033801611,6.264900806266108,9.818884157176354,8.976871031462963,-3.715797887561792,-3.035021090375773,-3.965061839880217
10.786201333611515,-2.756543863605455,11.251477790334064,8.416498865451587,-37.24653652360307,-1.24895092568962,-0.5251966859880347,7.098717513386097,4.96836389941076,5.773998549988473,14.115756949239833,4.790480860436823,-6.041886376970844,0.7876454235933252
3.8006946973791007,0.2330434194825859,8.192556599668556,3.1912941014239737,-24.25025112435777,-3.844977577039917,-0.9836436480213429,3.657050443872998,2.0785839589816435,1.9621720029765808,10.81292817973898,9.652149167581914,-4.543599802656573,0.9338228353718137
-5.518052030098518,3.083259640167672,4.198115266639319,-3.865192548178392,-0.9478960807448722,-6.341883649532882,-3.942393795831527,-3.1601082537603213,-2.442436021527977,-3.481156494463268,1.6363495178441028,8.152385986641313,1.287100643428058,-2.779843272014709
-12.445771717766531,3.1275196209729663,-0.59109838142382,-8.884513848386586,20.13414280468942,-6.710451535056357,-3.109414096863243,-5.244780270044743,-5.509468589618549,-8.989207283784605,-7.816321952419479,1.8135815863912013,7.491084599291398,-7.255877560074239
-7.053224455353879,0.222613074360356,-0.123393685598017,-5.702444309404608,27.95159973811426,-4.375314510678777,2.23341957270158,-1.7246015061698765,-3.727340835539264,-7.4953074269372895,-12.914527955076537,-5.045729375571256,8.989086686054513,-9.584194117333084
-2.7912057394614527,-1.7457050290047726,-3.243877281142829,-1.4042534049583342,20.909282680208,-0.3774244306272436,6.618775975999408,0.2402517226824049,-0.9479479776549248,-5.906855377192214,-12.677038463446124,-8.602892911693324,3.241604562211833,-8.774956025878794
1.1685957023345148,-1.3713968510797416,-9.47073213437866,2.1306546608355736,7.074432089297915,3.356449418263693,11.539784777609253,2.569399427916468,2.0352693654589418,-4.891137173860113,-9.659567943936617,-8.18508830956003,-7.734381539528165,-5.847365922308399
5.39422356263618,0.5691823417406088,-10.336851946465645,4.157856541453545,-3.027985912922972,5.154582034463132,12.353864084928672,2.878049573131942,3.8891837073892512,-1.7830650303125497,-7.615339351394049,-6.293141571216886,-18.321843255130798,-2.817393924892116
3.4987848264779493,2.304421357930095,-7.51074371978869,1.8974966435344636,-4.471736213911484,4.567256222620358,7.932887264273811,0.0455681421655298,2.287003774679472,-2.902396368348084,-8.69815882548486,-6.042177489124697,-22.56143335854885,-1.4729879847689844
2.77616710128538,0.6843370950532638,-3.3499281655639166,-0.4909924431603526,-0.2745222679989467,2.5940436508021065,4.903414773101617,-1.148903365755213,-0.1767383169133259,-4.399187658479357,-11.948530049097933,-8.177449788575125,-17.724164714336375,-2.416080973513367
3.953738165141252,-3.4346643878108054,4.45182009335535,-0.4868101534957336,2.910111295324974,0.9083556962452092,2.0694673393668888,-1.4337682857493426,-2.1205811040069964,-2.698187348149077,-13.953332215943815,-10.2791841011988,-6.1284955747929,-4.635526595957032
2.7195030134930125,-5.986141415749804,8.088625967033789,0.1591336267878348,1.046771752980547,0.5076528179582738,-0.1932592127635747,-1.5623919265967474,-2.937780960709023,-3.3316322955735678,-11.350698146122078,-8.999895695046419,5.937676091065697,-5.995816683789201
0.7607021790152214,-4.767381003823791,3.927868491638676,0.6998097912841375,-4.562812776766222,0.835492930167419,-0.7197839335728512,-0.7376266178278164,-1.6653354886010328,-2.584360222128921,-3.639682416589025,-3.4852734915727552,11.807317913176142,-4.746994038184923
-0.94330898732932,-0.342396926114861,1.6792423325855546,0.8279332894451146,-9.589758769377866,0.2400640495533537,-5.240172713354899,-1.447344317917863,0.4269259648410712,0.6626379136762934,5.763934300649936,3.1390534579448683,8.566919925286484,-1.197275067132864
-4.625641350336283,4.495410562500974,-1.7640962032340357,-1.4039820793807525,-11.039816049088174,-2.4629101762584185,-13.62934672580494,-3.737988747243048,1.681168468824142,0.7490748198742477,11.390094107608292,5.847244495404496,-1.0060262045308548,1.9953947421532088
-6.211714431702434,6.236916397192828,-4.73936797112906,-3.189299167727258,-9.651679626286878,-6.657221477339647,-16.779340054160095,-4.347153552296387,1.5190579898625862,0.5500384179243214,9.52712394259612,1.8516424070828637,-10.420843460419306,1.671692976074553
-3.516798837560872,4.45047063572904,-1.2939483544062775,-1.7106423598506149,-8.826341266644192,-10.12443435881569,-15.236362992473731,-3.6272877462145727,0.3117758055587089,-0.9558157162522084,1.180647360812955,-6.735837137158597,-14.355440141656343,-3.040919399855298
-2.2979532238324625,2.198731593942836,1.0342190821992956,0.3759869700118889,-11.64314722797188,-10.75517639024224,-11.197057204774152,-1.466506496181761,-0.9503873877284068,-6.239339499053227,-8.366780897880702,-14.204723593987737,-12.827192162644025,-9.475247157794684
0.4086306266661535,2.124723531747888,3.9085111089072657,4.008515734982809,-18.472723094556905,-8.321336408682228,-2.6363655572641616,2.859430046138141,-1.2084925641614934,-10.814508625365598,-13.38180148343875,-15.638515704207506,-11.04257347479276,-13.193733452340211
2.9689100280275342,3.1449321212831904,6.601124209865517,5.913217165926958,-26.527101582262222,-4.712412350743847,1.6053185779351893,4.603562148153048,-0.5232328527869963,-12.363392954193658,-11.997902131438792,-10.79899068979354,-14.59879267455912,-11.625062350619558
1.6410472168007018,3.3995256511239598,3.797317964423229,3.007549322243518,-31.19802529208496,-2.3843725773544837,1.1311963445540505,3.7055334085236615,0.177207968095178,-11.44927699036178,-7.506488412025519,-4.244611445654016,-23.84414052952708,-6.513886280083852
1.570869570587385,1.7408825266267602,0.2586831573052061,0.2043032951684534,-28.41449146424741,-2.3778623812511768,1.03354792512554,2.6931341174491283,0.2701822134197122,-8.356848125704051,-5.478059821878176,-1.568935999335764,-32.41914937682146,-2.8713267995789664
0.2692062820446239,-3.2836950481542075,-4.648242178409896,-3.109546586256054,-17.11770083717706,-3.6205526091988887,-0.7784370948374731,0.4928055086596982,-0.4484174168673492,-3.5886724602493785,-9.019078795188577,-4.864493798619336,-31.767232781714934,-4.994342039347515
-1.656718873021559,-7.423428629345605,-7.946209248841875,-4.818547896227066,-0.6155137263093451,-4.038570673404287,-0.7356127349089029,0.2475778566147778,-0.9042016255451096,-0.8482636803878603,-16.054029149638062,-11.090199967858233,-18.24895421064435,-12.671249762305926
-0.3917539406352813,-7.629532629661063,-5.212473242159225,-2.7036147168672677,14.49980960622699,-2.4020753212404173,1.7482711147681067,2.375545892985153,-0.1595394094247268,1.1577464353231726,-20.869748246175483,-14.582059492690703,3.027010748888735,-20.72746893855833
0.9255315958862788,-6.939386060912552,-1.8577459536877996,-2.4539524919722364,21.972282853052207,0.7117221141444787,5.463219267953241,3.540467775333904,1.457919260269387,4.660188445258038,-18.66689417868652,-11.618402272306804,21.063403823027315,-22.52889483525276
3.822682646863243,-5.02164924184893,2.726453925132314,-2.840393823476038,19.93151932974536,3.540020625368008,11.524851180922708,4.470368569061116,4.048262659769602,7.1051399453440425,-9.440853204773504,-3.433188972017298,26.492520892071845,-14.963087447744002
6.158611229410621,-2.03458777324945,5.860823913832904,-2.285938368263364,12.164032898700311,4.622839403913019,13.355793822839834,2.880519482622677,5.258770737883076,7.8472310674067804,1.8712113544700628,4.588077883193648,17.951760274336188,-1.1579670421249162
3.769810577370148,-0.0825228943545186,3.416008898496952,-2.0568597401111424,5.1924376163885455,3.8258534274643097,10.602582009130863,-1.9664022377904624,3.557365310814242,4.650605624708361,8.983604702186987,6.822200736801037,2.5099202075072,11.253435118295409
0.6792777719566803,2.6357443161899434,1.3553707307422291,0.9587347968729384,3.3564062287478507,2.1925991483987133,6.442952675271625,-6.318343557583345,0.7338349661087977,-1.7858213439945554,8.662589752744807,1.4537447928923228,-9.892242940635365,15.253636413996354
-4.258836783272433,7.289942970115982,-0.8923665919747419,4.885874430064464,6.066781328656361,1.0298722524748385,-0.7927809603118595,-10.817534684676108,-3.6682716709521888,-9.593238996930952,2.542269423760523,-8.291681789679373,-13.462600536278607,9.279908002158804
-8.214318797324317,8.220992975325963,-3.2583886435932583,5.353160080413869,9.458451816544738,1.1206362966482075,-3.341556903814311,-13.630262694060583,-6.741708298263242,-15.236204463527642,-4.780430373328542,-16.518328685019718,-9.728854578512632,-1.8310231895553883
-6.378785119094282,4.93871524862656,-2.167595011266207,3.4764829399387187,10.474667307443609,2.524846451744793,-0.4807451335601064,-13.914648510414173,-5.865196890729142,-15.677538430069488,-9.513492250458617,-18.81212183782543,-4.908081828125994,-10.576750616793976
-3.745317699956976,3.285573894464382,-0.8166282755575798,1.5604423595526475,9.23469399694379,4.741602450745639,0.1425241973948646,-15.318637280764118,-4.049918684368832,-15.523446851195416,-11.167881194076738,-15.139010417715852,-4.149776873198537,-12.39426360908348
0.2963960375236344,0.2476765147916645,0.5589026758711753,0.7679156400944249,7.677959786570835,6.881668118664727,0.2558212293371176,-17.252320466050982,-1.1450635616633391,-14.801936425287185,-11.97717236292511,-9.444678794366745,-7.516306752693868,-8.775669527411281
4.339152129131519,-0.9870153694354156,2.548946514637524,2.0259221144385577,6.618023747485889,7.915310460612037,-0.1359263249470099,-15.08032042082568,1.9346979463022904,-11.295617018077664,-14.064452255602472,-6.355725475297056,-10.713364860765342,-5.413901445900986
4.141690808754175,1.7073218735380382,2.810963845844198,3.505912817829879,4.897527480480846,7.251381896577136,-2.1605004341843417,-8.97444751446062,2.475113654947929,-6.754123635138885,-16.929740086026136,-7.518330688127236,-9.41909393108323,-6.905668834274348
2.2192673590755083,-0.6378769818294489,1.0576864076812658,1.1995549420353495,1.5768139754946695,5.4211340124446,-0.8531448116562829,-1.7151942265614382,1.9630986905283787,-0.1179031849261345,-17.411503896090895,-10.375114717059663,-3.1785035760147053,-12.459287599325991
-0.2992233599704356,-3.932710804018089,-1.1059751339135215,-4.244030673514741,-1.8094353114125248,4.053928350657014,3.734810815325155,7.641700739035697,1.93080968997176,10.552105416029653,-12.213544438008851,-10.329066793362854,4.384164709525944,-16.34945793115927
-2.590957158490566,-5.42542221749203,-2.8387792187874754,-8.254401472268716,-2.294936490342776,4.641100347524652,4.170250660151491,11.360884961892904,1.053601387705523,15.341947542922748,-1.0273299679948753,-4.609520984513786,8.764130019399389,-12.907339708165969
-2.2971577631661857,-7.078171295967462,-3.290190371549689,-8.400086835671546,0.6590675307194562,6.850722350764122,1.0007030000802053,8.396204402932971,0.2662938005019414,11.922221731631131,12.286081248840487,5.247075740085736,8.013614439912153,-1.8680943883540115
0.7059689780973033,-3.993212272082437,-1.43106603008223,-4.820660291680771,2.8581874024042424,8.093050102285986,-4.250206360455969,7.983719392726983,1.5121761224531485,9.089552568684224,21.666389753425136,14.35865900963192,3.546430403407506,10.622962004982794
3.651422150715847,-0.7127368398445122,0.0726126323534108,0.3152748844214935,-1.785617220865293,5.30400868365705,-13.202475132728004,8.3493037359015,1.279031318528172,0.8540614099855574,22.83644359017872,18.189364808601244,-1.713726899972709,16.475675294827674
4.860406798530089,0.298684147560984,0.604027623632218,3.4051397649974784,-14.912289572694927,-2.183775316728652,-16.751507945598696,8.107664758129884,0.2747151044789266,-4.319285831985793,16.414723756521283,15.961903303303622,-5.513502114603672,12.01461275060808
3.61571571803945,1.5238243887044527,1.0804017158473087,2.999556213271004,-29.919546128865917,-11.271087386439582,-14.431171269368477,8.649135836136212,0.1014330517601311,0.7113136043761912,7.602825252718585,10.961569717830477,-6.833612777174639,0.9187552974275182
-0.7935233820134955,-0.5901397139969139,-0.5830075951841805,0.1684483300551369,-35.37308275256825,-16.873259657727754,-12.47191504863986,6.47285059768334,-2.017816546058704,2.059064560494674,2.3912011885243096,7.552941727096633,-5.159313168531728,-8.714132988466652
-5.2311339177117375,-0.6746575241514254,-1.1003519967216997,-1.7777398182400408,-23.809416457121472,-15.719341964019897,-8.76773488553645,1.540901910645191,-2.471064739696607,5.395556846485861,3.1382437951220314,7.60668422935244,-0.1756972066160749,-10.628731036264858
-6.664357446711259,2.012498490648607,0.2056041608222409,-1.519263126293115,1.3723484452743655,-8.992624748976565,-6.565063697858924,-0.4877347147410974,-0.9043154455279854,9.552976736702409,7.17376727547542,9.503812096194522,7.386451075024887,-4.722602351514535
-4.780716020904313,3.3822814523037934,0.9573583226676764,0.6953088796794952,27.254958176211204,-1.447895488827534,-6.724603819074064,0.0289459969559161,-0.3243764211847615,4.989778339100131,9.684087250265952,10.422632897150445,15.019737000776844,3.9378747171336137
-0.1993165568126607,7.654806422015881,3.3779674564037947,5.691543215619052,40.404766875482345,2.2982888131349206,-4.142667232054191,-0.7170065340859234,0.86036264411643,2.1026024086513244,8.358037375498508,9.488763739963012,19.4858769735917,10.020609330367714
4.270402976138058,9.749031948549968,4.624536189573326,10.123745597715557,36.31396413557681,1.135178255039829,0.4006769605781355,-1.734795261814116,0.7491596426972853,0.2031779813836673,5.547291364067624,8.615206898760306,19.37033280755903,12.192583638374964
5.439214056502199,6.367663276943325,2.7887619149960536,9.808237470060336,21.70483545310289,-2.2614493086407315,4.07548770898741,-2.676795343855413,-0.5594030664104179,-3.094130301260412,5.874265749972974,10.26021902226474,16.720586293973504,13.26528571144581
2.4003097303505982,1.0981505243048004,-0.3320220877768078,4.102410796950285,8.291396569135522,-4.137530367177007,7.538769558721514,-4.02763548828846,-0.2825330194331349,0.0536743557378519,11.496186712978147,14.501221548599258,15.621894899036466,16.727526317356908
-0.959869246676258,-4.642315325415137,-2.473554601946064,-3.196862027651632,3.679729009570366,-2.7307725025105007,10.067064644019682,-5.082585515395369,-0.4620336177865872,4.746655030088424,19.5598739758426,18.52679697908753,18.43565623239594,23.20645620409447
-2.5309078174032185,-9.1991482699747,-2.9976715610447924,-10.90649340641679,6.896476116262569,0.8784742664774541,11.13026972636854,-5.902338860241839,-0.4269558073326627,8.02438275494905,24.382941417410507,19.13814588585484,23.08979463937071,29.892300567843087
-2.1738445673105007,-8.753968644783747,-2.0794696282827827,-13.241647777358228,11.37134589047945,4.403865038598916,12.603177837943832,-5.576497083992922,0.4527191831352968,11.23418542072518,22.385886826751,15.714947972692118,24.31535470582388,32.89992636340604
0.941047193836272,-3.788292877214223,0.1384491320631052,-6.597376413029343,11.659018463074403,6.537900022671327,14.20355086343848,-3.870417219915822,0.6156223244174179,10.843113200519822,15.138312006644425,10.614127722710965,18.15909528692868,30.08695683937411
3.683917456552499,-0.800455993415985,0.2720265438679838,0.1265187376943344,7.639811086074776,7.640235575060537,16.004103573827276,0.3345633875575662,1.6847913763547333,8.799251897357333,7.700442016885095,6.650642796828489,5.804799421825184,22.070081773779723
4.522311327441054,2.2907208611478103,-0.5131500600062989,7.765331414037909,3.151244955386783,8.665661432128736,18.353286952546704,7.540204172558113,3.1060987976228573,7.316306861719289,3.9587890210340175,4.334701956363258,-6.932446160093367,11.268891818748152
4.195625239478563,4.352520535168344,-0.1047899141026694,11.868922533464348,1.3966916817615989,9.774469030328074,16.379715508184173,10.054437231389864,2.7125360798888085,5.939900394753858,3.445281932822983,1.738358061856264,-14.167616030639696,0.3907028096416667
3.9180575255331376,3.734365354629487,1.8746975099076784,8.097135630264138,1.922759203358602,10.091623015402668,9.788134013025283,7.696518390164146,0.7208558186366764,4.552923320862343,2.5028760755718693,-2.950986016359927,-14.462790293286318,-8.456833832692872
1.1569294627211388,3.227515365959461,2.6439279580976325,3.0300989048973053,1.671418387909597,8.67114661854831,2.109891869607441,5.261587171852255,-1.1281295063151184,2.583015171682685,-1.648452936453129,-8.962454702389898,-11.207479566605048,-14.039328047436603
-2.56506571416414,0.7420278869216658,1.794968026752692,-3.818968194638349,-1.58313088440266,5.493634463185583,-7.811459449057037,1.0037749570681374,-2.534186761286838,0.1037608227823306,-8.065644452670853,-13.21589381157575,-8.714282730942443,-16.207572629229194
-4.35742665379999,-2.415783100747893,0.3629027368169844,-8.39673664918946,-7.039686571077354,1.4813545687447274,-12.681226415971512,0.2852461693558293,-2.50416409322781,-1.5994381667568387,-13.062499357465288,-13.100153694096786,-7.977742341693496,-16.02687176948595
-6.9973477129522434,-4.502174928543038,-3.1270401548764104,-7.9409732393005985,-11.80479624533396,-2.3178461795933885,-11.430322954953256,4.0000612738625705,-1.0031615993365095,-1.5892363659076485,-13.674329225555958,-8.910123933200694,-6.280441862271871,-15.197648574422889
-8.759108760679343,-5.588094491924909,-5.002937677238224,-7.3709172954051105,-13.668423379891689,-5.415940512716656,-12.870682166820082,4.553310281156857,-1.466730533797772,-0.511339698270519,-9.990444480977583,-3.4800187434814625,-0.9416546076716584,-14.618885686938825
-10.653886648150747,-5.525149286208805,-6.058356774411939,-7.080034644439611,-12.953556345132917,-7.823125441991797,-15.304912115307022,3.098189455379071,-3.28661148330858,1.2910295143515418,-4.310028726515789,0.5410132235514808,6.714160707927434,-13.165539731459068
-10.884178362661252,-3.964124321529952,-6.155862652599671,-5.60540657680427,-11.880435427431742,-9.568755868028536,-15.365467611634374,3.412407683578627,-4.1323867434473,3.817225606429101,1.439851889819888,2.960951185494075,11.478625728175974,-8.180834117348905
-7.652348177967989,-2.752955414336885,-4.4237209760795455,-4.486788589581841,-12.220898039124416,-10.526022873146642,-14.162287493453192,4.451482474586112,-3.2615979984810703,7.971951396662853,7.017316956709925,5.648535420329955,8.879600003727143,2.112611272246742
-0.6496833690835668,-1.1070886683598022,-1.0575302462461584,-0.5940806943367092,-13.373635007976093,-10.71673401950576,-10.76288042163762,8.16547011652453,0.0605489048008048,13.566519715119608,12.775793878750996,10.082054807159938,0.188967489525158,16.128774732540457
11.04950515878716,2.000810953997075,4.936066487789805,7.197307368572288,-12.546856703055616,-10.556727615157182,-4.68082891995667,15.272973903603216,4.233313009428925,20.214861041420026,17.99203365554132,15.506859236967104,-7.120333040409962,28.85804631874985
16.142803235607726,3.1744055425161743,7.451927074899298,10.507881152028933,-7.081189430384393,-10.539527530274526,-1.0225232841159764,16.797737309881935,5.800056743722972,24.130253663284503,20.977818051147757,19.53687534664351,-4.627842532144292,34.896116274913126
13.268170183438771,4.684892038840513,6.368238359519374,9.523143619160278,2.7719805323235445,-10.604726692401163,0.1745741453502239,12.72506768536823,4.218826498492949,22.423436670534095,20.907253144681093,20.343726458278883,10.022230776915183,32.31177707522434
11.854414718913112,9.434183968355963,6.584929904986808,9.862302794838802,12.980771534953124,-9.9479864401349,5.864002841216673,8.956069550901933,2.518477458980733,18.9304255990566,18.89911089631122,17.976214650592787,30.21013886666662,23.944585118657777
8.865743255012868,15.380346282816786,6.12957761876412,9.049971133104403,18.038558762807654,-7.632046763056146,15.328965464453914,3.602875146796426,2.4073823233231044,13.224001410778708,16.60571356325638,13.525688753301496,44.304831660919305,14.780626373100516
6.2204465500828245,17.147045207345567,5.562758875394467,7.581151037346752,15.165205144319248,-3.477817311685441,19.822588101450098,-0.0893837635489721,3.144940861546344,6.810923867106352,13.730340932941688,7.393299222091082,43.67465843581873,7.668225190350403
6.162597853234903,11.373917715895525,5.207220544722875,5.986732410088448,6.980962320673676,1.6279689175143446,19.9861105636132,-1.2074208668661413,3.113906702401536,1.4443235913552044,7.701485818528547,-1.0700069650999264,28.49720475534792,1.3330183348501905
-3.4248843846951336,-1.9858115653306267,-1.8226848588128333,-2.57466770308356,-0.1945953728527341,6.283629374367002,17.423826619012644,-5.228253657727513,0.5242889212253472,-6.240162021745997,-3.367742288480974,-11.950165487183217,6.86013104579751,-7.421619174915
-18.706910882603395,-21.0550023919692,-12.78800735134319,-15.95516689075495,-1.6590375815437834,9.42119615257613,10.178058565941704,-11.37058098725054,-5.461360946509368,-15.809194383307547,-17.28641120753395,-23.048463646544104,-11.791230784383004,-19.474758986934127
-22.84445907741741,-28.66686324071622,-16.01176425010936,-20.80865323262988,1.2594583143875533,10.729966358141978,7.418177737230729,-13.416471090606253,-9.353876673686926,-21.983695009821773,-28.04288693393925,-30.343769982085945,-23.147034562890063,-31.31662904348659
-16.043611927866003,-18.82035739865301,-10.665843803299492,-14.93145513878716,2.179721595020088,10.513364350497463,9.4513522106917,-11.775882865780169,-7.428435197326153,-22.983951438212312,-30.36222629410809,-30.718629488479287,-29.128733436372084,-37.32180497468774
-4.389720907380993,-5.934447231592428,-1.334246583172103,-4.856047352274447,-4.126363258526999,9.386802019004609,8.479969061114396,-9.958131816003217,-3.3885590932295138,-22.598312834161323,-24.47398846602695,-24.53555270483209,-33.40963498647925,-34.34915656311811
11.508749573754514,10.289744341191756,11.004076511105858,9.598964492412565,-15.781902906228432,8.125810971653928,6.360710628802581,-6.7767163336096825,2.532039868879264,-19.24831647821717,-16.210804640961715,-15.589320792294789,-36.37892690125536,-24.43173356056863
16.53458716105334,17.598756253564225,14.837321609659616,16.133027283162253,-24.15056119849685,7.508538681900001,3.770658063510522,-5.655435108737499,6.063818989270924,-16.905569179664898,-11.992263264828344,-8.430991684347426,-34.788951962447854,-13.22677796581458
6.781563113314416,8.331434223856702,6.738220358286309,8.942391358847697,-21.02249961930389,7.906015931369825,-0.3365050434105523,-7.274051219405501,3.944668814714286,-19.521429459906468,-13.45165686405633,-5.471348768838341,-26.245190368080863,-5.895510979917813
1.065108876609879,2.301561024435465,0.2624999584454415,2.5878386405107587,-6.449726979208659,8.84284007977712,-3.6138079088461343,-6.057236702110755,1.357169836860038,-20.20079068033434,-16.8841278095721,-6.204277136706054,-13.409882252115818,-4.15653297266184
-3.199882924115067,-2.276092104804073,-6.067319549004668,-3.737903305337428,10.240258799808824,9.116063963900524,-6.140933850951787,-2.7254085109446464,-0.6967793988301689,-20.311172022913084,-17.75128034652973,-8.6406928686184,-2.9003690913140847,-6.568885503578866
-5.568388439633894,-5.705431068711742,-9.319025756944855,-7.622385650579916,17.753484088897277,7.682018581478855,-7.762534230080176,-1.2291831468041023,-1.737936144253108,-20.58539938036244,-15.34629463015798,-11.102277255203012,0.4599931704251006,-10.761638682791611
-0.6469932593884733,-1.5069287309891863,-4.400870123785973,-3.373573711631271,12.124723668780836,4.662662005669694,-7.897317582448823,-0.8521579943803724,-0.5872387714984408,-16.949532994787088,-12.81734330135523,-12.75251036731042,-1.9543525807237607,-14.907687902907616
-0.612819912782453,-0.1873849147984262,-2.096956106487234,-0.8857329263370803,-0.4228519341616348,1.468122257113894,-6.181230471751117,-0.0882902651509266,0.5028150587070793,-12.99504523797685,-12.896100217977985,-13.018494177438644,-4.49912432580976,-17.40631928418886
-2.347905834301294,-0.4323159634773309,-0.3588992354190561,-0.6570910488561756,-9.536759185912198,-0.2676886562086809,-2.205324217896265,0.4838099828967109,0.4890263924543738,-9.40320275025003,-14.301199041336307,-11.226982835026746,-3.782402808856804,-16.228289725843517
-0.5760207553511435,1.6682493445936788,2.393676899677624,0.1811424856585426,-9.851693710291723,-0.082653787370595,-0.8284993279670296,1.018878328170916,0.4237373150160032,-5.081885462376075,-12.94430482261886,-7.1785390433710745,-2.7103213229962453,-9.73124485569664
-0.2986760689545262,1.3401783122771826,1.1115166127290552,-1.2207037515691228,-4.668792575684439,0.8562083976826615,-2.188710567115552,1.65859571365382,0.0149964189857579,-2.6655490003021765,-6.730242016302636,-1.942405762843128,-7.189798490365484,1.343041096136747
0.7994842327296274,0.0276401700747454,0.5087985960731769,-1.3600970381345985,-1.2839377952494102,0.6990622134253881,-5.0483437950821,-0.528806230545256,-0.6069543965234918,-0.9307306924359086,1.3117674784685285,2.345739795735948,-18.51849398991839,12.964729384043338
0.6993651986757824,-2.067911161472098,-0.3024022689478459,0.9306072926554372,-3.184054713099453,-1.5420332613970196,-10.703943599054831,-5.747469823003325,-0.6488450987171184,1.6025761497478643,5.231759017150456,3.8948945966652193,-29.69788833997021,19.708913722277217
-1.9135688838594969,-4.347026583421632,-1.8635890813546327,2.342674197303164,-6.926716913133823,-5.1667844053160055,-12.474869696867763,-8.107690656322195,-0.8985422945509256,2.973222989813653,1.7884221081311136,2.715108886839652,-30.41183954314486,18.43724228872905
-1.703563332403409,-2.651283924005002,0.0455148317673863,3.224164496640339,-6.302521012601025,-8.314721166713822,-10.071839772052224,-7.936195750008141,-0.8277848758877295,3.0518301427436554,-6.098353953737275,0.7252074224660365,-16.463110886100964,10.728486255487
2.188385304101097,2.878019132059012,3.864260528387241,3.930629064942488,0.9851915278928818,-9.331654380546198,-6.643124403925039,-7.020191839302299,0.3889047477048493,2.926080533881346,-11.627836331407588,0.2900283284175682,5.564386706937137,1.8563402429132143
9.399683663999868,10.495285167251856,9.236954694253232,3.627063072728053,10.898878125203524,-7.877810897148632,-0.5319411975139247,-4.085923764483499,1.5459917891238302,1.2189955810016062,-10.026611497630547,2.383355545507831,23.237311583683223,-2.931671487474338
13.623295712013263,13.538002901100562,11.693788555156306,2.3487997664135465,16.811338167155608,-5.048990960304174,1.4633652143949794,-2.7720313649259647,1.9612173376593596,-0.1035625640396967,-2.4837741696119,5.891337341688842,28.215014630781177,-1.831138864737751
9.095971073302428,7.603283845540075,6.981949288567038,0.5560368617420106,15.170543523933794,-2.590190307637229,-1.2825753633864354,-3.2433424203730765,1.4724208018595046,0.9429455191121566,5.394112318718425,8.550644094170703,21.929168263482897,2.9264694603880788
0.0586442133502806,-0.8825643191450345,-0.3093979237078552,-1.4467092196585292,7.706534226802221,-1.8230917048466964,-3.4023229242684163,-2.745794897713371,-0.5473489314868354,1.5513919521150332,8.74786645220259,8.656962329958592,12.376557900072594,7.292806986135218
-11.49267255602468,-10.419845930104486,-10.002178895106692,-4.013000826535775,-0.9348425753910874,-2.9161252490742218,-6.532392265482138,-2.0528181169616047,-2.406542309681491,2.214216944654638,7.199878669599363,6.171862199698529,6.1854493339159,8.299490526718621
-16.561659871844576,-14.477739848560049,-14.87647784707567,-4.209280292463517,-6.834182032197467,-4.821522748707292,-7.073623156657535,-0.7773569739452012,-2.130559166662667,3.538873626203207,4.0350860867098906,2.526092288596441,3.9289983240799913,5.511276808817615
-10.357578076782136,-8.727007033136246,-9.848016050290443,-1.781348966244145,-8.376552582278713,-5.875920081789437,-4.110843494436663,1.444897168080274,-0.4584531454830172,4.16568914342053,2.4082658592343087,-0.4738859953302157,2.2130246773821654,0.5798848827846843
-3.829652561345052,-3.9381622713214033,-4.587186704653657,-0.950065537763944,-5.747941412732413,-4.787988546100032,-2.362200141202208,3.743983686299834,1.404218075673329,5.131602371579668,2.73379216867173,-1.6740945574858088,-1.1591554971519642,-4.091524859565842
1.748878964601844,-0.2241100588774818,1.3522624930874567,0.080629392648534,-0.4621475482248467,-1.5148588802684522,-0.8562541395793292,6.311215731721058,2.410107902023661,6.931226188976009,3.5421931489032783,-0.9151766610289532,-4.926596478266439,-6.477964904218283
4.154772188039142,2.376472959863826,5.246175039534909,0.2885114856225593,4.321244487920554,2.524825576837946,-0.3178742010373622,7.36782691278114,1.361116566687478,8.214338727904888,4.147657534821629,1.2168568888953644,-6.713368984423602,-5.5862834689954886
1.3980618286121975,1.6890284316005078,3.0721988799830884,-0.8600514636367322,4.311462665241762,5.16444580806404,-1.5500815021002212,6.612367814166717,-0.6398612356132066,8.817687716270179,5.751200234524273,3.784394403518293,-6.293407691527211,-1.851677067349737
1.2051125573653445,2.170259672846857,2.4353402129802726,1.1506677732705124,-3.200146595100419,4.812108235279618,-2.49385216130291,5.66461650119676,-0.9981290311929868,9.554908472008137,9.701231234143972,5.798446649814865,-5.592674133334586,2.81514923648544
3.7393891067403455,3.9740796851191904,3.541048628395985,3.8620285932951406,-16.03840760318537,1.5631329753330752,-3.5540472996088943,4.028810250798287,-0.2956186856238758,10.01182679123713,15.029453926182224,6.514662100882865,-5.604824125024541,5.784028154479282
4.761635477211424,4.323933930416676,3.216043805770676,4.469667502390756,-26.839158319771908,-2.707349907435449,-3.70033284493265,2.9923809733402105,0.5536516760271079,9.28063360107068,18.3134421504328,5.790002339305578,-4.277023824677815,5.276368734022382
3.621915540723744,2.8489434850940047,2.1449329251126983,2.633852516620842,-27.365251889164725,-5.459445596837779,-2.5164587029867884,2.845958526161496,0.9255177628974828,7.5543352831352495,16.44342123375687,4.263207805268679,1.5956891806779705,1.7738272117160545
1.1512531331372664,2.110146881358756,-0.1981515742846094,-2.660894815984276,-14.682433968474502,-5.141069285105921,-0.826343473013165,1.5498372615689795,-0.8225628285394151,5.111974714450681,9.689445952645771,3.038936638878182,12.09066592760199,-2.053486294806243
-2.5918392580209684,1.0051428030676568,-4.993456046654497,-8.705875172592732,5.89074328783223,-2.24526698213183,1.7932344736623662,-0.6015543302090874,-2.897347915621607,1.352529815679569,1.9510509641622669,2.940914464803858,22.199742823367483,-3.1952918805947883
-3.633367030534308,0.2012711634596508,-6.904492399779731,-9.776735432633735,23.833220827319764,1.0320391062891554,3.939434667818901,-1.0600112124894312,-3.0535495278227875,-0.3208434196755453,-2.24040462548716,3.898328295109741,24.97134121615086,-0.6016077332492635
-1.3421896005429166,0.269500954134599,-3.9880927531193695,-5.232077425602983,30.317287875086787,2.366834512506556,5.497082300010562,0.0454307595051717,-1.3948051126178946,1.0992058807165337,-1.2651066051357107,5.044023641405834,17.4598050620653,3.991908414375697
-0.0335351705128987,-0.8970204807373849,-0.687661930468354,1.498850342144499,23.736870863988138,1.012704536697405,6.854414835730611,1.8258977360885,1.141120644588676,2.612927933678661,2.6662276945377297,5.502780370950298,4.075426878833589,7.483840063262032
0.789144654667573,-1.808615608293856,4.322601736257984,8.32514004224766,9.995806116269156,-1.6301244915692914,7.611347340524944,4.845218411816861,3.057680082893372,5.954140311926925,5.840198945656077,5.187565812080775,-6.095860059958544,7.90865002269368
0.1678389710663466,-2.263247666049481,6.524251030983383,9.502552398582512,-2.075932105218816,-3.0467292577218528,8.154976644561344,6.442632287907645,2.8242896306972414,7.812366508100837,6.265610579558871,4.874508563961027,-6.14736347047081,5.923679927985584
-1.2452523761901957,-2.33767936812574,3.4433437108558413,4.866588435828512,-6.395133835212977,-1.499638050803533,8.400659532076485,6.410359376038975,0.961323979761054,6.72238253067201,4.87332435831002,5.477710071450116,3.2182530549333306,4.081405704609277
0.3202823863135839,-1.6577696079785462,2.0969227973475326,1.776422598410566,-2.49953082198344,2.6300613634775654,8.851859070125867,7.026635146005669,-0.149140119027296,6.598003011955045,3.931983073135975,7.180773357611204,14.167693262763333,4.5620135618577535
2.8343544456445167,-1.7552739656984608,0.8188676602829353,0.0299121256339702,5.578829707730426,7.052290787825819,9.60239049661387,7.686424383298538,-0.2138446158446055,5.30284210249059,4.556475715580419,9.204765266597544,17.726827176901715,7.266297303735559
4.203777698140832,-1.614236645732411,0.0322392369282029,0.115224638442668,12.71532471334866,9.146213518234209,9.615079831726282,7.849504167557646,0.4254343568832643,4.904215713222965,5.798944539278686,10.39899632827208,10.499969242860455,9.81478062235806
4.162966403622589,-0.3890056955041033,1.809708338886172,2.2060886766261323,15.659811981358429,7.721669475433639,8.97412147051261,7.745220556152327,1.0485756364495262,5.7691699095442095,6.017610922907734,10.099736265814032,-3.002328187969617,9.452216198149252
0.7540758653142895,0.5637351107000658,0.0045014636164872,0.2872670687120366,14.018686791509555,3.7170609243121007,7.838214912649138,7.422897136828774,0.27128682411505,5.42711062258439,4.911965326364246,8.502517225799451,-13.897577962034964,5.351075725805853
-2.709338292077334,2.8417033674560392,-2.8428781136988968,-3.5449606194053214,9.509114246972034,-0.5551923431940171,5.984858188741181,6.838923080775363,-1.3566941067670983,6.30235926852002,4.018679941062867,6.28923333923006,-15.367442542875136,-0.5535431272920008
-3.684397056877256,3.805371852492554,-3.4603276878330624,-5.372965055764621,4.6104571022386285,-2.9617035285147155,4.485872425352742,5.426967809397433,-2.539758170852983,4.637442343759616,5.066653184491422,3.9516786358670704,-7.217106084541859,-4.9730003099332585
-3.8678747625025816,1.3477518469721494,-3.985222586963345,-5.898453843793089,1.3956534076538212,-2.7923953444863963,3.3731070775893,3.1282622010564767,-2.481279283602726,1.347388511020747,7.79981372432146,1.4879156206215924,4.4523573699283485,-5.875773478884783
-3.2273021975900225,-0.2826685162313974,-2.8675630699524595,-4.398549094743958,0.7044162084001253,-0.9473975179786088,1.6150144002971176,-0.5814376788206609,-1.1608533109515844,-1.0752253690117393,9.563431717122327,-1.2809856700640043,11.83017484392652,-4.114060185868072
-4.741634074704579,-2.9819664597705065,-2.6955920596008967,-2.8927337452479054,1.7635663833952189,0.8925546646092779,-0.5857564896544288,-5.950606172509184,0.530163660364766,-6.976875163129851,7.398591547496863,-4.176688292270772,10.780838034806065,-2.5325753784581035
-6.05658314746386,-4.164732028790587,-3.6955522814920663,-2.095175494689861,2.621199060993604,1.4462293169853702,-1.7338274596586043,-8.559093988131336,1.577746505562721,-8.449223848110314,0.95805633475836,-6.52948134310334,3.2871929710795205,-3.188252597127134
-3.4659872282095705,-0.810280757302329,-2.647038773435605,-0.4876255013152837,1.5022861815518072,0.5909788754231038,-1.8478264758824607,-8.243518940059687,1.3717642212066696,-6.055735391351544,-6.487340581294845,-7.629046036138906,-4.545138010682807,-5.173601720387491
-0.1298248935922193,-0.5795329867917487,-0.7214977329107297,0.7938408784180068,-1.710402222405101,-0.7001057465396523,-2.237072342128922,-7.409037427615329,0.0593461896925684,-5.765893123200675,-10.210050158482964,-7.314031797248266,-7.228685273116911,-5.219155465595908
6.273682094974628,-1.0155424594004814,3.7264028018257935,3.551723878747771,-5.203312597065656,-1.1012964852263645,-2.6178318130650418,-4.980570807490464,-1.1705752508983174,-0.0432493588102195,-7.778733255712956,-6.087574116583882,-3.748093926114705,-0.7572675649393021
9.788577912868744,-0.3170292950240712,6.934965891686407,5.14324563033928,-6.710512811427191,0.1599111529226468,-3.1479308781355213,-3.947538774120245,-1.42961629887163,2.236210107660141,-1.1896111126816775,-4.632377954282443,2.318854844544328,7.293747041630459
5.847463026737418,-0.6884703506725938,5.294163521071702,3.6494808681818975,-5.6337542932403135,2.787960757399949,-4.05022145481063,-4.672190982417024,-0.4187765976338795,0.2025790173581461,4.610013385777481,-3.234050089028107,6.229176857293079,14.676618231024715
3.747171308899024,3.7659926496799008,4.286963918842869,4.740876418106143,-3.827690322365993,5.569476304537091,-2.736983921197999,-4.635997587659708,1.849953501895443,2.747890102749878,5.639887085694463,-1.7253294635202048,6.009125261041435,16.869711339377147
0.9209696749797862,10.38370733957592,3.1471749579578385,6.064054512714852,-4.083806881990965,7.06007049682275,0.8997841590789103,-4.576107828909501,3.992148854981312,0.8090057541864004,1.8681609775048424,-0.0028406635625312,3.6217432226546,12.415006713665043
-1.0799642415067543,11.573253825182109,2.1232654821641748,5.973867693958861,-7.45349320312404,6.387077592392411,1.964967726434901,-4.821501325345893,4.091965373969561,-0.3851375355695194,-3.2612676725442054,1.4784539403149972,2.694074987797493,3.7365081639151594
0.9093329091764848,6.328522039509886,2.364751920562858,4.845452081331239,-11.789602288288672,3.712407367162661,0.7325160648938408,-5.136083889878336,2.019210029462533,0.787141194660159,-6.094923134999672,1.858963972920421,5.12086403961397,-4.869799866991924
-1.682332373379622,-1.993426981887482,-0.831763864130858,-1.0562011829110756,-13.023077388495873,0.1209117161462994,-2.449225465315285,-5.3580583202621845,-1.1634478705475289,-3.241020856843686,-5.702876991494259,0.6432801048182188,9.503579776347967,-9.992836327870297
-5.829550119434549,-11.204279303887017,-6.790089192700847,-8.953944920657234,-8.402421194231778,-2.960322068319634,-8.757423010812031,-5.462383464784102,-4.419913841488449,-4.728892215739944,-3.935169798733437,-1.642404715352047,12.372839856931453,-10.433228681294016
-6.774068536612605,-13.804236467893558,-9.781676287437918,-12.344135962425309,0.8660133965192891,-4.451857926050394,-9.519984387530265,-4.307082767524713,-4.933682324414489,-4.663028260814127,-2.990356699600106,-3.623005404140425,10.746625324932667,-6.7970440686443965
-5.2812547111185895,-6.940870642534449,-7.5388356803206,-9.654200924363405,9.90992274890569,-4.040402100262366,-4.405260351385674,-1.7040465257567423,-2.493835571144635,-4.429810088781666,-3.180521123629184,-4.04333561980528,4.022318793086569,-0.6094708034686533
0.3496473454906942,-1.2357059806380646,-1.8014736356746497,-3.964648216278962,13.553769931336682,-2.1563224953913007,1.15011628565708,0.5709806345932583,-0.4163237655615195,-0.1245972073729607,-3.0400021718474406,-2.716645848557068,-5.622887880499079,6.073512203384283
6.931815828580909,2.0287231167170363,6.004639839814404,1.556490276340163,10.33838954225036,0.3806514534443401,9.156109197581362,2.764249034778916,1.307895756603615,3.3971250307147365,-1.330758418316222,-0.6114844574650249,-14.048941576693576,10.874526994746454
8.337719632349945,1.826284614316932,9.476374060356097,3.319126945595446,3.9183803576523424,2.788555250142913,11.482569569809067,4.006449347780725,1.443290341650259,4.75224449211076,1.3655357646411517,0.98070241287407,-16.860729391697365,11.892739887849114
4.566683638796534,-2.0073993248148336,5.589830352978314,0.9435732453206992,0.3675299722486684,4.60818193661361,6.927998055994284,3.858685565373888,-0.4920589071660612,5.013193536501918,3.1143252918665034,1.4139221414532166,-11.784825167836727,8.895360947296227
-0.7658966983494837,-0.9484154944172402,0.5767166266855175,-0.5320546676730917,3.2758576818568166,5.772806853013737,4.642396806426391,4.643955922155253,-0.4824531795774163,3.315652013910438,2.542465122911638,0.9417205045850086,-0.7289589734233886,3.696715748146879
-5.309536189852766,4.5128837605150025,-3.6462749917174326,2.0176080196741406,10.669887527393572,6.493738857488388,2.692372051010292,6.118334812837334,0.2887271188283307,1.4543180566182734,0.1898988580051543,0.1640811284791645,10.33128358379637,-1.025415050321001
-5.813711527856111,9.016600433389469,-4.852402123130391,5.453639258258119,16.552667986126334,7.026678233355746,2.1704244907222776,6.559104723636533,0.7136204429359274,1.3835464764040508,-1.9572874656344013,-0.6285472794193474,14.635925308028996,-3.61148045446464
-2.6536307827479733,9.039103127357045,-1.9197170456870745,6.641283626706652,15.92652624018601,7.419416984655797,4.59978942569508,6.28178363969303,1.7463116636912777,2.0994190700021083,-2.1356598295913187,-1.503909404967505,9.369731888398622,-4.235240752102126
-0.149870444941191,2.829491007057077,-0.1415052374300577,5.505300017554793,8.955343264312638,7.387690340243282,3.998861705281013,5.365496852581321,1.467757404411176,2.938585784033277,-0.073492326527834,-2.3948311464736527,-1.933295675020723,-3.9219458088406753
1.259160418240291,-6.285602382451726,-0.7041547046509908,0.4534487205340626,0.585833539186531,6.443463294741431,0.8384645105179214,3.5034906950569744,1.6319937877816728,4.434180857688723,3.05552863636607,-2.808314676254429,-11.773475635442283,-3.01448114555458
1.8286614350935344,-10.870391580689352,-1.3419734077675998,-3.969142927086665,-3.927260012855365,4.245447918756543,-1.102804382073119,2.770375864007681,2.378190631131228,3.811753312762976,5.566758196397361,-2.2565519658963886,-14.247239892549052,-0.9950879391853712
1.4601050346048972,-7.443234500492048,-1.260383095078324,-3.084638905961193,-3.4270184299159503,0.943505934568778,-2.776661891257669,3.241470520620405,1.777893381393148,1.4180121208509304,6.119346161841664,-0.9986341757749156,-9.162680870823468,2.009238985615351
0.7652181082326349,0.3035146235108721,-0.0764989967646763,-1.6122674181114292,-1.281957389606653,-2.761675246936018,-4.744655290683331,2.072058980254816,0.5570437097631349,-0.5935558659250746,4.080784159329381,-0.1211743647526972,-1.3008663829091471,3.9135638195382185
-0.5093017438164814,7.102818310300957,2.4293962929413246,-0.3188995130599891,-1.8026066057632208,-5.9288242674777685,-6.524936792901125,-0.41940708778846,-2.921906699780817,-4.534711088526774,-0.3039208690813701,-0.5683501041964583,4.154771327736911,1.66629881032304
-2.2758995175568635,7.7534840272402334,3.1146582071305,0.2574414747996551,-6.221584902198645,-7.854773125870226,-7.629489297387937,-2.29338741154146,-5.934935962386675,-5.9660738096592345,-5.704467076817778,-1.9646384597211,5.6685594974707225,-5.708632678024899
-3.035356188289296,2.0185752644311448,0.98314704348605,-2.231741215462016,-11.787490661442911,-8.38658230416679,-7.934692088480534,-3.963766610303836,-5.170266704651377,-3.299981605855992,-9.828033529274135,-2.583905644471973,5.455362323982966,-14.911029847106242
-0.9573707861189216,-4.255948635429978,-0.1565342791757673,-3.999386831306305,-14.318554748234131,-7.866937162300368,-6.147718723993823,-3.7965523158582,-2.990167988848258,-1.5540694994286,-10.386602292386344,-0.8359939490703621,6.217171774156361,-19.79090986896932
2.684527630357028,-6.963290033328761,-0.8380378632197215,-3.2095872335516087,-11.585761186269876,-6.791554525446252,-1.9058229456891715,-1.3004608112120206,1.5615313803163002,2.767356040994758,-6.638523485719862,2.9901925069891853,8.10377497539209,-15.933187825014482
4.993708142020618,-4.675869702009196,-0.5470616217246507,-1.0093582720732714,-4.763199916035118,-5.456077591924529,0.1905419694306013,0.2787073560718451,5.280879425939071,5.988039449641371,-0.2875836538417395,6.537306564052933,8.777424104683934,-4.580805396679924
3.396233606160062,-0.0267162587820158,0.6960150648600572,1.1951819334200615,2.66458462595177,-3.859215520300253,0.2433594494191062,1.326733252755251,3.9836769934752394,4.314759948114222,5.351791977594703,7.227635220120373,6.154522159903898,7.827727515364804
-0.7959165620095919,2.776461061675441,-0.1975034081861893,2.4351530422743304,7.185425957339424,-1.9375457226563864,0.1652298801052734,1.5930656764529498,1.41205810677767,4.307302976803354,7.596262194083977,4.586401380139453,0.9071961442049954,14.414511307814214
-4.636942841943928,3.21153649603591,-1.3854380628882412,2.7019451648632997,7.1061651266962205,0.0439158541170279,-1.0636393435069442,0.3833265340153432,-2.1351958749057856,3.340231415831213,6.274723947562851,0.8043639560653002,-3.6974800329575785,12.85108283554205
-5.204504167336702,1.7896132413158872,-1.3527670707551092,1.5947358629914017,3.1779631514254234,1.2929072863898234,-1.9901755676183173,-0.1539172746760423,-4.561297316497399,0.8774571737897636,3.5850528522231144,-1.1513111867824684,-4.424825858270104,6.333614595498098
-0.791798782206907,0.8055839519724642,-0.0211081741043639,1.2185413034626458,-2.0577040936332534,0.7780789368174652,-2.504807255875183,-0.2461299263316231,-2.0975548824916106,0.873324705990403,2.036870152675757,-0.1936988208283843,-0.8133451858085792,0.1139951741383527
4.6136749448320495,2.368305336746668,2.922473231063296,2.904920766644921,-5.90890873900095,-2.027401974473808,-5.327971050212132,0.1849922891648351,2.123599177922147,-0.3525537270481887,2.3782621257379954,1.9819751508221088,4.278114841728874,-2.8180480370330887
7.993876912477555,3.864249715857127,4.816377203527037,3.4179289979980725,-7.393663337222701,-6.429471193717143,-10.316174842431336,1.5890163846939307,6.496861595247276,-3.125649031579649,3.3729333551970537,2.63846925621192,6.7255448920651055,-3.007504300112684
7.02683660151413,3.396152334496901,3.5928294208988163,2.4054718983820287,-8.04159960456424,-10.500435467799711,-12.814580406061912,0.5523091867115378,8.182786761064303,-6.1531247709519015,3.401331820458674,0.6904531223981714,4.163706702420793,-2.351544816284292
2.538138250838362,1.8803074589883944,0.9292681785914404,1.2255047482787789,-10.683559977815037,-12.076862646221796,-13.020902724194428,-3.008577494659345,4.8375204415051165,-11.507750397189351,2.0326777478021256,-2.311537239917945,-2.3303658831139984,-1.5430776655242546
-1.221495651233325,-1.200273852585099,-1.3878322077560383,-1.5597330599686805,-16.801610322661695,-10.263840810691354,-10.123631848502766,-6.4769924290714815,-0.2929271245875584,-18.65137246955529,-0.1285557270573001,-3.923160561044764,-9.179884684705115,-0.1303189641215354
-3.2920387429528333,-3.187652289963566,-1.890440051371011,-2.211388713052841,-24.577528103641995,-6.321405650341605,-2.8386225156217213,-10.568840760189662,-5.332226208618133,-26.43670182603069,-3.019475604815348,-3.5829782947528805,-13.232999054528191,1.1750603464403504
-2.674079310293168,-2.0686325673148818,-0.3091332671715716,-0.1148166258185927,-29.62307053474707,-3.0471869189657568,0.3881064173867504,-11.75263819850434,-7.102330025854059,-30.49404584583197,-8.098249010818536,-3.620266683146841,-14.507506657882756,-0.8304408783264989
-1.8964423614972616,-1.4325881806705207,-0.0319028457898076,-0.3104433211085928,-28.201491091032292,-2.873134500474235,-0.3616912352590484,-9.342440017723757,-4.887154195250161,-30.30064170803516,-17.177294272908153,-7.310289975211923,-16.543072031046577,-9.77783434357139
-5.474284705932734,-3.3135096608758,-3.543699266566494,-3.265210588048446,-20.40601941048081,-6.032935985686713,-3.4033089277048454,-9.1500709375019,-3.478203788341005,-28.872104310706963,-29.859992677709755,-15.626488027448072,-23.735576152813906,-25.597688914479985
-11.51855757523414,-7.745457167077976,-9.590562860500096,-9.8514053178857,-10.523828844798768,-10.284449050717823,-10.828736437768988,-10.42405272111852,-3.8415603043142985,-23.727376030949625,-42.1361857114392,-25.67931254666592,-37.30374894031418,-42.42661250368417
-13.686638851212289,-10.80475763741488,-12.289534942858294,-14.254861807235876,-4.072747264482153,-12.518928345863618,-13.309770568459292,-11.033671557601403,-4.219370089515774,-20.56276518133027,-48.05386467713275,-32.391968893677614,-52.901648804302106,-51.38651223358771
-8.607473922893028,-8.070744758353763,-7.613708688641733,-9.7839620330154,-3.7906278309430954,-11.04925854061678,-10.60265874184266,-11.931048741157474,-3.408300845141109,-19.163071083993096,-43.70551066959665,-32.093211504456704,-62.137300894947,-46.71153076008221
1.6591422907305025,-0.4219170641360596,0.8860208015402764,-0.3925254791133037,-7.746295491462039,-6.781141312453077,-6.722858350452655,-9.61524607495951,0.3072551802089124,-14.14860762457202,-30.47729908625338,-25.06883815070756,-57.60391227782888,-30.32351459241677
14.939154429104148,10.608656870308677,11.147874725646266,13.018404020511582,-11.014138286430216,-2.394304369378805,0.5778592487519115,-3.636198006580063,7.385052172918084,-10.5927454111703,-14.760139685893536,-15.119848159087812,-38.23618775331828,-10.876708887816047
19.88920485391693,16.20428895175035,15.204198738373377,20.022107634389485,-9.537267035025206,-0.2924634734689419,2.064730300801177,-1.4884953865608777,11.122839122907882,-6.847705102131205,-4.017344307009047,-6.755649980164037,-11.066530375245367,2.161331948404129
12.042735532429251,11.69950696401781,9.310822262200514,13.385699908793583,-3.168614930237485,-0.9998907577606282,-3.046622775877786,-2.747840604217824,8.198132421109744,-3.505674922817927,-1.9996623766496529,-2.411589532618276,12.331535793251426,4.697559732439988
3.4013999713468808,4.8111009518763534,3.690209819463224,4.610466793801738,4.388419818634162,-3.143330602004969,-8.360444515594665,-5.319970666532191,3.690998789165328,-3.061009493619108,-6.598056555058921,-1.631420727673074,22.645791028844783,-0.2661018801601216
-5.864484932030384,-3.2420032981481155,-1.191231843741861,-5.66330621154536,8.586953895372417,-4.757572069640709,-16.154873445304503,-10.830623261513624,-3.0328730996345685,-1.352975718756937,-11.79506459627039,-2.2618145001886703,18.303735262821306,-6.174148205784743
-9.968391568083147,-7.964518115375502,-3.8465504438868017,-11.624549247767828,7.5914174191611,-4.686243392851377,-17.114562281120364,-12.000243487528214,-7.106028199168439,-0.4021827806165443,-12.116177319201626,-2.2552914837561358,5.884048754602308,-8.230152772022986
-4.913819814470435,-5.736059099959415,-2.323499492113072,-7.541025253353142,3.5957766238845856,-3.0566657733013347,-9.820532225536065,-8.399296179944253,-4.569550315164772,0.5440832904642794,-6.287735214465226,-0.7530406145030284,-4.661919365558756,-6.088982767870849
-2.337874340882212,-3.114963542485448,-2.693942727248182,-3.1414490710232688,0.9020782077741069,-0.7811686416838413,-2.983785182554602,-4.692866336784792,-1.9116112176989035,2.610855754096503,2.3524919966574807,1.844668899186935,-6.491522948810946,-2.439592489995956
-1.4387795634370282,-1.8042584597442253,-4.702328159623115,0.2668192125116986,2.340044143996927,1.2272450832773778,5.8186864138603225,0.852684944592344,1.010256124853682,2.0033195414057565,8.634688978282181,4.37688653170224,0.3291325596445773,0.3261729688736423
-0.1692600275403623,0.0725709622971767,-4.327240007209141,2.998016134120129,6.94667269035461,2.4943979930200566,9.41228197195397,3.440502175009642,3.076617144692904,3.562583044190164,9.29957094618337,5.61059952823004,9.87204820010916,2.0561236979249475
-0.0949533151882379,1.5844435738052285,-1.3102509679087162,2.9165203939971978,10.800296759596757,2.9924657941605624,6.060216509837073,2.275693291294949,1.409219065706243,6.446294294434873,5.118247861000286,5.022563196995792,15.042761171786951,4.113607365322146
2.6686231636428723,1.9697154516924116,1.893427859576236,2.797790223499188,10.315199079068686,2.9911394382930254,4.715436827644703,1.4525411404923263,-0.6117310896140384,7.383276380192104,0.2083620537549464,3.424982887234899,12.617441171041026,7.436034389191462
7.746822320435472,4.6131238626182505,6.243150161234258,5.304562923088524,5.296645911884806,2.9367991473088217,3.4062312166580635,-0.3277765999680703,-2.22907980660576,11.64603624912612,-0.7169918203413239,2.822990372705375,5.453849116158388,11.572669377231124
8.820036301863047,5.282630117778877,7.055288236530154,6.155313920032895,-0.710875914461786,3.29955161411441,4.46318804630628,0.4748850145633901,-3.091380547962725,14.149891615061302,4.700002903057506,5.138508065887654,0.5431171458461463,15.356790067121471
5.223077036715857,2.21227715436773,2.846203708856828,4.0986732371563805,-3.037564727946492,4.323933898156165,9.435183224202705,4.597002351383104,-1.3611732379331585,15.094205576172502,15.04450873932486,10.471369478274289,3.996284911539842,18.047757846394624
0.3972897986941428,1.4422161950500634,0.4893053921789536,2.0520879675131254,0.6152676024359938,5.837446889596348,12.015210731168002,8.696622227017054,0.9311112517891492,19.686991437884657,25.943581177759512,16.425715726476135,16.067853578096297,19.61156598313473
-6.5618786139074405,-2.220588630709856,-3.2523588108887327,-3.650316677363457,8.491994346261738,7.362837752279267,13.001035896058411,13.78388739241374,2.5637631519265,21.370219480367453,32.56901201510551,19.514412099126844,29.831292004104,20.14623189772329
-9.940367562708404,-5.556335603595434,-5.792845911455812,-8.128686449394577,16.152351688123147,8.530230484133192,14.20279100035994,16.537882505961914,2.832894364213069,22.73816434629284,32.407698086986514,17.859843031094194,35.22518040774472,19.528621598462905
-7.558832294553285,-4.34185045062237,-4.207354110524863,-7.738542362090755,19.809090261144974,9.431871518623344,14.562435849348295,16.288571822159067,0.8098177958453078,25.965421838913937,26.71125911457417,12.949002655551608,26.372102476898327,17.905933348824853
-6.628288539563618,-6.112102554683067,-5.403821369507178,-8.840396188266332,19.074393524070885,10.539306117639228,17.67945704210583,17.114030559679847,-1.0598038792823254,25.292617686427565,19.70845534026559,8.70935410484651,6.922732192393195,16.344557620951566
-4.993114832488255,-5.108397418726423,-4.790663267890443,-7.925272748018702,16.988314473682074,12.21386413658819,23.86578543644852,18.16604561093413,-1.6965314578702786,25.62358935442011,15.95932825964518,8.469064355535846,-11.218583268756008,16.472036370196072
-2.061015490628141,-0.7024707299010038,-1.2056480420997435,-3.9748614821064487,17.292521301019157,14.290630707559774,27.43843987387184,19.912991944226285,-0.8776314922032025,28.92830204260592,17.490268222378354,12.383301353939284,-15.624900603262995,19.02853154767346
-0.6344187164416758,1.0458391996258014,0.5842279094246663,-1.026701669267125,21.169208918655755,16.19671526972202,28.95220062039492,23.03335472070373,0.7415571019278561,29.790829566195875,22.67909362110167,17.60708295106856,-1.9703112758780872,22.731223442729423
2.3808515326377195,4.564855914788371,3.3378376265133687,3.634286492284191,26.24835996012364,17.53676340060783,27.86409033556745,23.77974682789949,1.0315810115097548,32.112750225585735,27.772873603898915,21.01699580720872,23.140340275817557,24.973072301562286
6.067595562965913,6.677610135124203,4.390201554675036,9.398207100649218,28.85041116747707,18.554931909704248,22.853563662997345,22.24587817146521,-0.1120059406479127,36.4886616247027,29.971899866167817,21.930639618492176,47.22872167892277,24.196258379163847
6.351382870085864,3.798301821890865,1.7961064332896362,9.95704198890652,27.50867509971027,19.934745316184348,21.135029550387884,20.92782545865209,-1.9697409887354504,35.179598432762084,29.64532630061129,22.330891689963718,60.54196390834692,21.867306193340276
5.147365832689868,0.9444537616079852,0.6046618993405551,6.480742869612426,24.44902021331206,22.031596345277904,22.57101422999617,19.11514543264366,-2.6887499269875046,33.93079748620548,29.76951090191168,24.52013147968725,61.32989141169232,21.875677131694182
6.096407110033233,-0.6012223503979892,2.5798275712695187,4.406629589726836,23.450292177540348,24.248194411988564,24.576048653669485,18.829645679485623,-0.6513816990296605,34.17839586751524,32.950640595689684,28.55354994908317,54.42200732760954,27.31244004596371
7.13161037379435,-2.1920128201013878,6.481562508988032,0.6813430938367111,25.998482140686036,25.22990006453892,28.77019589067533,20.579292501120555,2.5373352815864574,28.528965607614047,38.60122199086443,31.91287592049423,45.67343971568667,37.1576850500165
6.422484306391159,-1.5852078875673246,9.01833220799377,-1.915865392255196,29.5097769256574,23.85127748938108,28.00226586105328,19.77751423006212,4.567132244470717,25.841741291133484,42.90473470830051,31.6641086562278,37.7008485404306,45.94877371763941
3.1042534902193077,0.3038087748278746,6.339235834122785,-1.2235330279250838,29.563332188887426,20.21229827017833,21.727994735906503,16.776830747950765,3.8216415559124335,23.72663878242529,41.79908392161208,27.02103336862502,29.97004590099002,47.2310803964249
-3.1810597487690324,-0.3786880339439326,-0.7802188837113724,-3.28489558278904,24.13710000492319,15.752656853125604,15.37694012463443,12.125318385160003,-0.0460813979066583,15.706214096022045,34.39068484737043,19.98988359779961,21.722016376967407,38.31863816227148
-10.14122916430038,0.146691837900088,-9.448859252068443,-4.917318466719782,15.68524931627597,12.258978964091476,7.26449340764593,4.81619844527549,-4.290001755710718,11.51777324876349,23.68383021733577,13.65909070232113,14.02874440138718,22.521676238722044
-11.7101275721401,1.5129082594278622,-13.131651177336824,-3.896816328095509,8.84857568766929,10.461119056540593,2.278086013551368,0.1893592059626835,-5.669719273165737,6.160757197557164,13.94279141722664,9.785771734637436,9.032832105353087,6.908779089519348
-7.201398881712912,0.5906309280579091,-9.210417309981144,-2.8674978134631326,5.849745454478104,9.340268740420631,1.4592337348070732,-1.609675389205107,-3.466275404324162,-2.2989518804403275,7.159345112285925,7.725192239058188,7.657603057116539,-2.665771834213928
-3.978937566625061,0.2387490110798045,-3.983383114981621,-0.9938035416991924,4.025161064140608,6.812590961178636,-1.8740908996119363,-3.978691340285482,0.9316579711605528,-6.952045935259429,1.89283828810035,5.354831832893648,8.369564718088807,-5.307821287972327
-1.5047002981867028,-2.271733699651413,0.747072828644159,1.110966048943314,-1.916196215919268,1.3997203238094578,-6.521085046664632,-5.731646732118415,4.993112545975696,-14.612055638672032,-4.6181703156517,0.9528761436736204,8.116231263029693,-4.798069114740571
-0.4502660327669989,-5.02069019065123,3.0493307237909657,1.5577525697061871,-14.69387443274888,-6.366933152863727,-10.750266524917548,-8.039569319920316,6.015762027794428,-22.220655199777426,-13.326539097859731,-5.533642013806265,4.382866679193956,-5.93837284898531
-0.8288943183719042,-3.244962000189324,2.0028516055176877,1.867145516583264,-30.911905857859548,-13.989311531016195,-15.52652594308509,-11.293740751020389,3.974594610090861,-25.561661576815336,-22.29308551264591,-12.602781605283608,-3.357171131549432,-10.837406124680683
1.539037356606007,-0.717813192457609,1.1162442655571885,1.032609606954756,-42.49748357908693,-18.60839795651141,-18.898016561900096,-13.998314905795617,-0.1813892762577985,-30.52014106725159,-28.494490896922397,-18.313025204814235,-13.530377020613551,-18.017013465800822
4.729173354184784,3.4741921390117367,1.7587926963900709,-1.2317584776758752,-42.33119273518759,-19.010876286737798,-20.672815367557824,-16.496673897003546,-4.511106469177229,-33.64373786405791,-30.51468491687964,-21.47232874940948,-23.294917380927306,-24.416330301976203
6.064621588222821,6.055998512484323,2.419107514012945,-1.992530925916573,-29.84963270976735,-16.481668452459488,-23.10353611797715,-18.56263004052881,-5.967866757288655,-34.22306262681504,-29.50052526206982,-22.195203595708367,-29.743746616227224,-27.98513609102112
5.053015950008568,2.8645356476616084,2.331463663884463,-1.2782391674644402,-12.340435067212514,-13.849416791156496,-25.80901617717069,-19.9668056179282,-4.407346308435311,-34.25619215292752,-27.774931469691023,-21.67337074758372,-31.23922764775135,-28.662540288061532
3.550757673945303,-0.1130901751828015,3.382172145652901,1.4881045603626617,-0.7790899771223323,-13.53177471592289,-26.941915308532977,-19.88083378758365,-1.127769655193585,-31.74886602954788,-26.828770443099398,-21.428017243321936,-28.52857113736353,-27.56740558589017
2.9555512287434924,-3.340007839907952,3.702458838919653,5.993649815859506,-2.9090547191659653,-16.114691596249614,-26.71825445566164,-18.04092455415936,2.3378895389448804,-27.30152046599596,-26.67619838220044,-22.483054138100464,-24.796095262484968,-25.84781431071813
2.536539115084408,-4.869068913529702,2.801066027764951,7.399765129905917,-18.159629934747983,-20.39469157415958,-27.492410233969853,-17.992438840864878,3.7357537708401343,-24.19780761994125,-26.78956056816637,-24.876984760646558,-23.98607767826684,-24.35954583274716
1.061704193285739,-2.2174909799993614,1.4936309666496324,3.770757794653575,-37.79364669079065,-24.52826186839225,-29.093778600011117,-19.70675445430654,2.204529012144844,-24.92187342258483,-27.162650109903694,-27.75772799840914,-28.05781999276204,-23.924682598689916
-1.0100703193674634,-0.8613434204977074,-1.821531442548174,-0.7769213642415765,-50.27852415909957,-27.18608469651359,-32.424231454695615,-22.56210503544505,-0.2516739412512511,-25.65979336102359,-28.245231268450837,-29.98032779502835,-35.21471271351807,-25.222395108365536
-4.876879791274917,-0.0026990945463801,-5.420297391935109,-5.770120692102895,-48.450796915710434,-27.94789294265044,-38.15019264284686,-27.46134116534029,-2.051056344053709,-26.2668253907793,-30.059517235014997,-30.80172207592692,-40.88911646250414,-28.10385769651775
-7.086493577512314,0.7764931263312559,-6.030215988565914,-7.663865155231904,-33.805522239389624,-27.023132591602785,-38.79080673769,-27.880359203580028,-2.688261076926976,-28.52326194866276,-31.80213755067765,-30.181984365480503,-41.10201102482112,-31.190023483867336
-4.146252173093292,0.8561684197355567,-3.390481256298959,-3.638016937487007,-15.090553849893936,-24.838313184884104,-34.201481272865365,-23.48668045085464,-1.126812027375051,-27.723521383050755,-32.53441406725855,-28.50477085254399,-35.598058543370136,-32.54790487946501
-1.2454781255387786,3.786004176757706,0.356642298491347,-0.3735203923718933,-2.2502468869158747,-21.835226784833093,-27.12722277496451,-17.837175899450866,1.9766725812006447,-26.727191435604,-32.12472538071204,-26.02400851648192,-28.097141350472977,-31.0604779783786
2.9975432271330766,8.566701602696842,4.565130623634938,2.300718622780784,-0.0268630365442792,-18.43559896554125,-15.69862730681967,-9.318320101079548,4.829266982495841,-28.873049686452315,-31.22708637814274,-22.598686982736613,-23.37644144580635,-27.22082117988463
5.96206875512,10.245711773553428,5.990207021246772,3.7505561745473335,-5.724995906499089,-15.02368728821913,-9.552833696675428,-5.672013990191051,5.861477690225953,-26.743638888440447,-30.259778225837337,-18.01366767258519,-23.59656596243196,-22.587098872963697
3.827669104586651,7.379867260271476,3.0968566083326934,1.6146448906756692,-12.432754095416296,-11.915616719070094,-9.379593602760965,-7.7581418565373,3.963689597414459,-23.5326728760128,-28.671345375991905,-12.59460092552293,-26.870108972408765,-18.49278948807504
2.694406979693878,0.1831455805518846,0.7555080768776825,1.302631895579933,-14.751151442992429,-9.32858584803098,-8.411470116555119,-9.355909337009216,-0.4630703204419435,-22.11593925675169,-25.57280689991705,-7.462884855907911,-29.094350590294862,-15.303331081533369
1.2583536659051364,-10.35882867125498,-1.5447543801493535,1.7915741169147537,-12.275873623544271,-7.297505397567793,-8.964762674289963,-12.414624836684697,-5.7671113690045495,-15.590876095944452,-21.165938097664096,-4.036098129894798,-27.37298601794483,-12.800322542451644
-1.8428831421119256,-15.377318442585471,-3.989727202032667,0.1418754817051353,-8.305641396876895,-5.540352719193956,-6.291100088663026,-11.303725339152203,-8.141123110727056,-10.616494354674836,-17.202594949803377,-3.068051254477332,-22.223112417333432,-11.007049985318174
-4.311216736062,-11.474724732568571,-4.427295565456703,-2.098693928101812,-5.598360109683133,-3.470273534411337,0.645343332940849,-4.848560802707522,-5.8213628708657215,-6.402311905305643,-15.531043095250634,-3.9921347364806503,-16.91381174403142,-10.360006306901232
-8.170225994609174,-5.458900033236983,-5.451754075210831,-5.354950051758695,-3.512913897510174,-0.5636751238534305,6.758415948184876,1.6520836364924354,-1.350591824395949,2.75230644455348,-15.934245046582928,-5.131175505848533,-14.569135243099126,-10.977806918961036
-13.254127608471933,1.5999847132754903,-7.128120206949362,-9.383759638744504,0.7828231651163637,3.067654783487339,13.3418442416971,9.813768021069023,3.525779079125986,9.372655081410372,-15.586196433190336,-4.652596587100508,-15.315322985094632,-11.891213472016602
-12.598714444388564,5.034661250929158,-5.81513323839512,-8.892669363716504,8.535257318858733,6.449738965999458,16.948507484933884,14.00094875035097,5.375789723948965,14.332807330054512,-11.093653402472988,-1.6042942261674975,-15.714534053961106,-11.243143441479218
-5.905091506246367,1.5036262283068973,-2.564264596812328,-4.111834895366683,17.12367069174878,8.285718336963246,16.58122835362712,13.121435349008472,2.3944060201321333,17.952269561261545,-1.4833930878875634,3.6159364616967657,-11.138268073384204,-7.498234240681315
1.046046480774626,0.0590456337460415,0.2529555153836559,0.2820491199447368,21.7697128564754,7.986507797396147,16.167864143103134,11.430794493994934,-0.6306763285817744,17.35779458741635,10.64267589724162,9.561215492515093,0.4108902950477571,-0.6487278239354293
10.635051688774308,2.0722091460111205,4.735937146370147,6.291823198201764,19.69818359039505,6.323112882209307,14.635774515851695,7.236364842926642,-1.913606961804991,16.77954991779291,20.93426931625434,14.557579132526818,15.853108467499212,7.664085401134363
15.09878858208948,3.979313929621159,7.582489334087657,9.385999554587388,12.798101108304866,5.023637951088816,13.563501128178723,5.419648624782976,-1.3210346022779824,17.560099740668313,26.450613600856077,17.583545225566134,28.210540468594523,15.228346148325196
11.558547059819764,6.351993607996748,7.874369844205487,7.966388089787696,6.330781429346114,5.520092222982996,13.558581958650212,6.662173056208038,1.5462945545368452,19.016434367460548,27.36764268714116,18.7360117595032,31.18618418883966,20.62675685179923
12.65329375606242,6.501797657302144,11.360539779525332,9.911628098116324,4.91491418637181,7.816912169880933,11.679405921784111,7.57943093939617,3.27096458844973,20.681110416150844,26.033253000036844,18.97611531682489,24.072299101879203,23.826589328974052
13.615172025579389,3.329643047741304,14.780185818926878,11.598770177079372,9.21730617393228,10.397706631792984,8.363498589551764,9.504295460383243,2.885258644691591,21.56695454617089,24.695422200366984,19.23999194555246,13.035378690464556,25.70147002143753
10.981264482373442,0.4609484037908125,13.315998156775326,9.565180797364857,15.738100736860588,11.2787470233381,5.664595367981054,9.38284623816386,1.5284440665931909,20.840903142372035,24.120624053318387,19.51526637294464,7.136596209722967,27.06342081204049
7.910387014065535,-0.4114689705031132,8.150703105986999,6.188456701760659,19.37730551702253,9.45044894841103,3.2457578760698107,6.742119438491201,0.044572868435218,17.653844771020676,23.93725445284718,18.683154952689343,11.606936845695133,27.98797266201959
-2.481915216738793,-1.4385026632805449,-1.5752060580267702,-2.183418699354908,16.731745174707918,5.6720771129089655,-0.05337705159843,3.2427192606420028,-0.5652530501079163,13.751251703978127,23.65302839780976,15.428900684310156,23.576193118857727,27.759587325215517
-16.39029629027529,-3.427237298274292,-14.541091609542036,-13.281521469580175,8.206710537768274,2.0358946916515137,-3.947731855553816,-2.0102040979408398,-0.9441147322350504,9.059705828439151,22.953162859768145,9.568475712979192,34.01914750600631,25.267161431579623
-21.134165181175824,-4.81990199970355,-20.10520014041407,-16.754499908382865,-2.011878604095827,0.5573294911310214,-5.277462615704095,-3.950790044364672,-1.4856376000907645,4.445820619220104,21.1822196708423,2.6047085333431923,34.79349671429344,19.591169329867117
-17.549268091652113,-5.8012333054769725,-17.140693428298082,-13.310978634456532,-8.254659638675719,1.74129144292354,-3.8959870327127897,-2.1235303018366256,-2.5198566232295043,3.3927193734994345,17.128465142612917,-3.122743800292397,25.2050440843678,10.65638018121784
-13.24739337140232,-6.187794472161079,-14.963670536695563,-10.178736281110664,-7.12961834298838,4.168183151128453,-0.9786135353137408,-0.0043736844585778,-4.301544571572873,2.6607236284417466,9.916256553495847,-6.066345003812828,12.553058715158734,-0.2324032195589254
-8.819422173867052,-3.5636606141798417,-11.972487433005842,-6.329916227874725,-0.5903169463871549,5.494409461076913,4.3374761245322375,3.689690052679693,-5.375474687574733,1.2768183588518414,0.3951277415043819,-6.454322751688515,5.992518491860146,-10.386510678354696
-5.529450887438477,0.6236514066655283,-7.478521843816915,-3.320614575547532,4.456445746464269,4.236309413612439,7.877865199474406,6.231486061770168,-4.008212037405881,2.8224863146034127,-8.435470084969715,-5.724039864941737,8.800627586345016,-16.59319634925305
-3.144148472725367,3.42552734750608,-3.7240407609251616,-2.112019535050552,0.9650664421828878,1.0372813473386486,9.381760540330625,7.117176636518855,-0.6983039387086254,3.8135601931709178,-12.729948148728816,-4.919751411929134,15.659061980918004,-16.5666819027646
4.507193856006623,4.428222106672926,4.830596339954323,3.826816012525887,-11.88001479995313,-1.614689142211759,12.48720373636822,9.755966807697243,1.9494939109548848,4.602321821325118,-10.058085213251246,-3.571892108568548,17.306562653179192,-10.11337493415293
18.229788071664373,3.438970404466245,18.349189102522494,13.371939457197255,-26.159489612211857,-1.1402702492519268,16.28770787758561,13.504819818363512,4.118262200311764,9.48957866278468,-1.0086344687279194,-0.1901885353895522,8.552110349965155,0.7299597250660952
23.253874966252106,0.3130485688011363,22.530764953463255,15.90202365183528,-29.950002024463345,3.1240033213054943,16.943631895905085,14.503098248405555,4.161387410629505,9.96202550419944,10.924042048017952,5.955851742226358,-7.168668184056344,12.502537477286651
15.445060065302794,-1.499912062965404,15.824063009906745,10.803484272260048,-16.68727376068361,9.162817052407206,14.552087153870035,12.920583979082174,2.2077941810536013,6.026238934882879,20.945945600656493,13.328661052738909,-20.34677612787008,21.38057067820512
6.746935944568888,1.5905724397243195,10.162979914908467,5.340345015789138,8.29656827678896,13.426076004536869,11.131246779061753,10.545793034672926,3.3322087729462924,4.279365123447508,25.00932672547394,18.356749787323835,-22.62173575295803,24.073753084128185
-7.535951994554674,5.265309532981729,0.2029921402402784,-2.9908115807187348,30.2379000592733,13.176742859364268,5.824608328046263,6.546254730555097,4.991679987454404,-2.3231645133059584,21.339978595624856,17.51276853621468,-12.69718748490594,18.784333998347407
-15.24400577864044,6.953913961495996,-6.094682894117441,-6.737088876842619,35.406285375657035,8.415841700883675,2.174221873504606,3.454712385327854,4.771054172438658,-6.410101728996615,11.039909801480531,9.801113469267849,3.267562363543874,6.377335366571487
-7.098855617243313,5.644111455727812,-1.7357318933530177,-1.8705715185862937,21.490140552411265,1.9648267082406363,0.627224159911553,1.5669893668696122,3.025563819460224,-3.860447297008236,-2.282585903523227,-2.2290970872476663,16.201229723888048,-9.023197576017097
-4.939320476071739,-1.2964588038486218,-5.34417239588342,-2.629486153447849,-0.6574560140223582,-2.4477807183906606,-2.4636028013829163,-1.7484060284931089,-2.020253877667096,-4.823133838525931,-13.81695858265725,-13.79881395595379,19.636666193119677,-21.292408731757696
-1.8547574369738729,-7.279446785350211,-10.26346533435184,-4.132826069869754,-15.50595292039359,-2.771748016688022,-6.263675953212019,-5.920882249770663,-7.641438045581861,-2.955209803265251,-19.540837758235263,-20.663679521452835,12.614165999250844,-25.535660826572677
3.984161555805724,-7.84994991148011,-8.430386014781481,-2.673318194449952,-14.645121754679051,0.019039435000252,-6.813851382004171,-7.499196816761236,-8.680853969767398,-1.0848278098455175,-18.14291164625116,-21.373355227792743,-0.9007780339656932,-21.28238899541079
1.7427845808396285,-5.238380942786123,-7.1729050077897645,-3.6070419923691066,-2.3274180791901813,2.86342467208344,-4.233953300278103,-6.527826115982552,-5.115500408646972,-5.248269602012145,-11.75732418356975,-17.514100177198358,-14.73993572462922,-12.855669311933925
3.51802289495269,-1.114267476623613,-1.401102522244234,-0.6760809762740991,9.34673410633603,3.109502102660173,-1.86125818643751,-5.641125757860878,-0.8249872876825297,-6.894117929392781,-4.791684582320414,-12.02623890956145,-23.57979178722357,-6.110830252814921
5.044668930112605,-0.9540573794269942,6.332416502281032,2.7435724079398085,11.00117346519376,0.5825810549454147,1.042246347587565,-4.140486882940369,3.1317977289520886,-9.182997475725651,-1.32235258801267,-7.120238228357195,-25.035580830700354,-3.9907940789425433
0.0792366061391396,-4.293958301392675,6.447153378077307,1.4244861922880467,3.290835843475513,-2.418680143733802,1.0460798884583202,-4.159187921713505,3.9202868742484456,-10.889745477561409,-2.670003248873499,-3.395377897886469,-20.106573347673297,-4.676051262912466
-3.7587178287373577,-5.940487752226896,1.3585349762794656,-1.002856554241689,-4.76229941839145,-3.124889470039065,-2.72435291765375,-6.259973625040876,1.1304730754467585,-6.2080802628860114,-6.815925396878647,-0.5107735456984557,-11.917483387471712,-3.914121129935992
-3.777868748230034,-3.4676534818503737,-0.5489970194416709,-1.624406211117573,-4.346666257965126,-0.6029117010495924,-3.98083426729066,-6.581947954384398,0.0834258819584229,-1.5754319442243805,-10.056668835192127,1.6353428995122885,-3.6348549371674537,0.6848678481844459
-1.161882671447195,5.614108216601826,-0.6339821573898947,-0.061219443295732,5.18160231804049,3.478739034461263,-3.5040279199384043,-5.615405818001956,0.618648212166558,4.342527097005345,-9.651153185934923,2.530331825538447,2.944627014530369,7.348245237558437
2.884268726121331,13.250994540333052,0.2879513296687254,2.179445742869952,15.479937132449136,6.118585785820329,-2.5525842547316566,-3.6339180839539074,1.3945473159269366,9.286091686981004,-5.515898012367622,1.7864125242789797,7.262806181239846,11.821601974437208
5.136023775710601,12.191027985171898,3.3081287027048587,3.5649918881949096,15.988513743263397,5.186718034484834,0.0237978165545252,0.1127288766200856,2.169796665986358,8.13359862501504,0.1509173379482717,0.0815072521386781,9.016819420636146,11.27958813096946
0.9760726584664076,6.371007380081194,2.1857799545276686,2.522980437987468,2.799059744197848,0.924306917747458,1.5374082976152186,3.852421336270922,0.507282132557551,7.504963218250617,4.778851519465121,-0.8435414246467907,7.861095056365212,6.809470644733082
-4.719418631575428,-3.5023264059874912,-1.156940297442887,0.2342933128605379,-17.289877346316914,-4.191745239728938,1.9783934699917864,7.73126991588606,-3.02764215499147,5.982305624137068,7.204707732017802,0.6584985598657767,4.32133649806439,2.3532104841706705
-6.455479291805742,-10.117875200011278,-2.201458198790932,-0.7228306039885755,-30.758643436786617,-6.9820919346523365,3.7663607906558094,9.637046118688662,-4.8793585442394845,3.308929586583999,7.954188723773349,4.7821921205154645,0.6321280908638585,1.290948422418314
-3.596156316006456,-6.889872772400441,-1.7700581221586875,-0.2490381937233424,-26.756179515471832,-5.4889091667565575,6.443122660309332,8.972681603290875,-3.7337018095889034,4.065700374689838,8.063305971385,9.92361879786525,-0.1479975764598116,3.779392542330121
2.2756852924734585,-2.633210425899563,0.1139193355539566,-0.2345151163992015,-5.25516823202927,-0.1801010978567245,9.435187225036962,8.584931430394489,-0.6036997964941966,3.479999814452363,7.75934763962263,13.707046550384309,3.4440469136742937,7.007781884131712
5.9998946170711855,-0.4018342715632657,1.766435078702657,-2.0595887637189443,22.09382528159291,6.263089033193175,13.101020913655365,7.8400322683140065,3.3646153103112386,1.1870782422564092,6.359749523978374,14.587672742133108,9.593857075491648,7.885469177140968
5.216969841767711,1.2642818731003571,1.4086052987577733,-3.674821713231188,39.48662534241846,10.523659161961136,13.623082446667098,7.495233438706516,4.94727435517265,2.5376584983386525,3.497425048786569,12.801335181072195,14.30826940151978,5.756014342106424
1.065768197560114,0.2490854614799897,-0.6738861630915838,-3.3423597744722677,37.75141828110033,10.693286511295454,10.630795690510045,8.038743448110317,2.939667883281585,4.868662682702553,0.3749037331847304,10.02959974688515,14.688367363953503,2.967731210450932
-3.067008881170846,-0.0212949893269236,-3.1000058641680024,-1.265597012843974,20.477099511438578,7.438996368516914,7.922218645943325,7.272764190572086,0.4315986246236961,6.909924416872127,-0.4541638059043933,8.17625804022979,11.4186624598548,2.9987212193971478
-4.048078519719876,4.442912131978574,-4.302902979618624,3.1960566363947427,0.7992691171819217,3.410465346434478,4.621709632954423,5.432947999425673,-1.177881746107763,12.637759493895972,3.0440842486629838,8.220829495105193,8.068368524322942,7.687671062624403
-2.2194554806012743,6.486722518715961,-3.364968733931037,5.566541834895634,-8.605572264362095,1.2669774153417848,3.290658751110908,4.13826977789973,-1.2599684171893797,14.155509460013835,10.365879708436973,9.85438658278477,7.8289533412755645,15.628758638656237
0.1932180724103853,2.7234234796348007,-0.7991482273390685,3.1090535882626185,-4.364355810210512,1.8074843184499516,4.742509313612864,3.095231133033637,0.0231649169525471,9.958091018791936,18.20151181704034,11.887376828745827,10.734594806683262,22.809934898713387
1.924457704474362,-0.0901959738319088,1.3297841553986145,-0.2647163404345878,6.668463374756925,3.621186649165594,4.7644078742273095,2.244004418872293,0.4370449463148476,7.349741394029326,22.38636182171726,12.9355833285519,13.817507556720514,24.99047494264849
2.504192201159254,-5.7740095420986055,2.876020159855277,-4.2333744565014,14.30518757423647,4.419526683414574,4.065446090723007,1.8763833386947304,-0.6314666798100788,0.6613583308599594,20.57861821363953,11.965317443215312,13.795264320371132,20.245047495125306
1.561838793221323,-8.275755836241958,3.3802813190259786,-4.922436984329263,13.264455047839732,2.865510936554984,2.458113180018934,0.7557060782659183,-1.3298924043891354,-4.25866797545288,13.570235119622096,8.635223373112296,9.713512602519272,10.130988906795608
0.2632079593435122,-1.7053972967816975,2.8276736241560503,-0.3934927276998805,6.011055345310226,-0.5479836703721901,-0.8177520647503457,-1.1091959243970722,-0.737645008733226,-2.8405443132712547,4.442760416665067,3.5152094603008948,3.4329777009996576,-1.1353068456676283
-0.6276357527201307,1.460514656006527,3.4362724475017883,2.983026668466624,-1.02391980783203,-4.088192841207572,-4.696448255281411,-3.967794676777224,0.2851714557214267,-3.887561521454377,-3.391433403091,-1.9353993711651896,-1.9284900337223831,-8.949373765455334
-2.062441881764628,5.35100526482909,3.9629414674701535,5.66147300688397,-3.380114161261801,-6.174232757923491,-9.521848804863712,-8.17448410408335,1.532916701382191,-3.167093724310295,-7.683842020813685,-5.897712446392731,-3.943096372016811,-10.74764280495711
-2.3356624106697965,7.299058793972275,2.8498910776774893,5.39426919841349,-1.4437215193275108,-6.452883987212687,-13.466105446605606,-10.633373157199244,1.4100917657082517,-2.1086119713626674,-7.809301627089212,-7.195708983052171,-1.940252410546421,-7.266566345832203
-0.5538688990314369,1.9750812308683248,1.0248418075672507,0.823439288722982,1.087977415208485,-5.882880174997354,-16.272984729791723,-11.297549099559674,-0.0720258402338005,-4.147269855342754,-4.717248403356052,-6.145360437870465,2.77839618375495,-1.941020597761764
0.5465071858743143,1.4490572475453418,-1.2722797431760111,-0.7178636999366385,0.5656793416559651,-5.923957739667713,-18.52510296150265,-10.997318205854151,-0.2466538012730205,-4.120677960587551,-0.7921377420897784,-4.446610347759474,7.105362517455319,1.2119328992606029
2.195213075214249,-0.176526859240977,-3.530195388500025,-1.935402840328163,-4.463979584299523,-7.443246829066311,-19.63896773846056,-8.938565069902982,0.6803528425034769,-4.318425455829392,0.8159976395035358,-3.984129906827349,6.908917541082587,-0.043503700023507
2.837160419934902,-3.3448035130103086,-3.8667512476069663,-2.7460312223437984,-13.04936343098538,-10.036069339867224,-18.241775697122065,-8.338344081613071,1.7467161026783595,-5.497199919123114,-2.1353747456875,-5.4358991768118585,-0.9268572706056092,-5.027522935979704
0.4310541683473535,-2.805014080050765,-3.262790856237613,-1.1755219821540912,-22.45900011569742,-12.191694298530166,-14.011211470974088,-9.30581963419211,1.5378964351862705,-7.44666783888518,-9.086963431261808,-7.907343970130682,-15.66902275303957,-10.932656058692032
-1.1838039736672583,-6.787990115627926,-4.618412483155641,-3.631683887097973,-28.860003217306,-12.234810654421466,-8.493731057263188,-9.70337164884389,-1.808756723662677,-11.234083591146746,-16.407080517324346,-9.909319746087988,-31.33950190468181,-14.894889392599566
-3.740445150787105,-8.215851468733216,-6.659490501163177,-6.006542465124888,-28.439146071536385,-9.451485124972066,-1.2524511224303618,-10.239843565126034,-6.765974014490365,-14.775365445094678,-19.70829548911962,-10.688571074557755,-39.05852697431951,-15.823989828467177
-5.513282289848957,-3.364860514839628,-6.842177997744098,-5.021517486269697,-19.34825025207985,-4.623158494594236,2.607758795526591,-8.538270818895516,-8.700417313615414,-16.095187385033075,-17.256234464552875,-10.585836127509252,-32.71503532306991,-14.756576401838458
-3.4486105231377024,0.8758489305607287,-4.532004269959217,-3.015711021913355,-3.563631432189084,0.4171527247049766,2.3912973936428634,-4.163181561340624,-5.572462055009958,-13.818744728256547,-11.456000952111424,-10.173558046605509,-14.059016156912747,-13.685388766115436
-1.4347295942976388,6.230908601115831,0.914722765481588,2.372109247349937,13.08713488405442,3.86159543202578,3.317068416306638,0.3142453667317291,0.6254480953976365,-8.995309732522783,-6.786213259316298,-9.275685286702585,7.333565304310696,-13.890069336985334
2.620421835855792,8.676211951639734,8.004561495985827,7.728534206675817,23.537496899434306,4.852729807837704,4.112515893720055,5.512409990573368,7.851830752722408,-3.098665750372201,-5.83746799596878,-7.070860972936174,20.101727053218497,-14.935449987012989
6.345512289467252,3.7037063689828913,10.583761720866889,7.619351932012151,23.460494913175268,3.702730419285928,3.064749728827888,6.6981138797678685,10.27725337085576,0.8396035151328132,-7.06962436421955,-3.180641966251386,18.84675420178044,-14.847741937623653
5.495783510652677,-1.9093034671695333,7.803762635882602,3.716171967550639,13.973691904942685,1.4723683915979109,0.7048124823269929,3.035066535423585,6.084929697733295,3.057833218331507,-6.42492892914683,1.5638647364311566,7.436579696590172,-11.255094678841717
4.310660280128911,-2.945934605257205,5.075443457624259,-0.498465893002682,1.038089473698392,-0.6496469398722411,-3.0287091826971984,0.2030623251705407,1.6032424397980745,5.29967920738543,-1.343869781881324,5.648382803116476,-4.727825346796095,-2.941495743646385
1.9380255053270568,-2.012646655679214,2.6233189779237747,-3.6597347518717354,-8.261697046973893,-1.8426318101432173,-8.378672203243696,-2.9905632141921834,-2.0171987616434275,6.542941233519028,6.505314008467167,8.132456782059819,-10.147465401681105,8.854476437235007
-0.9735879879182368,1.4024931772622993,1.5387751869150206,-2.99776704709214,-10.124688237866934,-1.9593465074538017,-9.88181016818566,-3.715693517991496,-2.930250651571783,8.255316265186188,12.243305106704897,9.163903702322727,-8.143835760959405,20.186335241937314
-1.2449795925538876,4.540513707083679,2.3655529384493903,0.4243345091841006,-6.093794499722264,-1.5873901299486874,-7.10710315882686,-0.8051862232794219,-0.4478848502058914,7.154653950303372,11.607845970062897,9.16109302656156,-3.71111641223618,25.834834890856968
-1.4837188779017998,0.1829842867718827,-0.7914719031755219,0.6329574804468946,-1.3566029356837248,-1.6902509280940876,-7.15834402315959,-0.8123792506534188,0.0747710788308479,3.2688461856627926,4.326717377759394,7.767645315028602,-2.20493554513493,22.201240648501937
-3.101898912975267,-4.365575996663864,-7.692561934799532,-1.894209210538812,-0.6578407801365245,-2.835006038926224,-8.99835077841216,-3.0065062913094804,-1.4352789588329593,-0.0403854548864783,-5.571673417160014,4.114826173956118,-4.8965860497817175,10.090781748413235
-3.9405779053832832,-5.2607264907631,-11.155181490640649,-4.234576693779656,-4.984822800200533,-4.515007327099809,-9.349560906756288,-3.907556461983603,-2.6591768063446275,-4.341124326504113,-12.452556033060688,-1.6068162875363612,-8.796737206568565,-4.8079385420854095
-3.501541584512974,-4.382499631147406,-9.402493402579395,-4.545661251135707,-11.421943371953802,-5.295538670644362,-9.257530401439377,-4.526612497370032,-3.050157014194756,-5.887427810998826,-12.586733168808353,-7.087422615245487,-9.977217934786369,-14.798146976421052
-2.5083950157870247,2.181983131034446,-4.344850708745146,0.0809911453125453,-15.848728341143088,-3.9357124719143135,-4.88867471340585,-2.799151817685679,-1.7823646288321429,-5.257818932831445,-6.195985401908104,-9.038656089036976,-6.957123360039944,-14.96565314678395
1.139495744492843,7.189226228656367,4.281019700009598,7.956394667230593,-15.91861090060911,-0.6385093890443727,4.523126080669047,1.9212538399112,0.5387138942231169,-7.311429728114086,2.8664946184310054,-5.971255430317058,-1.4671293432988932,-6.565873009888719
4.219046077861322,6.234046372082528,9.107343838043896,11.76377740757408,-12.003690442194966,2.787335082413321,8.423379563055384,3.1426005579770617,1.6540892072940268,-7.09454172491289,9.297483859576095,0.0077077048375784,3.4006071018834447,3.719680099267819
3.389188231201923,2.916978641298482,5.616887211235241,8.056285143702778,-6.041157120743101,4.2179436894150655,7.190766974742068,1.0984108351683697,1.2299649328513809,-4.776371244923191,9.21793055738778,4.465295215664625,5.666484752924745,8.41308383346356
1.41243591817102,-3.1356372435217947,1.7426154803218192,-0.147206687770566,-0.0375820987403265,2.9350400860002743,4.718940658282932,-1.2849598539181843,0.3968604518608443,-4.225781323601891,2.407400145036359,4.206438624967317,5.5730381495713885,4.44014291838381
-2.2186360805209637,-7.033493405898816,-2.2494164479467016,-10.152323717665752,4.356884311392765,0.2227094035149797,-1.303124059089723,-5.365911630630436,0.1430457273570021,0.0812111673133663,-7.337519505026771,-0.0296930598124016,4.739099667716618,-4.983122029401146
-4.335806411026032,-5.497725651743186,-4.814131531510015,-13.76528203111001,5.541513571004341,-1.7439346756774086,-1.8752875648431628,-4.712119612010048,0.7803536915357704,3.4826625920886043,-14.2713309474626,-4.287546010334477,4.289003156134502,-13.104909214157647
-1.7019909656069616,-1.485296379874249,-1.5997450677851046,-7.318269127548794,2.233570696178745,-1.70825329961108,3.72129988617804,1.396038328021753,1.3347542941634147,1.3841517111874877,-14.269095822300043,-4.920955360228255,3.61257870527924,-14.727520869071675
1.697281547861878,3.2264521581252525,1.6580581990544845,0.7556823026640798,-5.265082906551569,-0.1756329796954219,8.654099595230036,6.0256359984425805,1.1339212214832248,1.7770455736483508,-7.565775874511772,-1.6729934454604916,0.9347545625641658,-9.626701293491609
4.999767979455331,6.011541265644334,3.078171808746643,7.697341197500123,-13.973439627428933,1.4152239412772047,15.05016272057873,10.616776259385745,-0.5076141964117604,0.977505020789898,1.500936942541898,2.464444945238924,-4.623059843241137,-1.8984394796190145
5.3900151619457,4.402825069840807,3.245387356303626,8.62756181369715,-18.88500775146923,2.265937997065322,16.828471076418,11.452411945308608,-2.377956893393355,-1.3132430894348317,7.73340365713409,4.25553960235311,-11.3103271900535,3.728295727332864
1.071036929783174,0.2001571025636815,0.7621723783398775,1.631262506618846,-15.622460473131042,2.9181811859239417,12.691155235943215,7.058064614409178,-2.7246222523260477,2.496925020146798,8.753971493845143,3.054398119087722,-15.242204379521183,5.276475460871865
-1.8697894971024145,-2.6589455989153183,-1.6945953969864975,-2.382329983582861,-3.535502390409817,4.395504542139975,9.73981392096526,6.312467243831291,-1.2551784750356103,5.469211553217401,6.11512264586932,0.8145435583123799,-13.192056698904253,3.987708546762434
-3.718778248872772,-3.8537568063923295,-2.367397853451193,-2.748045484970173,12.99273129133502,6.71886286464968,6.355894744565531,8.311315329483055,1.6361521559813277,6.772527840091456,3.14065378632813,-0.4140737859999603,-5.458912379913869,2.1114573486027552
-3.630149081727705,-2.473834036667505,-1.5678138955993437,-0.9501014431161562,26.26862647187397,8.40602087935406,4.233584356040219,8.14939350391938,3.5672447708105723,10.38309094224524,1.7753627080857657,-0.7083814177910881,3.853255160365961,0.5444821635380777
-0.3840965130550245,0.7953124844036934,-0.1486526984580532,2.8412704408686817,29.35039044404357,7.615917325261023,4.558122434275036,7.230794848580004,2.9288156977165105,8.419759000729737,1.4342003920597222,-1.914532309100025,9.661140275983485,-1.4505391720111334
-0.1411987759699426,1.4767469438993095,0.1874903057377723,1.216858863688388,20.15974104497405,3.934595086720776,2.380916547801718,2.2127359030153846,0.486677125407369,4.045082346382676,0.6000009296065514,-5.262948049782722,9.529135176035425,-4.570574651460902
-0.3444234048435683,1.683447915582875,-0.2040547528721721,-3.415071480224904,3.074003540166018,-0.9294063418889776,-1.7302533325628582,-7.866726309928792,-2.342912068212996,2.6048422289167945,-0.9249494995186752,-9.67040146344749,5.0839492616545385,-7.941144410537561
0.3290632490513761,1.7349096243008992,-0.1991805823686481,-5.573449750691515,-13.241332611964424,-4.324415384660028,-3.672490699565478,-11.518994114743316,-3.307668093802972,-2.252982274013458,-1.683448870950258,-12.635889503427393,0.2787070548922656,-9.51246481888137
0.3278683621820598,0.6618302056953766,0.9657893144479772,-4.245258649680817,-20.69026986127642,-4.743262985309798,-4.034378817399797,-8.984006254435599,-1.4344884568506613,-6.200423354816967,-0.4297638882152341,-12.781652737822355,-1.7078554952786362,-8.017680293932017
2.00353459652087,1.130591997853672,1.67758822868784,0.5100445486154069,-16.35859781402189,-2.9727676241351446,-3.583034762478473,-6.647875679514521,0.8765462422024766,-7.229934999979019,2.0107481685892026,-11.284082027219029,-0.3727207247391106,-4.430337813472988
2.4343724331932197,-0.4904314354878588,0.9112048984911272,4.683669770837217,-3.915528715455366,-1.2914315571255202,-1.5551610857424798,-2.12377239717232,2.1305907469387693,-13.203156590598311,3.0980625890206284,-10.626128475886276,2.445570916353745,-1.3451179071122397
1.001326243434067,-3.651626484211901,-0.7607427284192625,5.098198705903239,9.091979876601272,-1.4593345275536649,-1.322172663664257,-1.3137774001163671,1.8055532913604115,-15.052076848246784,0.9372418395034856,-11.97597131406701,4.240822138159956,-0.8263772510908893
-0.3599722609018324,-4.564766306988185,-2.659113604516687,2.1762515181511617,16.126982944111887,-3.2929067168876145,-3.038192371190871,-5.267958242432291,-0.17700889138796,-10.253748753310688,-3.7508601927174814,-13.948550827803956,3.419314975478642,-2.8040805232557204
-1.9515700550785549,-4.2054906723263965,-2.112372731315833,-0.770159488568372,15.30375540228988,-5.019965055763464,-3.321381497247896,-5.483838975848514,-1.5607872480900176,-7.849472990803644,-8.07530626498965,-14.021058314432253,0.0725835013714686,-5.486184066963688
-2.172539501245834,0.2469805429122769,0.369806041310342,-0.279864100495828,9.380721936577856,-4.988341600384274,-2.822907601856448,-3.2322641699270696,-1.5640243941954604,-0.0149362726561774,-9.419040233558915,-11.102541615142286,-4.090457114982996,-7.197943564758248
-0.7870193142735941,6.267882812347523,2.6413366401355387,2.188545117317987,2.5652259755198656,-3.149797032157153,-1.940426355563721,-0.8863511246121728,-0.5683891567593103,6.686198674321962,-7.525180542731277,-6.641756202944634,-6.620402757291686,-7.699860990778461
0.2145013335576978,7.337333288725122,2.942488259496426,3.238049691023823,-2.910969436241089,-1.0413012160342987,-0.1439390649679596,2.923470230629602,0.685066500819429,4.544057348894987,-4.3320877377523175,-3.245409182208732,-5.876925665325075,-7.733096075169783
1.6702404488434923,3.745971152579845,0.9843409950399366,2.2962898689323863,-7.461167863749097,-0.3585736027096118,0.1709478297523948,3.909844934671471,1.1012815782518235,5.648288070568687,-1.8999409227083104,-2.2686111072700896,-2.444258457720593,-7.48090008969848
3.237859177282529,-3.872473815929153,-0.9150445059182116,-2.157148375972584,-11.750796281079827,-1.4183942817508068,-1.0816630807018723,1.687903039865326,0.7368359435587825,5.454798011956832,-0.5181248889518884,-2.689668520005398,0.8999729819443019,-5.783932492794975
2.190679726881885,-10.43689666341465,-2.346445797493894,-6.634216486632752,-14.07519472274612,-2.850932569664451,-2.330015535334422,-0.1594684257650048,-0.5191737103754888,1.4527084376492108,1.219984172867953,-2.176999710543896,1.194399201299689,-1.161626465037216
-0.4068344461127959,-8.842615763062888,-2.277600661629203,-6.107082302909558,-10.864431519278469,-2.796239439708984,-4.1094680910603705,-2.623593729091336,-1.5454355652258704,0.8672448274322726,4.48098479942928,0.7713930298779132,-2.0380993722218363,6.196524971930899
-2.8594139330784207,-0.1191976443307401,-0.0684854183845612,-2.9362164510988986,-0.5681207830880339,-0.6102645650869931,-4.278484169198129,-3.3065224271219678,-0.7717148444538018,-2.2890594793637646,8.228647072598278,5.480079626392353,-5.887877495545524,13.439343346790338
-6.26410290668569,11.072155489865205,0.7722990123641882,2.108540937371516,12.85884973925306,2.377957684432431,-2.484668468803928,-1.5386755221530752,0.6643254155804718,-9.11426955538046,9.214990184953647,9.515258295067952,-6.177070512435648,16.349601640749256
-6.341801966856003,16.857108258653582,0.8818792630974712,6.225707247638257,21.256232177258426,3.795953481304423,-2.106510613637237,-0.7218322120812476,2.1611166562256163,-9.420818339047749,4.375313037058504,10.429893847614949,-1.1321157474151278,12.319335381255769
-1.916501049820318,11.717672278479276,1.1457491887347726,5.48825449681206,18.441472434722755,2.1932548028496512,-2.71420222952539,-0.1966710391391187,2.876890538983238,-5.996484782597632,-6.007299940901589,7.571544285334539,6.577643577371987,2.8503936729076718
0.8826399127699167,0.034731232734986,-0.4443883223434673,2.294529793916112,6.000926110840055,-1.573085383699777,-4.363798686211152,-0.7809741530091271,0.4098896655690641,-3.08679275562474,-17.05854165483845,2.7611687541915444,11.490691547523513,-6.541337212093708
