AF3,F7,F3,FC5,T7,P7,O1,O2,P8,T8,FC6,F4,F8,AF4
8.455855574952091,12.305526706932936,7.543628850995786,2.9014455949999016,-2.375770236340089,-7.470038571695379,-16.406436721907227,-12.387662844450482,-18.268615265120783,0.1861904940622594,-1.0230830865515592,4.481747697567535,-0.8046059776538574,-1.0726688535724107
7.922132659938275,13.15107437268236,7.403957778157181,4.450538507331267,-4.960980789682492,-7.870703078970568,-16.16015060470237,-12.848206913587411,-21.80165207995896,-7.516566855667833,1.4424331623063693,3.816249408383329,-1.60091256785114,-0.5617320411443129
7.051534590294659,11.017906714066129,5.702172689754812,3.39866816027826,-7.202779958505024,-9.089621205255924,-13.41783387583906,-11.740654083302006,-24.066888978059453,-15.543120960390668,2.689938691748805,2.575705899336782,-9.133705702603669,-0.4447711537637212
6.705836362903655,9.874777918215685,4.371439337245061,0.2091480949757843,-6.683481070336964,-9.252714153829931,-11.555642171563768,-10.985614382145837,-25.00822100162736,-19.426388368145112,3.8231805861879953,1.281872265952222,-8.807744293528565,-1.7957612649980603
7.012637479241359,13.1333021767623,2.944985757316297,-1.023005375209849,-2.50759363162227,-8.653628356690517,-10.100755571728133,-10.153520952710844,-24.8552589055772,-16.202891232998795,3.765227763864989,-0.3855812943913825,-2.1486145281869544,-0.991253007787584
8.054824363363384,20.007072589418712,2.534179286743002,0.0407264808176913,1.0081426489577436,-6.996647047429703,-7.45279942333524,-8.841124076478064,-24.18978736227,-7.351074264037152,5.527152488340492,-0.9120133836571224,9.244434468347418,2.195857803748466
10.15349857227467,25.62352568953756,3.5350190019883243,1.276952628122964,4.58288648492573,-3.882965620531824,-4.10798129747176,-7.30305608244321,-23.668707800685127,1.7406932650603153,9.15304786409047,-0.1526574137687469,28.423467053528626,4.951543093669074
10.21056232791837,25.0774891841082,2.886243096675236,1.0217657882172286,6.0665006816920135,-2.56463689065519,-1.8176475961853045,-5.796223199581528,-23.41322079084243,5.887186923783261,8.429294764654033,-0.4968816336645438,32.627552830919946,4.682308365139408
8.119397375637584,17.793396582480796,0.7891313201316554,-2.1462004974675435,4.477159176151911,-3.0794376560458865,-0.5740389013266404,-4.359327777019777,-22.62298905141532,4.243464291908978,3.537239657987868,-1.6975837895499182,20.73542534273151,0.2568628786960272
6.567845799221473,8.143764898170375,-0.6285036343902666,-6.976011734147814,1.5802092286856777,-2.097841867180336,-0.0245571791172803,-1.8036418374729464,-20.051496987245145,0.5505495668345901,0.5276453558631878,-1.8422168954013776,12.325577361904127,-4.597768081554081
4.916788128292528,1.7452428427653075,-1.8740350536947776,-10.73948237366293,-3.573145467631826,-0.1933032450216573,-0.6429741390225837,1.8872831346961687,-15.22053902785342,-0.7143418286670453,-1.6156010830878462,-1.25711015646817,2.5243524278956504,-8.039612130589028
5.449242519660084,0.8767261727919191,-0.381886967946401,-9.361898736375462,-5.884705020266192,3.0017905325261403,0.6704521579017776,5.198274464727124,-9.30360322285724,1.6093448603671874,0.9918762166212596,1.2081817157895889,1.8119065854459493,-6.766297455642011
8.785360597538645,3.1683056615402663,4.429258775698903,-3.172310819243836,-4.920402513135879,8.13119700822983,4.063918824610651,8.314692069937735,-4.590442790521344,5.118728790406209,9.877384639195112,6.034245906770448,13.932169311995258,-1.3698136917492982
10.744941188255616,4.48752306088771,8.42631127224259,2.695599935798996,-2.3400974763225943,11.46688762750142,7.301154336870743,9.952982239621464,-2.6628173136187883,7.312524863433616,14.207285967575864,9.687370551564165,17.916991679204177,0.9960306838751048
11.862927446782347,3.0098016552754885,12.21229912680648,9.218502826465382,3.320521631531559,13.069109907722549,11.084911520097144,9.66213772070848,-2.8034142709543914,8.718890367535622,14.781272169415567,12.385879747432082,16.46133996244519,2.115622234736071
10.825447195198755,0.5806634914058932,13.586666754376957,11.130851346269152,6.356590908511543,14.178700008580098,13.101013589832052,10.646602457621968,-2.243620318860689,12.116583239912476,16.551446090894487,13.631694867759444,16.016102503835327,1.884937488015284
6.657353754488431,0.3367699595422344,11.533270391391746,6.515621901307017,6.57003111902306,13.940763354601028,12.891078410485257,12.627177875108105,1.679032952831351,18.688783365198404,17.512495820976056,12.528134269920674,13.068025544118832,0.804861182232289
3.674570493267349,3.1819740547870934,10.575090847219627,4.578764371745912,7.553664358529918,15.323332023152917,12.824425729748858,16.408190578786574,9.184379362663798,25.479230007324137,23.56141245620686,13.421797043269686,13.80796882328156,5.399665039319546
1.420940460846415,6.603169263968498,10.008110391940148,0.7615571841919836,8.030135013320766,18.495453476713,12.266157960127302,22.79204955348259,17.571973666675266,27.29470585915007,35.588503226701064,16.118892587360747,18.80440395499129,10.695506153817066
-1.2029317251131668,6.8142097594433855,8.008551574132369,-3.323941564784075,9.040242539518928,18.925485746182247,11.585282491022214,22.74559470704727,23.068855488864006,21.481963133783005,35.95557454361035,14.585343379643424,16.63259825863562,10.359384893666649
-3.403594007661435,2.015659962473107,5.210184044284048,-2.467359754405768,10.962120774407024,17.037300093523086,11.10174517230691,16.009629576542903,23.4595075933177,10.828062514805872,24.91812235917253,9.268524654903668,8.017188856725648,4.956005423702467
-7.344011325516304,-6.232876089105286,1.2091579723848465,-4.32982405686648,10.90899613635962,12.633510098989996,9.492277382121806,6.170209764658037,19.37236815627943,1.5580363447084693,10.3496700906176,1.290165269591072,0.1312321057169418,-4.5510734851756
-13.12391151219701,-14.429538576647056,-4.219019624846783,-5.252522050811775,9.032821740174748,4.67112993632366,6.877536885316377,-9.050392278345209,13.412289188313268,-1.7692410071110238,-11.704342868233256,-10.682014510268234,-9.054831817324366,-14.358623093034502
-14.25352756507028,-19.622490347455983,-5.498689079867261,-2.229626354028412,8.045397312342413,2.2174662459001,6.367349076002934,-13.858389674906016,8.199736239358693,0.303375073185677,-19.58437521257054,-14.2138924283061,-12.05659290838984,-14.772794696316186
-10.69245824026833,-20.71213999474051,-2.268196704531096,-0.2027052381284371,7.519490838818656,5.575065918059932,7.993857144788415,-6.93235776815356,5.054417859293714,3.3492499106371127,-11.09426458530876,-8.44996052178457,-7.214130101297918,-5.687494579822374
-5.537440814709449,-17.996756854913286,0.4672309254183404,2.2259718580634265,7.130272239409675,9.578077130254064,10.203860347091164,0.105927521326539,4.079087010055311,3.3837732632829045,-4.507408301518682,-3.241458232288891,-4.936775527591925,2.5268119819038035
2.7331352157368136,-12.237747384974304,3.953620002625808,5.367308366289797,7.368929915524524,16.364860426480625,13.734406216470006,11.142971623263174,4.936150924149452,0.0696251590012551,5.446520223671043,4.314949927871811,-3.3414902940759785,10.802561453547844
5.2086425696839305,-4.556802325380168,3.573047372854855,5.173660343349151,6.54652767846246,16.05780111011168,12.316423938630018,13.933589368061972,7.178769211926486,-3.855345799070392,6.414133980557452,5.611439265183016,-3.0860569589955293,12.433063805354555
0.9722163445174592,3.042667887880839,-1.827675214353979,2.6064803489781974,4.658517729656299,7.423438653499287,5.290431347025696,6.2321091340020125,9.886944137378386,-5.723551202521712,-4.899245037614062,-1.3083770366481864,-6.010134798988382,4.638340637881639
-3.413372278972877,7.838681827675657,-6.5875693132652975,0.8597140567404695,5.2296241252671125,-0.6233848621342801,-2.707932262819753,0.1320551941931166,11.428771553014386,-5.291835279281337,-13.923455594791736,-5.828314112297937,-8.356277263769098,0.9728632107337104
-10.227060449215834,7.856400562140337,-12.02074065547736,-2.7152728924830325,8.168508658410982,-10.543166434437534,-13.30368417888756,-7.661426440050024,10.153875240551066,-4.330718236818015,-24.263430874430767,-10.254391942157833,-10.884986051745724,-2.929191812935879
-13.18214075777657,3.5420465823319773,-15.121864812352166,-5.178607659828799,8.863060151019868,-14.534883827140158,-17.531531457037314,-10.830992736089655,5.71469059307875,-4.521348727001772,-27.651332522754057,-12.304354954070073,-13.78884969738099,-5.873398837861012
-11.131039488933386,-2.1566591059710163,-14.794886598671145,-3.732008884962113,7.77575971859217,-10.752895986347117,-14.124412121212789,-7.313774312327813,-0.2490696831205099,-6.133209260440623,-21.35334679214088,-10.16814107249842,-16.551206912561295,-3.295625146653375
-9.351044622329145,-5.807791344026654,-14.67802211956671,-3.0856762477852757,2.271436850823437,-9.582412558147183,-11.129085391861782,-4.459041194862172,-4.977669789335039,-8.547737991731722,-14.180559561157352,-9.450469289741322,-16.356423910486033,-5.8712957000238095
-6.070785871592531,-6.01786841813329,-13.73738986120289,-1.3779615343452596,-8.956366869395849,-8.962928330002285,-6.2090444084964105,-0.2248037547507314,-6.490532263725953,-11.416106799865403,-3.3254768904141123,-9.161270687458188,-12.709063931018044,-9.02769178518724
-5.497783590875452,-4.181651505126055,-12.940698538612327,0.9117606356115172,-14.151367628783966,-8.966812248396863,-3.5025813109543744,2.781277152456364,-4.911319146555684,-14.749170388226688,2.6332539680075917,-8.032255607769544,-9.508885216766451,-7.50835836146132
-8.483586480839376,-2.766619848113436,-12.768856684900388,0.7046143147099827,-13.567101562850254,-11.25693602896598,-4.303795271377123,3.4870967723345694,-2.0478925524881646,-17.90791184078182,2.065998097508164,-6.858388385933916,-6.060517093842964,-4.718990539591395
-10.495008922515566,-2.8219911239536657,-11.64043488478745,1.568694561663292,-11.597786290591744,-9.72671489007969,-2.462126649543768,6.019837036072922,0.3381714306123768,-19.109858438375426,2.066490194280302,-4.493809362558761,-4.5423101067636935,2.582182153040734
-12.650826566335828,-3.17970109156434,-9.891043736566408,3.4811147078686804,-5.600016872192303,-4.621512649376281,0.86315763839145,9.55472711784016,1.9263603063312476,-16.598829700870844,0.1562790529950689,-0.8723707526669838,-5.853902498910226,11.80209164363711
-12.535940063617144,-2.122697153976034,-9.029957136552929,3.5488946805100494,-3.958548242887901,-2.4930058698040605,2.402398706801629,10.675905056239674,3.63995214272731,-10.51779687336117,-1.5630858626603,0.1446263113463742,-4.738876924927858,13.803063508394915
-9.306379755120664,0.2375952056308961,-8.982095235605172,2.122281570731289,-7.274089988403226,-2.517664919558252,2.8250289436951537,9.670706421386456,6.19601926270829,-3.3188146086307317,-2.3723320216802963,-1.5174263900400666,-1.748828976309272,8.764110080336634
-9.042402490285436,1.451316103579103,-10.270005822122643,-0.6212117929561519,-6.757026613097154,-3.5631418986310406,2.2001769415973,6.615113441239756,8.953918639184067,2.1263881266171865,-4.133219377784089,-3.5493145593878843,1.364656248573874,2.4339330372970864
-11.261974221214391,-1.1366062065926317,-13.343799795608271,-5.653187068132032,-4.077535410585179,-6.893771018247161,-0.0544779446349127,0.6839309779381478,10.251364262459433,4.989746462323907,-6.151186386691883,-6.836860137644849,5.540971532834374,-5.168909764630161
-11.4972583634731,-7.53966614735738,-14.045208221359696,-7.987219779342601,-2.41580258437815,-8.062937339804796,-1.2585670237420523,-3.8663463241728935,8.891236074112413,6.913481133573285,-6.841412110950934,-8.20637053185985,6.119298353155796,-8.25738225174209
-10.681574847792408,-14.41290763088938,-12.34617139178468,-4.796170283189442,-0.6118027286388565,-6.978263043997669,-1.418111829537558,-7.033678777297329,5.295413067437025,9.789530579455269,-6.134212619525947,-7.19154000281064,2.638552949536769,-4.144327268560878
-5.326915671863266,-17.43437776874582,-8.050170851627698,-0.8885182203574955,-3.8843254109828753,-6.2691014029839245,-1.1143779402041936,-10.462628078531797,1.1922328738283383,13.157421046054182,-5.20650734839239,-6.275493453866741,1.394424087308515,-1.1584457842906113
5.669895563882043,-14.815529123893285,0.0256930304445035,4.824774053097292,-13.078566947954238,-4.963246629870916,0.3150575157611395,-13.16431826095756,-1.8415324110250355,14.102931105996769,-3.662830016716178,-4.597652986387344,1.506720307933116,1.6386712794219398
10.22212810853266,-8.78480614888661,5.078250833171758,8.50842989355618,-16.05730886755597,-3.8473188947403374,0.8643406872380918,-14.072374822082168,-3.5624456153610424,10.069416900376597,-1.4936206734007078,-3.067925858157317,1.8931042916102592,3.791310876761288
8.651129343498466,-3.640395500330172,7.138349331230498,5.815765453265223,-13.465030478729751,-3.181708422547398,0.5413488250812787,-12.974638604269929,-4.856149331019687,1.925932749884524,1.2004546330752317,-1.9648052767351412,3.6863803001859607,1.7465324334028876
5.5364798068216885,-2.0623435302351467,7.73163873115056,3.169866063300371,-7.311392469910891,-2.509636321938258,-1.6474858275025162,-11.941460876700502,-6.423566223633401,-5.848050056567544,2.9256738146176,-1.3882905275041957,1.0596923857603735,-0.1952860864739942
-1.8095899302756853,-2.9505176673024067,5.17727213840831,0.1765946992843975,5.197648263902384,-2.108705394614417,-6.332582769180585,-10.720087101166264,-7.733046991375851,-8.361498667784012,3.4917479746782063,-1.7233650937580332,-6.284990103571674,-1.985084975605635
-1.6857797441087796,-2.6654396606830204,5.423299587606645,-2.520816651061063,9.984403181464687,-1.7459874319689397,-8.423606329967559,-9.57146541766935,-7.364882057905383,-4.237380225143177,2.3584462026709168,-1.2206033335848008,-8.21417936118292,-3.8031857549780095
6.87985160882295,1.511313555871375,8.553043333211393,-1.9261403032573732,6.599540712916457,-1.439576771565919,-8.034717052887526,-8.94976299278305,-4.516178360488013,3.079775808546259,-1.0623376815747942,0.039612899860652,-5.438493007420883,-2.767395730486636
13.677394217856104,8.824011220129236,12.142695331414984,-0.9989287920004803,3.231328030151845,-0.5719322987752827,-6.755972604659216,-6.937263344860896,-0.2515063806797428,7.71411313349784,-3.9794645034731246,2.6907023698128785,0.3336703888495962,0.2969968767078872
21.37158902369117,15.62531300351768,17.58280017759275,-1.00359085382684,-3.3572528190082584,0.9628120610345114,-3.4161112345945672,-3.6572302366372655,2.795415994846209,5.529500091979266,-6.601469779243084,7.225435890703128,11.35229389191741,4.357349302894052
23.337532973546768,18.472599663127465,18.82161739140034,-1.557178307591469,-4.730120555178924,0.926024290622133,-3.494838516225764,-3.1604646068203843,2.212314684365225,-3.040080191700653,-7.845865619057969,9.102566354088427,14.15078749940416,6.50577025410126
17.591530413748817,16.92677818992607,15.352689782372035,-2.5188230609797024,0.4129526200850201,-0.6798090804865184,-7.339816422560571,-5.416743554999822,-2.3380952097745897,-13.389363491437472,-6.963645871853688,8.30982541546894,8.113958125141096,3.997749899937565
14.843789028697342,13.641030760583988,11.316696157205786,-3.315138295347852,4.0543721639334604,-3.0030531490266985,-10.724289821562326,-7.311038098677678,-8.755698229995616,-19.8867441856301,-5.076812348747611,6.946001577402749,1.786375035441759,-1.6732406371203026
13.328092624975415,11.845443925910342,5.216020654849887,-2.111149840928048,8.329841805436407,-6.57822321617905,-14.895945021573135,-9.648350092642543,-13.929768364289169,-19.530805335223693,-1.5793713949029209,3.9679077129898976,-7.980371106984004,-9.406249279104692
11.851576922645432,12.608601401000662,3.414464139088752,0.7450902825056059,8.657926962793953,-6.578560914612954,-14.422712499837171,-8.089776426155472,-15.749293338617026,-13.692716404658682,1.6339747411034051,3.663762415114704,-9.876974829619757,-13.030706103102858
12.199611976134296,14.251970524322635,6.852060588382023,2.827653203980911,3.5941036960200607,-2.5728940555288653,-8.28645043304688,-1.7719371671375512,-14.104830407237786,-6.825635208823129,4.433288388647753,6.468634347317492,-2.164529703908259,-8.59997697718807
9.12994050197905,14.17521080135936,8.766579971310538,2.7131441127592546,-2.4674818654712305,1.5559414155391256,-2.572494152671042,3.9243382982213073,-10.31607579351672,-3.0700259501803733,6.33971810668991,8.50698647815656,4.175690392057978,-0.6502251722228134
2.7050991892076484,11.20261304940832,10.715762246771662,0.5784519754943785,-11.086321848175224,6.984645526320631,4.14104433176156,10.118660967176712,-5.81928794165415,-3.2412094493388106,6.725832962130436,10.783906256997076,12.03521802439798,9.594286867073636
-0.7375163473298904,6.339757867423099,9.345412032947308,-1.86499603456885,-14.421243445173756,8.615153832279521,7.340551908568291,13.65665924671982,-1.3900420275811198,-4.551343853270632,7.327732998213023,11.515201019693253,14.205896714057287,14.817676137851985
-1.8994820393000815,1.5381964559667587,3.343551506162296,-2.097656447796207,-11.38742856434092,5.523610114942156,5.710850607556829,13.38132610387985,2.6436263513127174,-3.3591451956234737,7.825865304657377,10.022468283518837,8.592073677650305,10.205621713920245
-3.924694530356877,-2.095387043480456,-1.1622209832980002,1.2986169350235692,-6.386289091298594,2.58543001120172,5.919843242860494,13.692267933050625,5.850849060404775,1.3306760613052884,7.953975904290645,9.160257291960043,5.055269767674342,3.662008016573004
-5.754883415680712,-4.9495446762375055,-5.159432179745816,5.198297217652489,2.8773969565987088,-1.6015374245721137,6.702053410876154,13.54842180735229,7.682640835360405,6.743862464571149,7.960930244767438,8.380823738938707,1.5247518800626612,-3.1814271500495224
-8.312610445875448,-8.057486343267746,-7.2660406627833405,6.1428651317913685,7.176202663639901,-3.1638794708744085,7.38337688963015,12.640767827357362,8.052875193972785,8.787466771003821,6.054543091028172,6.997604491118855,-0.9999484059673862,-6.650443264961442
-12.004145535065458,-11.818109970050095,-6.243127004518712,3.8990115067752527,5.683645481746759,-1.1763884394659212,8.984102529488489,11.52564860394287,7.727637600828853,6.024300150277487,2.10283193272395,5.397700505596951,-0.9248770194671314,-2.830297677828033
-12.991778980425853,-15.533308565115597,-6.682841763398568,-1.4293229943730053,3.9769592507276488,1.058014431645568,9.052156957689272,9.964090776043813,7.851555956760231,1.5037690438981208,-0.5749467024266243,3.2346002667682003,-2.670837472606799,0.0629195591141086
-11.322513987789009,-17.991737349301108,-8.008703533658664,-5.633096618837778,-0.3260386453707666,4.74993615511358,7.669592011532731,8.114155163995225,8.914218719235024,0.4911904383768579,-2.204092863690554,0.4754743750555516,-5.598435055692209,0.0456593038261995
-9.766124932794815,-18.329581610886784,-7.930374491770197,-5.008859532947904,-2.871472264277028,7.184234341234903,7.508931231102566,6.539390824306819,10.195392661911232,5.829399366167976,-2.3836819601830435,-1.6393259793312946,-6.337499418247214,-0.6407650595580434
-7.575823615156208,-16.383320201451056,-7.115509405017466,-2.251410908014,-3.042119062678897,7.887197043004804,8.25060779032045,5.34645551897529,10.358426505718684,14.99402470366931,-0.2751805387591027,-3.080324676129611,-5.344220212582895,-3.1409554911106925
-5.60219135895084,-12.503402950051576,-4.554454155763326,-0.4729696497974363,-5.026568763441371,8.562669920323025,8.910265336506876,2.4705242786214794,8.71331697235388,21.62114378976675,0.6664617333575992,-5.1565275189207895,-4.877791466133114,-4.275029507748927
-4.2865978098758,-7.350630747826688,0.1454281237485944,-1.426958583023822,-7.791230109119639,8.409310137997348,9.958369575901065,-2.0746289540113407,5.939523304982213,20.42306958560025,0.6660549509773325,-7.63916083379369,-4.455396900540073,-1.8531060022616348
-2.85491920007948,-1.963611408185869,1.7129179966025951,-3.8715238002180463,-6.286397497952952,8.530990144542987,9.605953024561463,-4.981941025191055,3.535838351898274,11.404619409369012,0.1878111477357138,-8.669443294385774,-4.678372433206125,1.2063872905968789
-1.6836374768871925,2.2355734319273424,0.0821082771713974,-4.520589441662928,-0.5502993376865277,9.040839994445696,7.646152887791742,-6.477918558025155,2.5021790392626,-0.132713114034189,-1.5236252298663815,-8.291699023842666,-5.988469018647258,2.8116096982128047
-0.1318095077497677,3.984812638349055,-0.6923536666945459,-0.7571496096242978,8.206167365335856,8.815246593812757,4.922061402754138,-8.160878142280483,2.505582757603644,-7.682377862446163,-4.827266179941569,-7.501523975172035,-5.34271290572639,3.2015794291764994
1.848838797671704,3.152751390949142,-1.6924627775498682,5.9272522902096245,21.30173688889044,8.076110848475688,0.9218935253714852,-9.395477640145453,2.297743024035995,-8.190102358548629,-10.050207465487532,-5.894326421521148,-2.826438129733745,1.7925948084719665
3.376518076783855,1.273117465793689,-1.052300878439418,8.723528390575858,25.31386945516804,6.317500761447052,-1.5336719489775246,-10.424132595061652,0.9368048337397532,-3.5476051097341035,-11.972830615760714,-5.276907691773282,-1.8423923117031684,-0.8300935056550263
4.550613992764481,0.8272820185038441,1.9383478454759528,5.890175937101989,19.271380530874733,3.303663380589467,-2.219016085729254,-11.368562066237914,-1.3573657573998863,1.8017249531480424,-10.3799598664975,-5.886030510579394,-1.955544143225921,-1.7358634743383985
5.404165798469345,3.490202493738608,2.842298964879478,1.2698066372227137,12.735313226882486,1.181847831221412,-2.81007534269902,-10.307582139321893,-3.450432933551859,4.559681400726724,-5.883558821516252,-5.547337794441992,-2.619859881503348,-0.2004237920316803
5.751928281583589,8.676323570327135,2.081943482751984,-3.742117500631867,2.428380632154576,-0.09320960562636,-2.5823560873617923,-7.151691727194052,-4.298051858889817,4.3520424167977865,3.0263894866827976,-4.660675236579323,-4.490219989289889,1.106008112929452
5.364662693332583,13.737513017004275,1.7303561858559109,-5.07245040286194,-2.6327882014837805,-0.7518212768074557,-3.579690198050557,-5.788224784067487,-3.738199835061291,2.6589463484879907,5.89390432979484,-4.725307659564644,-5.255291613576673,1.7467511268611329
4.126968734839978,15.838487696280197,1.0288203287803028,-2.1201282057592654,-0.7497939742585011,-0.2515446944366672,-6.059365984954733,-6.032519623447979,-2.4603530662941573,0.6936364656959029,2.342046780412863,-5.524073816945256,-4.877363246786523,1.2570443090860346
3.3747171676647407,13.99582521717873,1.5953240379164988,-0.744973162902007,-1.6166484718463632,-1.44409013491207,-8.03189131925145,-6.730998348259766,-1.3774085821907749,-1.4458422456926705,-1.600215896917175,-6.072059498123058,-4.718705315138196,-1.1265967458253845
3.1067178192845897,9.549473949980085,3.765103647497204,-0.3759459506260328,-2.8819857866151395,-4.380354509437012,-9.979674094015271,-8.74679817567472,-1.0582529552105413,-3.866193682505532,-8.39319727786364,-6.583321511918084,-4.279281738393211,-1.1531396129821585
2.6117495719991166,4.772740710041301,4.038801611231519,0.3426752108761535,-2.602774043349936,-6.366724511279449,-10.387522934757303,-7.472842374417413,-1.5947082589431645,-5.733417233121614,-8.505880794534471,-5.2732057846160325,-2.6578629900136077,0.7521569159235206
2.185644427218861,1.0641697546531006,2.6667457598721915,0.4636838994419119,-1.8812787095308772,-7.930594442366676,-8.827924408351455,-2.594848653787931,-2.7563657268461235,-5.4967757535712565,-0.6852171570159628,-1.79360911381782,0.1428000341139945,1.3632980231170642
-0.1803370713345435,-1.572433009182136,0.9748859707488376,1.407242476415856,-1.73198647440868,-8.900199712534066,-7.1226047343945424,3.2567726333502987,-4.124841905813039,-2.3842691180369933,6.89508950339158,1.1747013468221987,2.48997381925152,0.8867842997412867
-4.723954436969646,-3.5544204923252263,-1.724498328570489,2.486526625137181,-2.2343373341859687,-8.804799242298571,-4.81207478201111,11.244180317388738,-5.143900589291425,2.435519415772028,16.670882482554465,4.045494000873831,4.490038528974731,-3.806274386298044
-7.15654041235718,-4.693111687021634,-2.8489892508050603,1.5247958043065577,-4.235152231278945,-9.027683382698932,-2.7122930681334143,15.061550731670874,-5.248367680044586,6.364870267064667,19.740943661265177,5.760621365575217,5.554354140511828,-8.822413773543653
-7.722574251645093,-4.498016817465475,-2.1412481784170803,0.2732037279765236,-8.202409639644719,-9.418796885234896,-1.1369430660676234,13.998641186559658,-4.135217308161797,7.256437387867999,14.34129114378569,5.710578945237099,5.224510472164953,-7.92703377323464
-8.485271234486707,-3.461922235403698,-2.278342129975493,-0.5144746901843651,-7.765868491226297,-8.52140155245565,1.0058766563875434,13.242765596628976,-1.9912023689383995,5.062207215855013,8.90279340151707,5.511561795010668,7.376416489625633,-2.7796290131052377
-8.603391822597947,-3.5404386019061977,-2.6957158803988754,-1.9826171417783165,-2.7781208618407547,-6.466656192181365,3.441721177699356,11.205978294653512,0.5557407026129475,1.883253462473931,0.9003568425943823,4.704280646886909,11.987220199962392,7.223501184836125
-8.960762485456728,-6.702320685866123,-2.483940958288988,-1.9461367914437897,-0.0387020715136021,-3.400131796481279,6.532645536879047,11.34839878128362,2.764737102988512,0.4224915702893348,-0.7178942714432485,4.542090288721223,14.296046072871192,14.671655276576036
-9.759033866259871,-12.654930121016037,-1.9671340668937487,-0.9149939261979436,1.6033985868382958,1.0042441992662043,10.45149756808249,14.544116146566166,4.161592909929423,2.060546324876104,5.814639882086697,5.317738541618786,14.86683497101539,11.91962094646737
-8.528073990716063,-18.195648460275088,-0.9769839063761792,-0.7662349413062646,0.7165783373250747,5.149369423688506,15.084452577956926,15.547302360150066,4.741456812072412,5.938256980402608,11.407513030873352,6.687072612666912,12.958402720385992,4.2937433537843015
-5.338060829210234,-19.381020329561256,0.6002580096741568,1.384975876637578,-4.092150226900282,9.009921438302802,20.607392429355603,15.214850899618982,4.93159756613806,9.60977132339138,18.52848322804956,9.112365837775414,7.478494517617181,-5.856403698498843
-3.764239980610499,-14.90226754021043,1.0987180182092515,3.4028644908595878,-4.938568581560281,10.583190575214047,22.087554148984346,14.46187368974208,5.3687550056473246,10.733236179865251,20.3667177448812,10.292504047678214,5.031024790540999,-11.728341517476876
-3.530463957290716,-7.57233125050386,0.4441413278231676,2.292472767312761,-2.1545640850179866,9.215228861965128,19.0935087326927,12.438797505223215,6.554687239689177,8.603703039474212,15.157864563436386,10.171130411377522,5.490659999401308,-7.135495643944194
-3.163487198763565,-2.3439610969515985,1.0630040209312954,1.8762238911306344,0.373437848987309,9.116957923503715,16.211232725350378,12.12264916480985,8.479528973411096,4.479666470856754,12.445145890072553,9.982373347631906,5.8433056684950815,0.0597126433941033
-3.361096675485196,-2.431299019748299,2.7002795937919406,-0.3000048809812798,4.205417381821567,9.785449669606384,12.289998512804257,13.631640369348798,10.40548619268244,0.5330588428267533,10.406066609184828,9.196381686329817,7.510943726653566,5.565650570870527
-2.632255573606157,-6.842032841212832,3.182176500981083,-3.7009305697117183,4.858926394573881,8.721390021040452,8.606972379266992,11.251391483269902,11.049223530339408,-1.733370550433213,6.351648470636165,7.04921883190266,5.307641813197902,6.723160118415328
-0.7951651245308032,-11.315886151830112,2.8172752295199013,-3.572875276483134,1.6559637669255054,6.532757660917289,5.904917415020848,5.25780943727195,9.216330591717057,-2.3858723556044628,1.5636422154453105,3.5039312270113894,-1.3413211067761344,1.2152931365498492
-0.1797925402936548,-11.65610902037733,0.9444794258429792,-3.144542909647835,-0.0884288746335821,1.4403017330820234,-0.9443666436011026,-3.6492277569358,4.578551339440184,-2.677937114023361,-8.194400079891619,-2.518166299818392,-8.465646616727819,-4.857734751046064
-0.5357903661161106,-6.592571301598768,-2.9502564846358523,-2.50944513566524,-1.4004756055654777,-7.117149186342887,-11.739498527547791,-16.83911293228382,-1.9391881393415504,-3.8694773143511383,-23.466244027402357,-11.388017530716258,-17.374912061266922,-7.952585705340006
0.9227014713473696,1.8729041159799191,-3.381656462206604,-0.6895839919200625,-0.905324509180398,-9.705876921707455,-15.975264431151842,-22.49056616814326,-8.51201533931098,-6.294778525916383,-28.444355918706925,-15.09726850958487,-19.859926344558662,-7.120903099683902
3.979475485848557,10.33007709147028,-0.2496884802897805,-0.2064270445873818,2.4141829717835632,-6.146441107863917,-13.860993098345697,-19.958643139736814,-13.349068000932585,-9.298722921896603,-22.94213069928878,-13.337693960438736,-14.734434120377944,-2.5679284617448555
8.339736959118975,16.13795429703068,3.1079503812517872,0.211363921801132,4.932884873251891,-2.795850745183757,-10.80311076641348,-17.45450211467463,-15.606038855792052,-11.790908487611844,-16.75707886826577,-10.069143098449732,-9.559362247898363,1.91132564796772
14.6434376372826,18.388268741752675,7.92102280796412,2.371056144152024,7.196520206990198,2.41646363453148,-4.519046617736854,-12.199836768987748,-15.681430508967669,-12.792469439601922,-6.378524046456192,-3.2922527182963783,-2.192037423312781,5.567643648443402
16.717020888813884,17.597948284151073,8.470081578743965,3.8358866064672985,7.814144330697447,3.5941222141594804,-3.119156189521278,-11.14117939104006,-14.76551179884331,-11.739465586783815,-4.532596961003781,-0.8743498264669474,-0.1759465653976986,6.713882566871909
14.197314050044415,15.01360603983037,3.935381326459441,3.665833916816989,5.982916149984907,-0.465267546132267,-7.663829617067488,-15.684482792598594,-14.044845780767051,-8.77821268930408,-13.268887229617231,-3.5824189373916626,-5.133567024280606,4.724676316869344
11.33477126185255,12.136423119507516,0.4899559700743201,3.3779419932986774,3.4344865799901183,-1.6291109358406912,-8.61165459011831,-16.948209841629847,-14.132361479117003,-5.124196465132084,-15.868710313470473,-5.169084833776779,-7.556765538566887,3.147728408122336
6.656070437143973,10.334368380501106,-3.247405086958381,1.6282345913842904,-0.4761731383538725,-1.3061484051597243,-7.757160583620091,-16.642367420835008,-14.993453440313932,-2.972959696251033,-15.191320186033144,-7.545399077908873,-9.411369106791614,0.9516264659969592
4.94999485397724,10.254337796361288,-4.643328818624947,-0.1046006786757627,-2.1177357172205973,-1.637564661521691,-7.9576768694283615,-16.335365967127093,-16.20380809348374,-4.399704724302401,-13.35317387405717,-8.479876638921237,-9.56293016391672,-1.2949270030034978
7.045724059907027,11.30441103567247,-2.5192271434458284,0.3321220009667139,-1.0350994000637916,-1.4194087725661015,-7.900957387282067,-14.735229333730535,-17.216877321887946,-9.621500802696996,-7.603602315974314,-7.114184897103239,-6.421218430099193,-1.327040592906524
8.307664994095683,11.872840084628631,-2.427998668646927,-0.3087282970709797,0.954255196410734,-3.2132717314293826,-9.388953212457553,-13.811394116330634,-17.509520658736747,-16.07856050856075,-7.337649813634527,-6.566999955251076,-5.523022366688652,-1.5759723851221628
10.008185840567592,10.47354898011183,-3.593278534242013,-1.7774101439886707,4.912582513167498,-7.262077617556795,-12.743426769110169,-13.548689627608445,-16.711873430428682,-19.62249366025705,-12.67925542178625,-6.1312480041960535,-6.303239664014389,-1.8350338029762012
9.100683705397875,7.020281207214879,-4.632439722426867,-2.481011181738557,6.032645728366458,-8.696610698821232,-12.734294172724002,-11.294197916865404,-14.794866736122149,-17.385606932819165,-12.167285332939445,-4.818275886352192,-5.974073257714025,-0.8278148216941936
4.734007836335723,3.0526403717531423,-6.465060172101667,-3.373370998236723,3.936171052321628,-7.817970495645519,-9.452234922608884,-7.25965747744707,-12.159169840142084,-10.107075908848133,-7.203705406517244,-2.9590920806590235,-5.407496574987723,-0.5968258362896404
-0.7900634289616782,0.5688475928591519,-7.426603562583248,-3.3865611437491223,1.3253948206638182,-7.2930244143196195,-7.824684798327433,-3.6186841955912574,-9.401031942995674,-1.7532140572335724,0.5638683362641247,-0.4622575951308379,-3.517475204480562,-1.834085149314959
-8.516804314758032,0.4487805294976112,-7.44633705517457,-2.6381134178805987,-3.0379777235974013,-6.212217170280877,-6.9570807915410375,0.0296929148450811,-6.815422900894555,3.502835285869878,13.378102214926956,2.80292991476181,0.1190909891592577,-2.7780068328561285
-10.267217338249065,1.9084700119818925,-6.226833119216854,-1.81295686105847,-5.760584149922352,-6.199390482933557,-6.067567271188385,3.090352842787552,-4.072329336872436,4.421102024819172,17.510134088744106,5.68263969828537,2.6798863613622,-3.032502709007148
-5.188542755511512,3.445195526193805,-3.2721421630562544,-0.5208338275494264,-6.458168076949043,-7.665474225547227,-5.952945015150202,5.110774868442926,-0.493895316927702,3.191914886807707,12.298863559021065,8.143093842565026,4.380491215814304,-2.179185253728088
1.0126738424451815,4.263244369670533,0.909340058090485,0.8968700162106265,-7.952389445234309,-7.01474832920039,-2.592067688578773,8.892869693797804,4.1590135424613,2.9341731731473004,8.497342659411798,11.073730249279196,6.649214727750556,1.4416304560204356
10.483457991235907,4.740634922385508,6.634892186759607,3.577744139925047,-9.418856400002545,-4.525497131964723,4.235170087225391,14.318327806531142,9.066854363221635,4.667958129960638,3.084336355726638,14.228926561491244,8.983166059097078,5.500871583135275
14.344560998326262,5.577015352364303,9.847804653208907,5.00727078286462,-9.131455773191474,-2.521871336377893,6.896765292756602,16.590763154576617,12.606951634825316,6.6893077201153455,2.64794555026085,15.251305445619831,11.445891051138222,6.196927766397435
11.343745503877011,6.69016293732406,10.191557809093467,3.33287673466125,-7.216802428733946,-0.4112707169796745,5.824903249613707,15.914780418308377,13.50357521288037,6.832123849871257,9.131535411866867,14.00627497456699,14.16800906457713,3.737962149912627
10.601697010756386,7.155905202831379,10.209000742725372,1.6710686325831794,-3.207812250410526,0.1284590608544647,3.766681823896621,13.840272439810985,12.013737863022996,5.161903293394515,11.074517790439977,12.10386665977142,15.509618611679548,-0.332389899802488
9.949072554891584,6.2680986386579765,8.834270475142565,-1.6708886884358871,3.393883038590511,-1.402678279090872,-0.8810954434565018,9.291506985746732,10.051429391010998,4.196655214073936,10.116138866822595,8.959943204925649,15.371125266803816,-5.159622147509071
9.857514454989964,4.493032164041299,7.868092173699005,-4.019016039104923,5.279053292098346,-1.2996010267962943,-1.8073141933741168,7.497685197477917,9.913706218279144,6.298885191792111,9.634805838739949,7.359074403147813,15.117296174041416,-6.672025566220378
11.641218353922907,3.177047868016097,7.585388272437347,-2.653005618120508,2.1048872226908384,0.0901249441324448,1.5143704424606577,8.828052637875045,12.48990828559344,10.871142378813191,7.78518104930485,7.700529062743008,14.377436894051488,-3.868514740108118
11.55825765128582,3.250695211747172,7.203809006428867,-1.6865956591704463,-2.9160497006554635,2.345897585508842,2.796917047250247,8.14118616464158,16.4424668598231,14.3335544926109,8.42760045467898,7.35962274168012,14.403359020634452,-0.0347610222757309
10.005616121642998,4.31452373353912,7.256120855398284,-0.2135928420143726,-11.677634882184211,6.243343295150767,3.391389221807641,6.537002676652847,19.16671438073305,13.1441083780989,11.930801371137592,7.048765994764693,15.49105127117724,5.04889917455294
8.587079682396638,5.09599204471402,6.322673274395795,1.108509084835019,-14.629701554255064,7.554511673707205,3.1586686586232604,4.148027583470806,18.82963163176933,7.055152266563946,12.271125088433658,5.745597251346473,15.11117734653649,7.53811245522087
6.704103051304781,4.757948133465998,4.354206967749898,0.8224888367203796,-10.983265966495804,6.152512850876365,1.11420839801372,0.1888264391242667,15.780192858729652,-0.5059446238498833,10.0376979220915,3.0327190073457104,13.50657692899404,4.673723668054771
3.4100932654865983,3.603958350084574,0.5310512365002229,1.915999049422256,-6.429501081865717,4.885213687605338,0.4645413577247901,-2.331643188759261,12.123702414136822,-5.267613089213175,8.112552449431504,-0.6156876459320447,10.776562416811448,0.4976772051267819
-1.2652531682956862,2.419332637541884,-5.633296955020517,4.058948697873715,1.4897273957061197,2.822123243603052,1.001294755218061,-3.4638231285238885,9.888949845913416,-5.434855430273106,5.454246198379881,-5.643112276614478,6.3733968296958325,-4.967698593741466
-4.774707066165485,1.2452032988423118,-9.25906994352181,4.653546581843576,5.5875148293440295,2.3338544277332094,0.8750171797923084,-4.288308190632086,9.467205962187371,-2.483995081850834,3.4916864769707545,-8.870522203091872,3.5251578685359037,-7.582062806872029
-7.1324167804141085,-0.925320791339268,-10.35383126464777,3.496583341942039,4.964636872231958,3.927388494726824,0.6313981576567043,-4.136503273593094,9.65858260407072,0.931204888773693,2.6141724074474904,-10.109712481099452,2.2907750643017626,-3.167461221445219
-8.966497098208166,-5.023774537213287,-10.874909278407848,-0.0484204114495408,4.878808969231147,4.559434138187014,0.4272736350900389,-4.965119116660263,9.07834821364129,3.527936650578572,-1.311066384583997,-11.034751802820406,0.8034429586436107,1.17900109358813
-9.633206529203663,-10.459196085057522,-9.6805438947729,-5.44594256991476,3.453813858803118,4.828601376790575,0.0612199748713913,-6.899922619262499,7.451360953964093,5.840084631515273,-8.134153498947368,-10.838548481449385,-0.2143421905065858,5.483202430027796
-9.533164947308205,-14.944390919176984,-8.34126609792669,-7.523927790815438,2.1136203473188857,4.440569382984357,0.6497249094831098,-5.801479009846252,5.639317012612738,8.495209166574613,-10.161292095790415,-9.770113819410682,-0.2614334869012875,7.403398637268157
-8.517446658785191,-15.994461819398566,-6.917388909312307,-5.250302873773377,1.36939374227069,2.875411769987946,2.2619628174291915,-1.834001739663064,4.644901704634055,10.59966077924718,-7.657376097650452,-7.856080883283385,0.6044486155518416,2.275997056560007
-6.847653922002096,-12.82914248550495,-4.769102395540839,-2.299188815876256,0.6307833295590184,1.029644027571054,3.3944783383788497,3.654223901287189,4.7868432536114,10.2450794374926,-1.9326546461028835,-4.057665651175784,1.1263723717908074,-2.602837685753054
-4.548632637906896,-6.9805717955353215,-2.253331108001805,1.140867774925793,0.4420101987132647,-1.356075504657016,4.236143176477221,11.58706131503222,5.8061990777864505,6.690562194874512,8.893744406700003,1.6840857417854,1.3159646444207196,-7.598457487254243
-3.02509469068779,-1.1259783335817128,-0.4287796802351298,2.408108739702193,1.31545701532048,-2.887958370368812,4.595571943052272,14.506198409152056,7.487213433036294,1.837350537360452,14.052879589360693,4.941673811164417,1.6724100946597376,-9.866275626832117
-2.502390027379381,2.7310572364321217,0.5688549241414191,0.1803029891928496,3.472032607774818,-3.342683946676256,4.141893641276742,11.784784501487144,9.8475357991876,-0.7451529028529285,13.12899264824352,5.583391156585304,1.8982012902662784,-5.159548593749005
-1.1468050438200017,4.189747102413627,2.954485909150579,-0.4532234195201479,3.9210072775176177,-3.643753695544713,4.2075062279744335,10.821633941615984,12.620923708871478,1.4867369950348337,12.104282574467735,6.416604427089956,4.887617887631952,-0.1881324778803304
0.706387295733948,3.997844761894777,6.565070652529109,-0.1394876617015641,2.6494105590563164,-3.3795018037386493,4.695808219494116,9.96948934047272,14.766388266217644,8.062207342423964,8.420682124710922,6.414918832613137,10.909567755806476,5.825788695677208
1.161972757222033,3.0344892279989004,8.035503730949564,0.0226585774920224,3.5919358398352808,-2.8123349593221447,4.739587463997247,9.602564544454005,14.868354553999882,15.89316427449196,6.284065111793112,7.052679381523992,12.217372383461054,8.183297512128009
0.3380791740124511,1.809527337774803,7.541983820901438,1.6943545036120833,6.316747478968286,-1.9834633040709424,4.5533167445514735,10.868166949046184,12.337409292876892,21.4848079067101,6.328688624756044,8.678324562097108,8.965863171424672,3.200190452304878
-0.2603509684641098,0.6811229047767552,6.595427858112211,2.9937936215869074,10.211047743649674,-0.0816028704850861,4.498682403969952,8.966705476086847,8.310500610440773,22.95285841425908,5.269870167339833,9.994450939027224,4.64508153200159,-0.0551699075760695
-0.9585158980912328,0.1003026214694011,4.499644351699408,4.805811968118196,16.06948158726395,2.898519312924151,4.487333392027568,4.087779415148672,5.208611851814984,20.45517243663314,4.194316721013463,11.43292744510796,-2.4598293532935904,-3.1102323242635563
-2.3697850486228966,0.2918093421317562,3.8556302068705848,5.873806279280829,15.072554040396112,4.983361300669352,5.501623083528439,2.822752508695709,5.077850384864435,15.35586287723934,4.2194535705243,12.189268105891683,-4.348408510889785,-4.2679024724625725
-4.314840136172171,0.6680742460006523,4.96632202337414,3.2141687560707224,6.573775079523913,6.198651329365124,7.703680997353855,4.663579280997779,8.022374486814542,9.370630064058442,5.187132886018502,12.078776157092015,-0.1882954236402609,-1.5479685192489585
-8.36085553388342,-0.1663111423937362,4.486458053211316,-0.7596963784499331,-0.9336011903956648,7.283522893741693,9.129927416841497,6.49281650748302,12.081700768603058,4.351831867448963,7.101265273544158,10.4221143774876,1.4608463272047598,-2.345335064565784
-14.754025386595194,-3.463373840002318,2.942647403754591,-7.04699260213739,-9.383457148740192,7.774929153143999,9.942433226244196,9.558977029865916,14.71841658162526,2.23239564549146,10.235745841949216,6.83803721029231,2.359809861540422,-4.731298679530872
-21.32948175660986,-9.15337243557635,0.0275912907705937,-10.394605237194352,-11.726159508964871,7.778414898030935,9.061800881124627,10.129212622777562,14.701162603438458,4.376276307554011,11.631631058250877,2.1073138357300483,1.3398432021149909,-4.248271309805107
-28.43651694011816,-15.6041310194548,-4.915196885951166,-5.949182601125678,-5.984417102003356,7.2494375968381775,5.92557231404064,7.632816776878646,12.830664744599945,10.467515792325994,11.134386910842183,-4.106337030887226,-3.0798289143180435,0.403146777146172
-36.16684583990692,-20.726642959143003,-10.658135215357683,-0.4093604268031762,-3.629277709528009,6.426832775655369,3.56617372286693,7.096050909938811,10.96927368515163,18.015368831649766,9.092224814413647,-10.74823479770926,-4.809127564488859,10.464708963600426
-44.13269152130006,-23.56956222527412,-17.511328413425687,7.396562819972634,-2.823635834289352,5.31811001912425,1.6793789890597126,7.72027175508127,10.296198496710629,23.36899617270912,4.634769728425248,-17.69995968270545,-4.312840285991217,23.88113093848153
-49.586427627024726,-25.033690515977963,-22.654909894779596,11.88655286735017,-3.0536234887878893,5.285270554524589,0.4683424009513703,5.505757107049385,10.317348450626548,23.8191557674406,-3.5040086251687086,-25.699485078090945,-9.160127769115888,27.016648517906376
-52.06589002365954,-27.10041610977317,-25.661062245654463,8.023154181561129,-6.3479597042536735,6.5377907916125135,0.6059011240351332,0.9701141861453276,9.383952815416318,19.1872543929918,-15.860181505593722,-34.47461572558103,-18.75359344324008,15.894386485771168
-55.30553345357094,-31.249645529582665,-28.29179171600718,2.526994091935099,-7.481573711594609,7.424675245511774,-0.5722605178339596,-5.3430225624946805,6.074163568642721,11.52612852671658,-28.558312465834938,-44.3051899901538,-29.884534049772338,-1.0157663541445547
-58.63696957268895,-37.33141304199584,-29.707094205966392,-5.187102964179872,-6.844918588205462,8.278163258891384,-2.913605095209948,-14.24208901642872,0.0986427578759467,3.1452217114246466,-41.900693095648656,-55.26649808304635,-44.02826996718349,-22.659699790862817
-57.01286630854759,-43.60626498551328,-30.01284878820491,-9.984388814726405,-7.128685269011853,8.359015857030416,-4.467487943929684,-21.476408300499266,-7.977539336633661,-5.301258560529018,-52.96634086417561,-60.66758354500002,-53.35895979166171,-30.71436719378065
-50.55962456210587,-47.67447058947944,-29.215849673928837,-7.95892419069734,-7.458977561181267,7.326772116547112,-5.6631464457152,-26.89310213002461,-17.634845362735504,-14.952727520557264,-60.56368853130405,-59.92871631477136,-56.98422487700026,-20.19141848814145
-41.04491573328504,-47.545219652158735,-27.71563561654553,-5.574787588678359,-6.912835041380877,6.485320401596847,-6.345499310642215,-34.61104664933573,-28.77556182905056,-27.050232461598423,-72.32969977234288,-60.66323186648864,-65.61023771860812,-13.296977524012265
-27.275068543645432,-42.370952008197634,-25.54829043427923,-2.6995531586834227,-5.670177391237938,5.582448249640336,-6.188760197806082,-43.81088485451458,-41.11397271863276,-41.100430545905326,-87.56475063888507,-61.449217706052856,-77.7009214327354,-7.392495384238353
-16.449429719382234,-32.78961804758039,-20.53495408458905,0.1407402585688804,-3.3935954885185087,3.812716406063238,-7.857632835483312,-46.81961672532924,-53.32337691483648,-54.70558802041917,-88.75954802511438,-57.04558687805928,-78.53661245672882,-3.476238798808632
-9.130311087164577,-20.835558622312284,-12.584410279834708,-0.3117155071243663,0.1483335728253945,1.2997611667124314,-11.416800591287444,-43.52942474541849,-63.087860538151375,-65.21825954946868,-75.80196992394607,-48.21256838330827,-68.69067120146481,-4.809402495307241
3.472951029943025,-9.208465542695471,-2.3734939970081204,0.8952414478097822,3.263204501110601,-2.166121529377022,-15.155547319000668,-38.3114720524898,-68.32500549255724,-71.57520276177422,-57.53188694010512,-32.54620277612406,-51.56261837815968,4.521427285985661
19.9782849445277,0.0755495981540779,10.690174166675307,4.397226787086105,5.995249995673995,-6.773720118364016,-19.667768094453315,-29.362423531709265,-68.57017176135408,-74.52027815544906,-29.847591319803836,-8.695863636675517,-23.626387126346074,20.278730502370216
32.12165618749204,6.932113573388953,18.04643613159315,4.791447926672627,8.016151403635337,-9.225793587627011,-19.103401638356683,-23.328244122104778,-65.20232831762318,-75.09519881340793,-14.730799436646022,6.73030587903783,-9.38079259445984,24.76941514713338
40.70617879904015,13.25271704815158,18.966220007717347,4.047363671530236,8.85286909547404,-9.343808371654935,-12.721727186493924,-21.086692181847763,-60.24549830945375,-73.06307598147629,-14.581290177672663,13.433017711938929,-10.317242601329507,17.533787235897066
47.6423225977097,21.319258039612365,21.97007018007829,4.497952343466626,10.753798036758612,-8.876798928481444,-5.380576369388685,-14.536096776985325,-54.85884642755891,-67.01552127267482,-7.057866732418663,24.296576538634135,-6.004005517505039,6.657264917870952
51.20119470801405,31.58126778604076,25.14331495784493,3.457129211445489,13.590442788995732,-6.986004270448267,4.45748476529001,-5.125959725023956,-48.91007450945759,-56.18512488190939,2.788042561921376,35.876123686892605,-1.904098165388175,-6.459249618648211
56.07154475831295,41.647796401585936,28.695527969694407,2.5349496307044808,13.756436261546224,-5.9941079562935045,9.990275137425815,0.9580704617942832,-41.89659081161116,-42.16422628809096,11.864298011683625,46.50088456262948,3.9516538358411735,-10.496547204242097
62.32322800654689,47.61022879441336,33.914761945044035,1.4949009204097816,11.41672882884396,-6.144617604159397,10.064793144894882,4.486646298922277,-34.09139494455076,-28.632565423243157,23.13320060485491,57.63748103178529,14.317508174078252,-5.155239112248933
64.32767347938368,46.91078678516906,35.598111429947146,-2.4223796471352834,6.421344891036592,-6.043020998770552,11.968563505120285,7.902423699467218,-26.61110651771571,-18.97271652312204,30.54823150420889,64.13029060644253,18.77958482743101,-2.491089057679752
62.78213371519999,40.53029503868721,33.91541224320023,-6.421800684194841,-2.169421983603982,-6.298135856681734,13.9552159358279,10.093149421066183,-20.323650424680505,-13.671783544608507,34.07607208540903,65.6575907410577,18.13832936976909,-1.9664014136682184
61.29033910298132,32.647604800862254,33.6387469181148,-7.062223873170242,-5.596398581493908,-7.196012930697097,13.822057879559829,12.84166722212256,-14.836829881757527,-9.802607685382494,40.23306047242814,67.36263594358083,22.994424787807564,-4.323203819322849
59.04396707555343,27.904186695315097,33.954786561725804,-4.409876840370813,-3.528451487839771,-8.733037042277203,12.33917863808195,16.418323333472394,-8.788722182749911,-3.237395289327983,48.10972432104576,68.21143886101187,32.09868655885173,-6.9063967156731145
56.68169426156766,28.34442136671596,33.02165997325513,-0.6159828468721211,-0.683434737889856,-9.993381254319276,8.781847731280298,16.71058491217901,-1.2720912878003787,8.05592710623252,53.713804197174895,65.82499366488456,41.73388312701969,-4.706185708984153
54.85201610462051,32.35888599142898,31.533417484047675,3.505771783728206,5.057676016527679,-10.989026542219284,2.81596782814852,13.898673884217525,7.062557561070072,22.28439797787076,57.94350323390847,60.79780322052743,53.817751186245765,0.0444191613625123
52.178306544024274,36.31699222265962,29.586015967215136,5.183189625215802,7.638002579912471,-11.775258957183503,-0.2881066653742505,13.717817010111292,14.44447790181972,35.12734031419036,61.41318735209668,56.68526744589583,60.90471841311819,4.060558821629405
49.030841998635935,37.42325870031554,27.030680465345277,4.152756090560576,6.333414278831065,-12.10733094230582,-0.3464704128014234,15.71903844075513,19.60207849276562,43.06433278670848,63.53576448571278,53.47697875659399,62.22112821182586,5.224820436825018
43.70948722536212,35.46080752880115,24.18731403996418,1.9518365585040756,5.466823459369202,-12.274216148261967,-2.284985848323922,17.750705018240456,22.932667925402413,46.03615699611628,64.45526847213111,48.50823612094549,64.69655025746468,1.8550085924047317
35.893788758545746,32.1978829992683,21.06285840203318,-1.1599477987117703,3.467293264752775,-12.182143339775497,-5.04158527457501,20.95365185257849,26.012114566672683,47.25170493015888,64.06547868211443,42.52429606741839,66.60099362839239,-1.8585973544836796
29.5811128409159,29.311711967043166,18.00100345113301,-3.0312399148212057,-0.1323941975416618,-10.43280954018836,-6.336880887341114,22.673403088828003,29.947256497881327,50.30626500791709,61.5623845549901,36.34765050565679,65.5230305556982,-1.9496826470506845
24.53989367444877,26.875814380635752,15.12404925053804,-3.3896024131499902,-5.096002829377503,-6.898671252672616,-6.704924182130046,22.66269285041601,34.28391625504492,56.024593227484495,56.81607607234237,29.739449354564425,62.13756584563714,0.6901934535144556
19.07730685491079,23.71882629281868,12.6558754465788,-2.676368411245864,-9.16017216577856,-4.58133021503004,-5.861147973465774,23.16261198833542,37.5922280865261,61.66134660447651,51.041799623749576,23.2618244169492,54.78190784491414,5.940594656997543
13.99449932494896,19.059118311663024,10.78608331786872,-2.1193666116809977,-12.160625783303956,-3.32013680311388,-3.392088359206819,23.570088506522477,39.06702806645043,63.08439994224035,44.0599499397208,17.101597178609456,42.91328070925426,9.40625476528451
6.891151671011247,13.610075236418176,6.629504636872177,-1.7205126171382,-12.137497141715697,-1.7518452333226848,-2.025517403822351,23.37559981979513,39.398358409204434,58.06017518595685,33.7927930891632,9.690390524859092,32.39545681387848,7.71006470038728
-2.508771885471252,8.989932986256427,0.0657773785861766,-1.0436280982621753,-8.149089622731456,-0.4812997877695352,-1.7510749674664463,22.80052753922136,39.9512372105176,47.912523752836265,20.25921688120153,1.1201427155731831,23.086709211407864,4.926217508111344
-9.625547929920216,6.0628833894683325,-6.79173912195685,-0.4376596012938712,-8.61408497932532,3.4973076311789937,-0.5080843821545139,21.707171469045235,41.1260156552402,36.3206710986443,3.5809262545105187,-8.251128525600334,10.41088436369864,-1.100066356544937
-14.782212925667706,3.940743254708451,-14.59540737779444,2.5077471390169186,-13.30418926928276,10.538507982280974,1.1747086788672507,20.03683673854718,41.69568758293424,26.489448756913205,-16.81033459167105,-18.765841715545587,-4.562678581708637,-6.910426445304984
-21.001536792761105,0.6966198842063065,-21.087694396687198,5.02148087419808,-13.534786699835482,13.669843501620374,2.7442389476156395,19.080064804682493,39.92650042626255,19.19340969207597,-26.991132141744533,-26.50179460806569,-13.633875362606483,-6.848460765525783
-27.50590307794021,-4.862036464227799,-25.820534606813627,4.794511965255182,-10.601857498989562,13.191843414686538,4.420999041550629,18.9077436472694,35.40833308122238,13.221352360876717,-25.81736598739545,-31.145824237588037,-16.639985620002015,-6.626800404785239
-36.96585949273308,-12.00882549606338,-33.05390393359034,4.52735594372316,-0.9662226760200257,11.932510831054405,6.846724332777059,18.2218174546433,29.73755893317521,7.493393803339444,-24.9443939000851,-35.420984730313826,-18.001789862388456,-8.04527029128897
-50.076247530383085,-18.52887593028056,-42.36698067633278,1.5943165145717213,17.4458514491391,8.413230493420432,10.03363643312217,17.288705921241974,25.33530469208212,2.655149851637482,-21.03673955577386,-38.3436070349596,-15.730271218277824,-11.703653018551876
-56.81366203329016,-22.31285069465304,-47.681361059507,-1.9895134489963544,22.599863134256875,7.760647146168903,11.514883929612967,16.499365147488515,23.5564526768375,0.586551986628681,-17.75356090867866,-39.50510866144309,-13.16616136555518,-14.062169591433571
-57.25661698942514,-22.782526400503222,-49.30669261846042,-1.9355790412102565,14.344444835206694,10.466895983813838,11.233821073761264,15.68483534608596,23.90210127743169,2.363831089578241,-16.78861165995867,-39.05246698376033,-10.752509481317134,-9.343363465550516
-55.0651112906469,-21.16506256419763,-47.351594238722384,-2.1101041715803515,4.568723722747968,11.124198888018094,10.411121311851709,15.831024036044145,24.95593109632826,6.791393587870765,-7.961412186577093,-34.2090450608581,-2.9133184530067204,1.0431291455695535
-47.87869088610858,-19.60703885341404,-40.27806722016106,-1.2882245124489995,-11.680338193865936,10.8278205799895,8.44815301307141,17.065059369959336,25.92019538350569,11.122082050306624,7.93610272925067,-24.61291311246656,9.82630501976216,16.901441183375155
-41.54550051843911,-19.80119713448887,-34.1873618777902,0.8828848977567029,-16.84791182239711,9.266393646661482,6.985687266703585,14.349039071103933,27.136179982303528,13.421118363411663,13.536185499621906,-19.81246633663969,15.51020425443335,24.771289135051276
-36.35235668588455,-21.89219492097108,-28.875054583612023,-0.0544996978775233,-8.621196980552453,5.537017457267552,6.19127230769005,7.505916765810686,29.14787655098838,14.279070541898278,9.379590140724716,-19.811375326972698,14.15322831551355,17.92718855688544
-27.84716129482777,-24.216026328599355,-21.447397619563848,-2.6657995680868973,-5.608554511046145,2.513137596462563,3.477466587907899,-0.3898031780070371,31.40893482067595,16.039063365119844,4.153368859031817,-20.00042688185927,12.881493264980524,9.93687588846928
-17.26843455838899,-24.118997074082927,-13.132032805714925,-5.654349989530445,-3.705881974578877,-0.0614615005636572,-0.8934153300061288,-10.53110265289923,32.06755162227084,20.095375773621964,-5.852068662630677,-22.571205430502523,9.056297850002569,-0.8105436255733603
-9.920695744116246,-19.600926152907444,-6.308092723820953,-7.228698072366753,-1.6530637821991088,-2.1350024186420344,-4.142500378130651,-16.568341143064828,29.16218981682178,24.8558737008939,-10.052045569024664,-22.844378406427293,6.625169112307651,-7.912158608196941
-5.8196476858211375,-10.886706665866429,-1.0988485896558586,-5.216151528782554,-2.0973267608621087,-3.083139320304284,-6.552827686551411,-17.67335943956767,22.210212354772636,26.53622765216678,-7.009128860181282,-20.294427372319998,6.490729931155113,-5.300704990474548
-0.7859951057287103,-0.7696240678325239,4.282736614567591,0.4835310630858452,2.570643010571412,-4.888453204916235,-8.708553563571597,-21.000298359981883,12.83962802493125,22.30473359501285,-7.368514165715592,-19.195065592204124,3.85695891642714,-4.265025304406264
4.055348618794379,6.799028422533727,9.22592114742814,7.224150592514878,12.166830982094456,-7.396179246347606,-10.039037983720066,-25.085525894587807,3.953873114356581,12.926247597424124,-8.605259437783417,-18.473630832862565,-0.268179715534577,-4.088469968077222
8.47610667825225,9.112404127465592,13.083684361039186,9.159024606302651,14.494186191864754,-9.677258457532066,-12.972314574128468,-28.846140238615927,-1.9502514456753663,2.3554541066391046,-8.377598497741594,-16.620243740825938,-2.115025081099472,-3.316800763188925
12.98376097828218,6.433549536650551,15.937115441203971,6.428797840714522,10.206729904134798,-12.075654714707818,-17.609862826026358,-33.306244573932005,-4.175386247585045,-5.461896990979222,-7.926793793212328,-14.043324425919284,-2.025577593228385,-4.778319520697726
16.32781452296115,1.7509081110652105,19.139436250973024,3.245122870317572,5.636955740618347,-14.110490741602764,-21.860711420053487,-34.43825838801423,-4.094920536043643,-9.66047500918766,-7.001590782896249,-10.785762383751957,-3.527982607173868,-6.762729762174123
18.553153948601903,-1.2569818478463448,22.666447957676365,0.5286883178125126,-1.622922595334569,-15.660504085343684,-26.222896266270705,-32.04036051954493,-4.215120291642947,-12.582309278257917,-5.510496028970344,-6.611688537448176,-6.075807617377598,-8.00747979468384
20.789770378737757,-0.5292091677854662,25.533276087224163,-0.1540667275347794,-3.8652059350408496,-16.97774119219399,-29.81312162939456,-31.919293779671605,-6.63121846931932,-16.946841797125895,-6.214795887706439,-2.635565395654727,-7.567935200546524,-7.866177291219609
22.851861198850724,3.3904472264640013,28.008372101341497,0.602358277156528,0.138071156417191,-17.899808679214562,-32.24217318065543,-33.47407382458641,-11.801244492753334,-22.86837273331952,-9.33309408055049,1.1315897060984703,-8.482653235826145,-5.373308416249093
21.816927379541667,8.099791239958897,27.343932648032464,-0.9393262000049756,2.1690897762750128,-17.52984544022128,-35.247120739921904,-35.953095705481545,-18.353645695481,-27.631913131270053,-11.581890278787068,5.52977882655499,-7.401436152455206,0.7764503380187158
17.597475741335973,10.926636876922966,23.13262664809893,-4.215057478448362,4.135392717491846,-15.748098213234703,-38.55971900073077,-40.55710912986523,-23.98998383909524,-28.43003117186416,-13.518868061884888,10.337161952530645,-3.836062280459233,8.84220738635697
13.893779936483718,10.15392750726942,20.76696951149975,-5.187862344403625,5.312224655669796,-11.81784376083296,-36.17785197254154,-38.11911943399559,-26.829467425259157,-25.36736210326181,-16.58611387304455,11.917926269901624,-5.413120941469041,12.954079975194
10.207818392326864,5.414284453129335,19.810649522548573,-3.5717150975143057,4.462373521727749,-5.335700021678241,-27.80047695943487,-28.141733905723477,-26.30621291566488,-21.740642145826577,-20.338390027643303,10.006621038508175,-12.26295027535281,11.878763451786266
5.89979697622206,-2.390590420019528,17.467536347662147,-1.8976156818140864,3.5598422813298423,0.9315159891418638,-18.035455902693904,-15.989221017242317,-23.167433123329907,-21.199755730448405,-25.40132116143645,6.763312069125295,-20.247141261313413,9.588778406957656
1.6545958627422297,-11.257434734744765,14.696110100404534,0.2869157414160799,1.9864777995207223,7.1414067614164125,-5.488042311913673,0.5882122596497442,-18.84942746056293,-24.408332509401827,-32.01586828648839,1.228036658508336,-31.13265312157507,7.412578702229096
-4.479210732838342,-18.519965533782184,9.57305291789488,1.024364803008276,-0.7139412501512024,11.22927404059122,3.1779932413582155,7.625711430028291,-14.857767746137169,-28.388331829948285,-36.32444792824072,-4.914143848673369,-38.82368944227652,5.269650701336932
-12.514398146542767,-21.942489357028805,1.642004386755707,0.5349829266800101,-4.443666805959688,12.314293283588777,6.792466706608949,3.485924262284525,-12.496780314996364,-29.291177648418767,-38.22257533036499,-11.443085701707266,-42.54475343844109,3.541277984527861
-21.297703245991453,-21.15135520995703,-5.541536225126852,1.3286920647763667,-7.477024590146287,15.655635610881252,14.834203082561544,0.9377788219848168,-12.77065537246144,-26.157790052660893,-40.64534326178161,-20.199731513202345,-47.980155416507024,-1.903451407944504
-31.234034962593714,-18.22772676324111,-12.36772679810928,2.053516026362376,-9.737152041823164,20.71988779187792,25.80487926193164,-3.455175011408949,-16.11968589433321,-22.24362639212378,-42.76339791214623,-30.819118938926444,-53.64267269412275,-13.048676793269188
-37.74794384031974,-16.51866716889301,-17.896950480758573,2.1320511633933044,-9.974473162422496,23.55438611194913,32.79180796485345,-3.397075340902728,-22.00902127448799,-22.58579124952484,-45.19666623961576,-35.952299265929,-57.58555315139997,-18.58365708566384
-40.27623081679926,-18.24339378260853,-21.277848987763704,1.1382547132443694,-7.527575634889983,24.88397157612449,36.83612647816853,3.309571719186428,-28.81134036355487,-29.77778688041574,-48.35512867426471,-35.14137542631498,-60.320316995043385,-15.01425674035763
-42.97999684186762,-22.83609158911298,-25.75317766348493,-0.6969737709508481,-4.886886723616564,24.736706897795177,38.78524332591367,6.660934064969037,-34.381500926551745,-41.47804387975455,-50.06036076836691,-34.02279385666382,-60.76627520597292,-9.980235708748936
-44.70047425087511,-27.555526478942618,-30.92532397837585,-2.094602203997141,-1.577188597790702,22.39469148972672,37.31061913319508,8.490000148647512,-37.16330188083246,-51.72128424176376,-50.45784452773199,-30.835669904756145,-58.48899299675804,0.2763898602644719
-44.42772146311741,-29.82958691388769,-32.65341033656656,-1.9979534580219345,0.474177890131479,22.56269164629495,38.727306579199066,11.196970204119154,-37.10121030746647,-54.97848821078031,-46.10616617797491,-26.12387712455289,-54.10947439518444,7.933790072839321
-42.539161579131154,-29.12244171706689,-31.15563230512852,-0.7851387473001047,0.6711349166164268,25.35675452909772,43.21340362586516,13.366968881224238,-35.613170152319135,-49.77379385905809,-36.141367262795264,-20.50039361152958,-47.16401005413263,6.594733463516324
-38.352083586971695,-26.641850836574555,-28.29092426742039,0.313611309117651,1.3699814058639477,25.77827012819871,44.33001375494898,15.457139201340611,-34.52467543497059,-39.17873702183026,-25.812302004584616,-12.54746491556314,-39.968408560425786,4.7140734501911306
-31.674642047761346,-23.468692175127966,-23.194291915618717,0.7626778232529254,1.9540790503056087,24.66668075507203,43.22769308011264,17.465724423754875,-34.68334611189201,-28.065568370162534,-14.207064142500746,-2.5404448030188185,-32.650924598057635,0.2567175783014359
-25.88745536131691,-19.28394341139634,-19.947076091898897,0.2229666869068927,2.3953012408586245,21.013346634744455,39.34216232075885,17.409791295259822,-35.28674150786988,-19.48078410338896,-3.4257719810074483,4.48226244676367,-23.55885329541432,-3.458206723126641
-21.0547801447096,-13.083790345274576,-19.00794627672437,-0.0837572987887442,2.9731406826763567,13.795259803260302,31.472105534274636,15.147483466848952,-34.46299901878267,-12.99137552856939,5.4016991618858885,8.21481993096882,-13.224026029989137,-0.1106295844492177
-11.634787653126612,-4.993067623029834,-14.80987673417286,1.0140703869298586,1.8859655931378816,6.953597103371916,22.91929707892731,13.740603620527605,-30.690436228424232,-6.110321250603018,20.5641066755468,16.491910276232947,2.972678366360891,6.951410120381831
1.966068624111959,2.96863555281368,-8.147426762543189,2.835936989657964,-0.928526315790276,0.0660280426245056,13.232955898850784,12.866641850366882,-23.98681356682533,2.634361444860456,41.72258965923303,28.51841518793668,25.661465029532565,16.366221991508137
11.215162439855757,8.198816744006695,-3.412264347842658,3.438849542507401,-1.334160868909551,-5.251350042827122,4.401851133564527,10.508465898121964,-15.982556460777456,11.75679521536182,50.84150901896365,33.483552504444084,37.32366120018333,19.47729265793472
16.55523599441472,9.70010270078469,0.0321688141632167,1.4124262208125749,0.5663462364561536,-8.013689306130578,-2.7547411249417646,7.127542429327877,-8.867631051198593,17.80507382730196,48.1461396658299,32.00647472686892,37.78775735536615,8.433613203553712
19.55056472459082,8.994438815533538,3.011971822520053,-0.8968493837499273,5.670472910660734,-11.750500676353925,-11.877650853832275,2.390191801549264,-4.0448934151902485,18.53890736882066,41.0356041126657,26.70004454785099,36.28223845414936,-3.3822070444098458
18.20056480946571,8.87643256915672,4.7057798232257175,-2.6933287753612385,15.170320509115797,-15.82912219950864,-22.3367919114414,-4.055858471029212,-1.4613950642517892,15.476616445558683,25.321156014431565,15.114785678427983,28.770065802845377,-15.461925972603163
21.77876366294212,11.190478944951916,8.339692534291606,-2.906331913861043,17.2252955277268,-18.479484360369423,-28.913402157742063,-7.001395670676391,0.0216366950126634,13.282629053797764,20.369342264561745,11.580901321345912,27.39628310286171,-21.435620750844816
30.55821405509037,15.609709498267105,14.038522770256678,-0.8200583262235843,11.54375172268758,-20.10411900935638,-31.695370976684195,-6.18358859770957,1.6490944209499148,16.103322557903866,27.8721687310435,16.938407718458166,33.69141479562646,-11.898612299354962
37.78553868160674,20.30422741233157,17.784795095757932,-0.6183741424123818,3.699013001269421,-21.47865524929346,-33.597994643231104,-6.977282595666338,3.949194253694589,23.79582724094112,29.50171920063969,18.05987353104599,33.94175780497017,-6.03194243345631
45.43271413952439,23.657596944272026,20.104067322992023,-2.3927316429883847,-9.170823057190375,-22.38648316705537,-33.47739963380808,-8.339611120399605,6.561746954006903,31.44487565123612,29.580674112135917,17.98348147836663,30.832488884435836,-2.6564908072929314
48.14372969293771,25.45005337453404,20.884254370452915,-4.112073611750698,-13.689614604254494,-23.11859697571179,-33.74347192974363,-9.204051682585844,8.672596570770441,32.95299027975448,28.62593599259046,17.228349874464904,29.162267366330155,0.7908237949513579
44.60861457791767,26.625436026019077,19.29145576869552,-4.637818158544692,-8.561559019911371,-23.817672448057195,-34.814345790549446,-10.362863675262696,9.643672401214738,25.93694689925657,24.08861437923449,13.93399373299742,27.176953026472944,-0.825814393888641
42.90533323993965,28.05358079113032,20.183103819204785,-1.3872726643314213,-7.107830814330771,-21.376582998231804,-32.22590703036361,-8.061921417541198,9.417922017801924,13.843383150155487,24.065765544424067,14.330827705612798,26.588347387582814,2.9996883262212863
41.70533211643857,29.46224897319458,23.57628976525302,4.9091377805822045,-6.337050016453053,-15.628608479898086,-26.38105561034866,-2.019276208798866,8.518249365596958,3.441149553604431,28.281071816799383,18.284553299599573,28.042876844834755,11.936941703208692
38.450878745991815,29.459976827886493,23.619114201886703,9.627055290042096,-7.025239600427352,-11.970031216251106,-21.091030200070676,3.2373113058297585,7.739595879871381,-0.2212101220581388,27.687291320403045,19.39043696702642,27.95003458670956,16.484932262006975
34.32849614768048,26.646251680121043,21.04427402490204,9.282341651231242,-11.22631287744177,-9.99549511454908,-15.743913544315504,8.42006875684627,7.795732323445888,2.822124525127373,23.35146638126036,18.576150823393785,26.708795436724944,13.297641527900783
23.830054081813543,20.925285127354694,12.503616415200776,3.920210474474976,-10.099479008253216,-8.657684684486188,-8.992240829375675,14.207739837478352,9.146622448064944,8.406809802018167,16.653510333748127,16.556729038848697,25.251431704984736,3.4386975232695827
6.286145979786839,13.929176677842053,-3.5716571320117576,-3.9552951151050126,-3.986410129860521,-9.12486879477288,-1.436802116722551,19.818262334715453,12.0305170815957,12.31423975757448,5.791437055200706,12.13063970041088,22.923205227736823,-13.0776505674726
-3.320968441482849,8.092520021005905,-10.376277223995483,-8.877947446480047,-3.450878598131884,-7.310881202983239,5.792066676813445,25.54584606612351,16.506607412997383,13.679525640202652,1.723077308829106,9.30231723365436,19.942551741839495,-22.74929330358821
-5.32267476665074,4.981552137832269,-7.981431062339623,-6.125426984719766,-7.387652980847061,-3.148764011431152,12.641797394007863,31.19804856621706,22.307601333798964,14.836773688681616,4.985079417591985,8.04207919269808,16.23861115555551,-15.255689694741934
-7.027394012957445,4.152872951613352,-3.345787480070797,-0.0753176615574837,-11.67776434127784,0.4004910606733965,19.82441235458842,37.32479787170036,28.56092928131234,18.130491502944096,8.458063914712007,6.975277161504869,13.618696980527917,-1.814607305767976
-5.201134419446416,3.493828132601733,7.419456822863542,4.473378256609824,-18.248233397454644,4.163684233957894,27.03825796702223,43.91956279357778,33.74020558247656,22.948258744622198,14.708650643966015,7.01240373826709,12.259629468675431,15.329498347253368
-7.275070673396304,0.8609854121815399,9.490321304160986,5.6915465583646965,-17.877515824707835,5.517794897348041,29.877141766374265,43.90264504014602,36.17916130657866,25.84211585518612,14.150846564815708,5.094853265410025,8.820860567767012,23.813379937607145
-14.236629047915642,-4.214008038232612,1.602044798006317,1.310706066892645,-9.508286510788796,3.836207826020872,27.91295658439796,36.68712771236884,35.008149129708045,23.613582767840303,5.28780284480383,1.0398049464836046,3.5635065084615336,12.291391277892004
-15.87136978189211,-10.054007961185578,-2.786978264283813,-4.637789334358576,-4.797572905668734,4.19364113457077,24.920598394092547,28.127182473078257,30.83815372392166,16.482495398384952,-1.0290875361381646,-2.7251458186117965,-3.563276281532221,-3.1323534010050667
-13.6284973468534,-13.941903254117882,-6.995521732527724,-6.421969617756718,-1.8420516144733368,6.056721815074557,19.79360873209006,16.502827190539357,25.51342065749258,8.410526443935955,-7.109640046386689,-6.871168017557393,-13.345474491688746,-17.882836928103796
-11.890919093944634,-13.952381094942895,-6.731715138339509,-4.255695521482467,0.7939018948656427,7.377715910076461,16.40865931782812,9.51119475008759,20.942962524425408,4.208120558931331,-9.098618220795837,-6.591158060334674,-17.3299480230815,-22.25371292143211
-9.114169741473551,-10.197580988612724,0.2734731157858923,-0.9084443207423976,1.1196830002862834,9.037475772601166,15.57378609769603,8.580075177594091,17.867253068440775,5.848587202777711,-4.939045369617862,-1.100001147210464,-15.097138953845468,-8.576245225670455
-8.99136432005562,-4.710899887146248,2.450585898849413,3.3273392963616337,5.841980483481902,6.080911438004476,9.39459726632048,2.229059269348051,15.583041662199491,11.019470767595354,-3.0222820458271697,2.528680718112642,-12.170415576005038,3.905889058220828
-12.31888214128532,-0.1900913444798959,0.955081571198338,5.006286245142656,15.006400074718576,-2.099039428069185,-1.4432171604041064,-7.827494167215327,12.868567273245866,14.995362316954942,-2.062852048747743,5.333216480640543,-6.542078126763997,13.077723591473728
-11.881269121861685,1.5128075327069652,0.9373524986927062,2.548397815241046,17.86663514457507,-5.748706789684858,-7.542595019808306,-14.582839580635962,9.271284811022994,14.215556202904136,1.0601454917221995,7.452663767348712,-4.044283440886984,15.00121245018486
-8.355771958815932,0.2859692892517245,0.4429512492203862,0.5740791836974052,15.133800063392432,-5.560908638303593,-9.724276946765722,-19.49528614096624,5.57208865344488,8.732988176407517,5.139967828251294,7.54382818786597,-5.663592234548556,4.9761429586431
-2.5018526691153027,-2.337187410626939,4.676708999469578,0.0348392436483507,12.894249442989882,-2.403727949812376,-9.709115361491332,-21.12628873776549,3.004968142961012,1.8030567303218772,10.763393735951128,13.04266529005916,-4.565421282918318,0.1302536163427226
7.205060227790756,-4.103093184537258,14.558729804582455,0.4179506147173938,9.16526151898582,5.948621191175205,-5.472705411412398,-18.11359512012593,1.991841015200265,-2.7888173813462416,18.237855555848665,24.035302609536107,-2.153883626004492,-2.391832349666449
11.959841507414206,-3.315379282159057,19.173529348944385,1.9347133115605384,9.515746630964912,9.044900867089604,-5.05839883041144,-18.41948315579518,1.6196075870214486,-3.42190148747207,18.233636238185728,27.93235167203819,0.7838606967151287,-4.605539626526977
11.481318619037785,0.1341097501733443,19.293602101594423,2.234704202415828,15.129476166409358,6.803217383461858,-8.660383331298332,-21.749816323359664,0.3916418607291945,-1.3520237209133512,10.07497226128724,25.51283857770333,5.239304011107197,-2.7568404762071546
11.922286894688035,4.537022612773029,18.705868147773334,-0.0890558686401556,16.40395436365437,3.664678518425706,-10.710426501827898,-24.189708616969117,-2.4033336629056663,0.8137277140574355,3.023925337437855,20.33887031926692,8.918213782928625,-3.1351429353014173
11.353920445240355,7.229053613503737,15.218661440593356,-2.896728429483666,14.498111031144624,-2.7919390979713983,-12.911064639044543,-27.341069098514257,-5.925803759885255,1.3595885400339114,-4.956597292950718,9.691078485695504,11.864348960470242,-1.9680523786330288
12.74791603666743,6.259788684714053,13.659077741664834,-4.2176232285692485,14.5110552179085,-4.65269801315741,-14.0076680512577,-27.996356058602228,-8.304344264524538,0.5157537446672151,-8.453298954015542,4.0811721412907,13.318289638757022,0.5556637020429671
17.024455569388014,1.942958078605031,14.3726552718519,-3.87995196292726,14.9873143976068,-1.2408991837428405,-13.28784090488095,-25.626456467846136,-8.027666064993703,-0.3578944563000092,-5.501698359698874,4.07603659372449,12.628361130765745,0.7584030103144158
19.25963888940722,-2.8605996628667825,12.660857161879834,-2.204894962220238,17.162710799579273,2.1295462894399284,-13.16267535437805,-21.856718325163627,-5.126915063957142,-0.4322230332859931,-5.412890768132318,0.1898498379252562,12.129368884256843,0.375959477228438
20.216986143526334,-4.245686119109209,9.491447878919908,-0.6895096856239724,21.819156976098466,7.407959631359605,-13.20014367698336,-15.72588784238446,-1.2992570041566864,-0.2277472581468629,-6.598874825775391,-5.404546425701577,11.478783163363529,-1.998878917886909
22.36876423158045,0.1978756704893385,7.495244048197718,-0.0959156415749298,20.69621750451688,7.524159769202089,-14.082338774795764,-14.577330643190768,1.062819359003825,-0.8662535818039885,-5.342802484920621,-10.071010485851128,11.672339606498143,-3.921024580031804
25.064923151999256,9.545899435755077,6.19183649409089,-0.0977745988961098,13.66957122713449,1.4014896807686636,-16.277178568662197,-19.05062906505966,0.270151114837688,-2.651879931100765,-2.8799916193076145,-14.935886730778847,13.242660296980802,-2.25731655539636
27.176995433654472,19.88763406189589,4.809005888700052,-0.4017867293929008,6.451144793106025,-3.315376024579562,-17.106213233773623,-23.30070749321589,-3.665678001610573,-4.548819145357726,-0.826772519525388,-17.072857330885462,13.749016783924276,-1.3187709837772472
28.947256230431123,26.793841608636345,3.776354079390113,0.0517326273262816,-2.725058084583989,-8.348794070206958,-16.732229304763397,-29.10802372716848,-8.956931680813625,-5.143990385459716,1.062440209134388,-15.983094055781626,13.507735081730775,-1.4387704816696043
27.017471484386284,28.12383211398742,2.8102574933716244,1.0372433134158323,-6.22493401081188,-8.420000758856698,-14.408246872702415,-29.44513903644974,-12.917838820826432,-4.07709692356417,-0.4899960171064287,-14.93595586120442,13.373859797039348,-0.2989429558418929
20.83344750731022,25.01678989532568,1.887650232675705,2.4739560738778037,-2.67207783652846,-1.8713571652558805,-9.419809191398064,-22.992663475525557,-13.37172063082474,-2.396608277185805,-6.191974309515721,-13.213755357781126,12.955114788322811,1.8200421997697136
15.199749066835734,20.35952880352897,1.4860122965675548,5.324814040250727,1.502032806111204,1.4516262008491534,-5.869306892406457,-19.30050350613867,-9.85340853777764,-1.4520141996907086,-8.85594311357834,-12.23020754156243,11.459014767775498,7.226127585423243
9.3632115790489,16.13293168987586,1.581474706498798,8.332930702271897,8.482332995993636,2.883649933451478,-3.569311358820549,-16.708203716154582,-3.8597915822789446,-1.5294336704246945,-9.05466533744508,-12.616386194266216,8.834852380127161,16.327753179784484
1.5505685883265508,11.947825900344782,-1.841116461793826,8.281561296138731,10.268197222106842,4.12198009980192,0.4952602912818979,-11.597073609531176,2.133098677765574,-1.7174406970347889,-9.637537550994098,-13.9798123767853,5.305356722627912,18.40325665443989
-7.526940809458586,5.926224864649669,-9.075675708513794,4.9091070575632525,5.54002080000808,3.4148103963849428,5.622830376206125,-5.267928656662416,6.329663090031332,-1.1184116673488518,-9.23928064715134,-17.003876050075466,0.6240101079723634,9.696347696568903
-19.319799117454327,-3.066411192340624,-15.683307147244284,-1.2007455673425973,-1.3339950391088675,7.053380750694824,13.891979512785582,5.656722148249315,8.746926152205326,-0.0090231558462932,-9.247299875188846,-16.73855752572105,-2.5034910976089475,-2.0600199563548083
-34.104127929143644,-13.979224782956225,-22.5030317435997,-9.23623072689491,-12.80239082448053,15.224024028544498,25.97158856238137,21.87490679687263,10.84789381656082,0.3888806865166643,-9.85201297471873,-12.98295045970524,-3.879047305099632,-17.940198658082377
-41.76162190605751,-24.18122449955807,-26.56955644883181,-11.933236958681324,-21.013500016548072,18.609216693094723,31.60820600467083,30.202564109610258,13.888738315863804,-0.7070309456564132,-8.441539251324807,-12.503043312853045,-6.671009892479155,-24.024536648048137
-41.78275487352116,-31.398369171923378,-26.823545268986877,-8.192323211707873,-25.39001536362008,18.041754735895783,30.679172256732777,30.569091250920067,17.423838476713897,-2.655335924810174,-5.182326313465608,-14.522475861713025,-10.3442742214593,-13.80990870960569
-43.90520865272676,-35.140523112839574,-29.88370793047033,-4.7547569129134,-29.32470942083661,16.280866021106203,28.91819968428441,30.95895720141132,19.4477412989132,-3.9301878849950422,-4.820136892213224,-19.57239895594669,-17.21997402861339,-6.486993637885796
-46.012832430980886,-36.46352805966686,-35.03327600373878,-0.6151649457560767,-30.7459399787948,11.478345239343666,23.99777236546096,28.484624217138105,18.206495431254996,-3.6065921850487257,-7.213901712617853,-29.15491194819544,-28.11219515850837,1.8114549343470137
-46.21759012810866,-36.57585655741983,-35.816115085232425,1.6571683098199037,-29.62196679014146,8.862734447845966,20.549240592725955,26.596548340466725,14.01099202749782,-2.1702744527713094,-10.009357768602865,-31.126490420687038,-32.818863261460564,6.747019464821703
-45.82850694148208,-35.74658475352764,-32.96826583200114,0.1479377758010988,-25.69391222742897,8.731044562703982,19.325870967596284,26.241307827075243,9.178464850910004,-0.8155764694495105,-14.223681210979176,-25.207280378324,-31.38117330647258,1.816130045371156
-38.81799938028872,-33.41855980657091,-27.12276751531924,1.6448809026677274,-19.738371032629075,5.92914343241041,14.832729838393234,21.66957529099593,5.948609707754144,-0.1098503163769422,-16.349349176053487,-19.7873114949304,-27.492677212215657,3.0619604266411478
-24.68483777183305,-29.144057930843587,-16.919130909901924,4.763976764885622,-11.583426453574887,1.4787231327806591,8.126946510862103,13.665266997627851,4.294988921782085,0.4014197801696433,-15.938041961467931,-12.230551062167438,-18.730416800899828,5.639944294938771
-16.434539917654753,-23.277075614137047,-10.952819475677812,5.506073193811558,-5.721146242665127,-2.0240836920860548,2.9302681084920725,8.654801869465738,1.8386858280351743,1.1838903604872932,-16.011346308131106,-8.768144286607745,-15.95053400784174,5.032628021203879
-13.487974254740204,-16.818801038386482,-9.54421966997815,4.959323928756901,-2.7219650865955627,-5.162633601215408,-1.2792769897136094,6.176256783751785,-3.884676150851666,1.4997917372139202,-15.686691342459923,-10.880561193089632,-19.927380603914525,5.710413139669087
-9.03799300543289,-10.747272521624794,-5.529721806487593,2.884441838416396,1.535991355685934,-8.173856693616804,-6.937565224319403,1.917402233686164,-12.887526655275144,-0.4618981972995186,-14.335096496803088,-8.890753690081144,-22.91652342940583,2.4911269684998727
-5.681681669044658,-5.57924473472403,-0.7051604467428518,-0.8991935822429783,5.898481587719068,-10.639023641300854,-13.499568233827894,-2.98889218563867,-22.349598911313567,-5.967635362565363,-12.216104330350316,-4.275055251348407,-27.49870230482928,-1.3951198191041014
-2.8311366654620707,-1.4980237030698778,2.1948174618507696,-3.313811649631813,6.775694863424842,-12.252164749699396,-16.996925388913713,-6.726054522280228,-28.7816695126537,-14.161895178381464,-9.6386172484061,-1.6738112614260574,-27.68094120969245,-2.431456550362878
0.0306000341528612,1.2977729801238027,3.8608482923199055,-4.226044028598004,4.27074080113512,-12.836320093953782,-17.418167378342282,-9.6928335993923,-30.72253886004668,-22.19902144129239,-6.565281231762262,0.2419275696840525,-22.179738637915538,-4.073264015694815
1.0376343218811708,2.581795203182466,4.22071150507943,-3.145564357643841,1.0389412172729495,-11.657908178880794,-15.971022433465844,-10.615737568489182,-29.54861209739157,-27.14952432870401,-5.099090863425904,0.6671454835554274,-16.58320317079749,-2.055516783789276
0.3383243415252739,2.5305644473308604,2.810545149600775,-0.5047771082491066,-3.648463176692763,-8.435336163723731,-11.634131660221106,-9.029015384933558,-27.85868595669571,-27.99938533076424,-5.533865107492756,-1.0936962755975324,-9.170777410084693,0.6378332358643415
0.6469332778348781,2.0899892253232792,2.058636145554737,1.3077447759880192,-3.940625223790908,-7.028380645070151,-10.506387527182143,-8.687699968744829,-27.12500895092717,-25.94762830771807,-6.511393122848675,-1.8700067004164584,-5.792149263562069,1.2190944000965922
1.827415329257906,2.657135733952238,1.96187038209172,2.1778262113957085,1.0992420070335742,-7.459649981774515,-12.971567968652622,-9.37349744720602,-26.756745790339814,-22.857873979856663,-8.648113716979976,-1.89698549366066,-7.5778841109989425,2.955525322228662
0.3319744585696438,5.056611481333277,-1.2358786944365014,0.6409399149240125,4.400294241444246,-7.970184474581284,-12.94896788068482,-8.587603217510745,-25.18213890689413,-19.503143846736165,-10.678591520336145,-5.405874137063515,-8.595214518490023,0.7144449688825862
-3.51334629738344,8.605533893805543,-7.262642346710217,-0.8119948211369726,7.378016609450913,-9.46244886780608,-11.696765122065036,-6.981057644605049,-21.677973317617077,-15.368726006541294,-12.456366551115057,-12.10824033522837,-10.441339543869212,-1.7984833977036008
-5.016684558540482,11.259534652018743,-10.122678770258656,-0.660704966765981,6.991893039221323,-9.162496033254394,-10.551080052646832,-6.170738490129015,-17.189699135028334,-10.109775948813391,-13.41927716328502,-15.74978163105832,-9.50672295995672,-2.0434495165175504
-4.5113970685594245,11.041365008061206,-10.098345707143148,0.568655302499778,1.7943122445289286,-6.806742534576936,-8.677606242030066,-5.982838621795647,-13.51520907479781,-4.969928439522448,-13.099031954500058,-16.720909583029584,-4.717233166890884,-1.7421654093557315
-4.043210073466376,7.746513743336379,-9.886778239921926,1.4611145861254191,-3.6409605954743274,-4.377892877351538,-7.805027823975017,-5.959666139871363,-11.73794539623634,-2.404847903951861,-11.564366930754458,-15.214626423382873,-2.074445179151979,1.7025418800210517
-2.6806474931944115,3.439549821459096,-8.230906613372154,-0.7540284789278473,-10.457229654997771,-1.1924676520759914,-8.068420997709843,-6.438845009564946,-11.336602543151573,-3.9695862444385455,-8.390719291113173,-9.704390472465246,-0.6436439254371595,4.256203772982162
-1.4883659741777158,1.122096854682468,-6.673179719353947,-2.631447611092125,-12.705671302023122,0.3667328480438381,-6.585714463548921,-5.157868424134503,-10.666475657893187,-8.43535112116966,-4.461643280968885,-5.344398035602135,0.8422904759501085,4.1988195113999325
-0.6343429845688192,2.5247374879606355,-5.425585670018402,-2.253087421480389,-9.20860062837392,-0.1002362660625668,-3.5842154769095345,-1.9399257948266624,-8.292750680312196,-12.129230528627916,0.3763025311851501,-1.8666826739646651,1.4114387348735795,1.4303892800219469
2.729740346333956,6.8149911763570685,-1.6703514211384445,-0.5220902940383818,-6.208990188069962,0.3431059291450535,-0.5440700452501753,1.7923852700946914,-4.018660631734235,-11.507744770421256,5.006038679202523,2.0858081728822584,3.514787420813392,-5.642764380308794
8.545223759656533,11.276612753160322,4.386462043476163,4.580853130582351,-2.060312360707923,1.1334176474280695,3.0556134192865487,6.613110705379,1.1603763611777254,-5.8584290745433805,9.171580161442003,5.428843530464596,7.249025044788647,-12.659114194364108
10.49789958527486,13.344188182311228,8.073776129394549,7.480055041265661,0.093049623143296,2.200416287977418,5.913196472708875,10.836358699005414,5.97044190250756,2.166804210289712,11.7481582214522,9.577476773528437,9.469943102590715,-14.004737454327024
8.696278240347354,12.299366630433012,9.57456368686099,4.3817609983589385,-0.8319413097264048,4.021551924196682,7.76579558744205,14.224754965450009,9.748975478182729,8.583021790293742,12.167456576271062,14.45228800135088,10.55241860115946,-8.813018345798355
5.003654298948069,9.377681903026373,10.964563859822556,1.1061518425520689,2.004823061896313,4.482706769021816,10.318380349243148,18.051619637414817,12.58694901057629,10.898864894509472,11.975477453081954,20.750614006357345,11.479867925189042,1.4992684749969112
-2.101613743338685,6.459501977503635,11.2409748782286,-3.85662304233844,7.882714100795181,3.59293246486963,13.25505968723451,21.8657516527758,14.791668396679114,9.50338868546811,10.679685853407523,28.846317815497493,11.689077223145802,13.044576082863925
-5.174564816943396,4.58447941607605,11.041261255039949,-7.31012680090866,9.488868871769776,3.59441496532831,14.766702202398262,23.19711914932639,16.366122030334168,6.836261609334912,10.698218740275395,31.03953497144051,12.852028888242709,16.881126052558223
-3.7886360309460367,3.427649741270784,10.450257554772923,-4.70619046376078,7.530006239559893,4.151563212675349,14.953480938013524,21.880690081728957,17.079431242405576,5.407641339646716,12.406944605620565,26.943047226508444,15.11292733160457,11.9363845884743
-2.407731341233282,1.9396620313198696,8.540747433112323,-2.886668967504163,2.7663667438847392,4.6565624294000685,14.33231613305559,19.509778708526028,16.993356602993316,6.33655810425995,16.21287946345099,21.269920659372467,16.30743736590788,5.920234820729823
0.7720246407719521,-0.5124875588606699,5.398504986079208,-0.8662356307108339,-6.406860642148962,5.485328129639254,12.491128824552517,15.440083239323798,16.7568853716528,9.193467996393878,23.028488361463225,12.140007720026432,16.73850210812142,0.9614912942639392
2.407500309662908,-3.410804555299393,3.886954075561569,1.6327044584447694,-9.40205003323256,4.73619152235798,10.893923392923757,11.261284036025012,17.155487299389506,12.689135214685336,23.794212706562703,7.791278407883863,13.970443803336634,-0.5973766441429358
1.9498376693710893,-5.312146926610069,4.093350878533085,1.2308576265306983,-5.7987424148929625,2.2417356563780624,9.606095563980777,7.209250993653524,18.1597023922146,15.316676455019577,18.229501385299077,9.304681674828862,7.324360794277828,1.9782808869500603
2.2958069143458366,-4.934365681410867,4.5172823825683714,1.6419713201484676,-3.3989498815825754,0.3236390276554915,7.17713942581325,1.802630683663317,18.35516056736489,15.592185002131544,8.304257817928354,8.549691294823567,0.869092799228014,0.9549130588751132
2.574988007896552,-2.3546311279471013,5.861884099490603,3.015306924172425,0.1325568696269772,-1.3911816311852818,3.887091831711365,-4.559888751639178,15.518455932715767,12.260580270333463,-8.440126157357378,7.532124126566364,-6.033594122552752,-4.485143147110925
3.374881717135201,0.684632387429815,7.08607752175242,2.6515879039031947,3.810459937284144,-2.149834536380424,1.2815440348309683,-8.101854148716507,8.229968801500206,4.907363559389012,-15.503913819419203,6.5885686676673565,-9.162385628274524,-8.392914769735494
5.047509655997653,1.864223240860952,8.0665189445645,1.348377554567065,6.694237213091094,-1.4435288676743376,-0.7248999158736336,-8.61218294757035,-2.561018552278881,-5.222376801303767,-12.0508717345522,4.6648508616034405,-7.335743452687295,-10.364897712993036
7.081058937962198,0.1397974369156429,8.138488270585357,-0.2490790341467362,12.986489904964342,-1.819709563351346,-3.1512417753738693,-10.480546255794886,-13.356237385819725,-15.02574374401891,-8.613641047538879,3.2323634969510024,-8.039342632400146,-11.09781562423582
9.748510317595905,-3.1481465799780324,6.903294558175472,-3.401287080606461,22.414194345642432,-3.056207192857716,-5.704289070724518,-12.959868160522138,-19.804188536337875,-20.62676892072318,-1.280466007200233,2.0280890833826284,-10.214110865781006,-9.82332142153777
13.943483618569562,-5.04088591628593,7.915389854845649,-4.853837828731503,23.703003156402115,-2.996013325630586,-6.822108808193987,-14.026351698307243,-19.317976443137383,-19.388508163656116,3.9670226092932688,3.870466383774764,-7.816176783100765,-6.840183020514104
19.786159395258185,-3.184817786099785,11.120968287812458,-3.0546830326880228,16.67327160435398,-1.982146977551916,-6.466709697456278,-14.268228848073038,-12.75862403115515,-11.516604043756786,5.825711119628738,9.264173934155908,-1.6665552743277483,-2.660819530084681
25.402931534215845,2.3058293758266046,16.664975642671813,-1.1255846346093543,9.046660121492014,-0.5146994220185284,-5.145740089557721,-11.972328476613272,-3.866216099990538,-0.0088834878487205,13.31139187925035,17.4709740989689,9.380099283360265,3.6509336482008874
30.9329178040912,8.964272342548895,25.511164982080743,2.2658716472059046,-1.6621546248431998,1.774987675419626,-2.43780846779776,-6.695282331214923,3.169140814728649,11.046919585988462,25.109550476854505,29.48185061188686,26.7188734743664,12.851812697010375
33.30862035277063,13.941947435952756,28.69541086305446,4.440715247264383,-4.591670963385152,2.139610589099,-2.3361609763084537,-6.48183982739976,6.1334465626322014,18.520475088305155,28.99132671919417,32.112060006152554,32.91102313509939,15.862090666069038
31.773181198170096,16.064387258065057,25.88289903063026,2.9485748862710013,2.118119830205428,0.3504710173014159,-5.152262176871462,-11.453302315114144,5.462037853120741,21.23066877094313,25.4193840275115,24.385633541930808,27.240988645167462,10.808373294965888
32.08664135698293,16.248968685937307,22.890993127041348,1.9391499346953436,4.37784089027006,-0.1811343496627233,-7.476831235472283,-15.479934269199314,3.0146466113151438,19.638859249957264,18.46262179138415,16.100857814461985,21.20459461018141,7.482757511690396
33.55547341265356,16.183909638235328,17.6553124499672,0.5907329045977578,4.73295938003161,0.0111829382440327,-10.238245987412286,-20.23802635665064,0.3790283671300842,15.121114732074345,5.310187826426973,4.053818441704249,10.74551667446047,1.962426877794809
33.156127636176635,16.706628412798544,15.94608909987399,-0.7469508630683263,5.732125764655035,-0.0422187588451567,-11.625101901503973,-20.646980013642104,-1.8080413778621605,9.604120850800673,-0.088176610334404,-0.5094104254117533,7.096041015867483,-1.5980056390522503
31.76407612049932,17.33167210043267,18.79761591031031,-0.3171432373843204,5.219613439743696,0.2016693777608872,-11.03765435316694,-15.424631393732424,-3.3653603150475035,5.347435908364076,3.2638412110717607,4.447279962585973,12.29323757704274,0.6563623849139266
26.562501190469497,17.07397324523626,18.979726283784693,-0.7876153333516782,9.797597638155205,-0.719105609217415,-11.01861785744279,-11.441562602123788,-3.9538311586558015,4.17861022654759,5.390682470586631,6.696389974097998,14.297676221797254,-2.7493136098986386
16.880054326519705,15.529133055968146,17.863046680225303,-2.1837229517713856,19.74875634559916,-2.942087830838175,-11.021843681453817,-7.324517996102527,-3.2445180560950178,6.2755874846869375,9.6206653717625,9.150376080523907,15.998638180024567,-7.20383850763799
10.448132178502346,13.171260615992452,14.68590637232622,-2.5902898711479434,19.550491427452627,-4.018318489586831,-9.71376680823334,-4.456953603739251,-1.5959662338134135,9.67415339651444,10.266408404337692,9.502349736902309,15.14776986362643,-8.258181713068034
6.929137940982479,10.756070276852,8.169432490669644,-1.8467384021912048,9.520560313199791,-4.159612109722064,-7.331876546768659,-4.06789386799031,-0.215955548846324,11.485441530058637,5.886088142675532,5.836898143019769,9.875307945730874,-9.064528462277282
2.886780919997631,8.532867035494831,2.5642418683210497,0.0730564181925009,-2.0428690647061254,-4.974077888872442,-4.220131543781769,-3.4003668261236197,-0.3144011790354852,10.186036498862537,3.0017544728170105,3.8146859183352007,6.004896028611573,-6.340623064482921
-0.0855890309151345,6.011214277687571,-2.572305575258622,3.710678270467204,-18.44916662930769,-6.066863218502977,-0.1498821002865774,-3.1967616710411506,-1.920706610126416,6.986383691787324,0.0188656389574419,2.412298507701295,2.571297399536999,-3.236916835911969
-3.699911854468309,2.462661325888746,-6.360742616004852,5.980747684059855,-23.886973991467794,-5.176505771074852,3.741990004475816,0.0386075003821455,-3.5206899476013405,4.874896835757568,0.6833608718813626,1.8965289421470424,2.313622427937356,-1.962844419724188
-8.20387817809605,-2.276227275021256,-7.828526105171423,5.125870881119959,-16.272040629338726,-2.3062291392483494,7.361384389386144,6.9595922905168,-2.95552388990194,6.095965439998167,6.236042051010129,3.212191559443444,6.512199347498815,-0.0839648791419531
-12.272989945077589,-7.386188186430559,-10.506496587957674,1.7548590302417673,-13.2509678004441,2.340721734009664,11.944640901331304,16.40926125226182,1.1100193484754186,10.357944464779564,11.079402231619843,4.278907441294716,9.209245050360892,0.9175540556272836
-16.319488701964353,-11.48936423834175,-13.976879167244675,-3.7897154306079455,-11.164852256396944,9.394623905762291,17.25670418800106,29.588655791760296,8.281266821257361,15.341733915311975,16.323220761892614,5.4492199579107625,11.24629385584883,4.307824787193932
-19.53707806868392,-13.739091945977409,-15.338294177144084,-7.095320180742904,-9.989272842742704,13.01992239311088,20.581238406410257,36.58756419012271,16.663258982355558,18.822402836175343,17.819077091534403,4.886625103149727,9.165107452252618,7.519316524878091
-21.71743995572662,-14.736557875181347,-15.000322495666724,-6.142458487658264,-12.493073335355865,12.918216296422962,21.84734303911668,36.776192726897456,23.901008407509494,20.25739833229568,14.258570314012568,2.062581358598249,1.4760133593229523,7.069289552122871
-23.39385024354572,-16.33880906343802,-13.705063140629733,-3.3549974904299638,-7.378726374350067,13.073061371160366,23.33468797471804,36.27312108389175,28.260768719849807,20.46373726431796,11.94433560914838,0.1657975718560561,-4.409232986202268,8.746953704546067
-24.294996316240702,-20.216296946474245,-10.928761161721814,-0.0801379383685325,5.112642195104673,12.11504876105616,24.464101809044468,32.62205199580332,29.1791445852532,20.07619703587875,9.665329682824822,-1.2763071075101495,-9.50947732077825,8.428341512723161
-26.74738786744863,-26.201321333983856,-11.555016988212165,1.8474744336250384,10.157593931673766,11.432699930663974,23.77050158472971,28.77444919909364,27.166382933225805,18.635791682865037,4.481214678904616,-5.182844847529383,-14.554429378964624,5.160841295244195
-30.97588425221352,-31.92970519348808,-16.014966404183117,1.1494559150066213,9.137057513911335,11.492517240545473,21.40948628641981,25.32193550532747,23.27696455884154,15.27823924365032,-2.8921741749465943,-11.25294202034248,-18.18806323639424,3.020141509082901
-33.1361343335629,-34.3443698883807,-18.234961054766263,0.3523678304317821,4.15175379190651,9.997541559641132,16.683130860848003,17.843222198919175,18.463731661527163,10.12339867888295,-12.068701629324137,-19.458048657037374,-24.00231234690194,-3.071602324809512
-33.60133136028189,-31.976683025096463,-19.18262918692437,1.4653748401892115,-7.967054093660814,7.304219396673202,9.170397426249025,6.936232022881314,13.137521458296192,4.647913095749118,-23.48152292748364,-30.46486492222072,-31.84523584385201,-10.214075329888509
-31.63828629078131,-26.079480319076765,-19.703840273391144,2.2470160423918664,-11.668444238771867,5.27369342093589,4.258886819420404,-1.2287231969969694,7.18336059515957,0.4274447053296626,-28.331753733410803,-34.84566902849926,-33.111271649107906,-11.324305821524886
-26.315473244098047,-19.58286081199867,-18.75227515198409,2.390178866366143,-6.505702621398425,3.677448330047385,2.074246282198248,-6.88950676968362,0.4563957225307149,-2.506639391561293,-25.81942418819128,-31.988437449086437,-27.77398528300517,-8.678899991249349
-22.97030120143821,-14.756492387216326,-19.97924813004928,3.1289752393984096,0.0447236958475048,2.18772106388768,-1.3685097527423278,-13.168079572417136,-6.596971383433584,-5.83636646647426,-24.564471274980036,-29.718896516973228,-21.106106384200658,-5.42256722455438
-21.43221244852344,-11.63112768219753,-23.445820625641115,1.8495858670215453,11.687981361540004,1.1793299532981834,-4.914778291946647,-18.761721249955905,-12.782183211502115,-11.183364112255047,-22.5476752334881,-25.877475310338657,-11.212412833415035,-1.614017632282745
-18.90144677730754,-8.533821154689122,-23.65777569218181,0.0340355278320885,16.202310088753457,-0.2685238422343352,-8.863595441155974,-22.91029627489001,-16.80257869478112,-17.999957074412123,-22.09911458620058,-23.841030817297437,-7.451027978678207,-0.0268005306309313
-16.448095604130298,-4.138590031116905,-21.061333305493825,-0.5616732201511633,12.364518471356083,-2.139374694752423,-13.700180165064564,-25.67996518986497,-18.32522990769985,-23.33541980233872,-24.69012328178828,-24.894279026065103,-11.183315781154224,-0.6198337983033112
-10.510729010353236,0.9632393392068934,-18.35809345996266,-2.060004475767487,8.432959278657322,-5.421667433259961,-18.28227277383793,-28.00706385834995,-18.48784942690565,-24.033819122511773,-25.736740659379144,-22.254321516332062,-13.343273524139589,1.8051078179566376
-0.5392345566786455,4.710404289934104,-14.54101723746928,-2.659696454540077,1.2994064781807262,-10.449012451042291,-22.79987333975857,-29.752382015809932,-19.122428085944648,-19.52524542177605,-26.167534423409613,-16.804363332086062,-16.31413132064607,6.553816924509502
5.849313599559096,5.648172066775487,-11.985811087582029,-2.017911705733646,-1.486746541640768,-14.1583545372539,-27.26178679726951,-31.47929227877933,-21.109330698010808,-12.64105772409107,-25.103707260004786,-14.476623448614074,-15.42645049506792,7.879064678914089
9.13522125214422,4.63582219298678,-11.141623530027935,-1.8345887382051032,1.3409920778861109,-16.701411950814858,-31.47893009973062,-33.432293276255265,-23.321180853420287,-7.642318329173349,-21.76519732496508,-14.540332021249633,-9.076308112842966,5.413099526250013
12.472587807202244,4.434675445962853,-7.148243958858839,-1.4210559953886297,1.7645753944841225,-17.755189877331016,-34.62775662085955,-32.465886565302455,-23.38112341651015,-7.20440973787538,-15.244004936074743,-14.793622538955992,-1.9325492116804028,1.718034046609069
14.346926188572246,7.382268322113305,-0.3821889967303645,-1.0854042378349205,1.657419576854368,-16.528409861751847,-36.52686906498631,-28.547501922500928,-19.8506698460958,-10.913918853067116,-4.797777996917713,-16.29908309794156,7.640273301468127,-4.600361446352475
16.29348685335293,13.236664795123488,3.208250706578099,-1.0477322750307547,1.5203403929557704,-16.26072779134937,-36.81423953207129,-26.45266596763068,-13.911064999409064,-16.204082745673873,-0.2898099856008626,-15.39954995574033,11.962630189244251,-8.063885465810362
18.514095091890702,19.24007894810518,4.1398414028292185,-0.8955662605650101,0.2806673767265721,-16.750617027018798,-35.109250529124694,-25.78254894688601,-8.784531648934603,-20.400447735148877,-2.021165862768888,-11.672857395738175,9.939875844490643,-6.364358102699839
17.56702197820421,22.43731519840526,2.236450843166778,-0.4203933482630261,1.2489768846517058,-16.95456282670571,-32.74537065974005,-24.41550023941295,-7.15999746687794,-21.982236582242532,-4.438199259594233,-9.299640845092409,6.863640182885636,-4.227162541247096
13.574445520177578,22.15051544026801,-3.9125374923367744,0.3796031280112406,4.38102618203749,-17.523304718207292,-29.53279876568909,-23.244830772276703,-8.881660753320375,-20.55624166414077,-9.875800154566422,-7.491627969969937,0.5736007450628064,0.5778142304930537
12.051551031902408,20.337991795498056,-4.968301404145098,1.4347116678541734,4.897810914349504,-14.941929513730884,-23.378458553747123,-18.000552590010596,-11.062597709550571,-16.48888995102874,-9.29021967626847,-3.900035626833529,0.5082745315744859,6.196841568183437
12.67877557425502,19.561263142154985,-0.7997784319961001,3.1368231336824266,3.1622411399216137,-8.917558371502057,-14.315500166554866,-8.138665437275717,-10.54820630095287,-10.968912597901635,-1.53697972078805,1.0122447627972024,7.84227323778448,8.779021221211083
13.642325895854944,20.530218403687456,4.241131774433363,5.238368541755773,1.1916166085377342,-2.592163374756465,-3.090612217785717,1.6633438495090491,-6.439360438299275,-6.01779984151284,2.0706815495135595,6.410333979157628,13.003731635465586,9.419563228452692
16.127176461974177,21.508066771269057,12.338080832976466,7.359535720229086,-1.9431105108236544,4.83471270545807,10.796772472586516,12.391920447367086,-0.4076462581624582,-3.5716994978033654,3.4525049862299992,12.639941697240918,18.227674388266315,8.185405406746133
13.508826826038977,19.998230334563573,14.6653743364664,6.864522869048994,-5.497274860202345,8.076807580682907,19.11221276299909,19.30935946851529,5.241838736552722,-3.980940597991548,3.414823387178369,15.065539533386984,17.892866117563454,3.263913362820242
5.2573413529051365,14.991034466617291,10.344275390341418,3.556297650467976,-9.341072109330868,6.177935109333109,21.082468494205163,21.202491857585517,9.65842214187353,-5.552359035934501,0.012144497376891,13.151482054930032,10.062283427311153,-1.3563796315785874
-3.72751277049557,7.685827286329072,5.735010834567127,-0.9326751906567792,-14.755315834302042,6.866131851606889,25.2283999221118,25.54872274509686,13.64050874188638,-6.133288715573997,2.0873339584024966,12.9268969709437,4.890796074406918,-1.9228041217523728
-15.048858109257283,0.2191470406722828,-1.3861613855046404,-7.144833898391699,-21.63149272235775,8.944291540761501,29.697394165610007,31.14113713632785,17.975331447151063,-5.482432716498693,9.75569714133182,13.421420674518318,0.8436429316826466,-3.2327204577574404
-20.119070926768824,-6.191056043704549,-3.216778799497653,-9.357755240170963,-23.760127868029738,11.374928637100592,33.4343899283739,33.67128774344735,21.860680388018125,-5.854911833891492,12.12073818746561,13.743419099863914,-3.159086821711227,-2.7996486597355483
-17.617366804086497,-11.913733849961773,1.52312332831276,-6.683849160872352,-20.793780824827543,15.49405312938912,37.63072030507141,34.050722997434704,23.174690568368447,-9.73214000216089,10.51963999632892,14.915634748506085,-5.342146316836491,-2.2995270554407345
-17.19681013316561,-17.91530508738896,4.544421466536418,-5.632150743262846,-18.18210560134492,15.530664013475697,37.607419971865134,30.47673959709546,20.41394545903557,-16.698623862494912,4.371487830542475,11.965854422477005,-11.16442933099388,-10.236849339211084
-16.760611722945857,-24.20494716441232,7.812045303041505,-3.633851283918423,-14.539675139050614,11.306388169100073,33.18091915436796,22.0186166861056,14.42849930773164,-22.772442893178265,-8.674601736644513,4.670634501203386,-20.54911448318039,-17.639082327298027
-14.653258038843529,-29.21196105082271,10.190414207635673,-1.5931170949754483,-13.032090220019583,10.07377317877924,31.358781875767946,19.40571978477352,8.269335034595997,-23.31630842308417,-10.507721453120624,3.7799369019165496,-21.51618312190009,-17.438306314738863
-12.157677671288049,-30.65876036741807,10.415133127176654,-1.5677758545519305,-14.708964826200184,10.918934545876098,31.498861261600155,22.747466242329168,5.214534500009904,-17.021275869174985,-0.7060478785269292,8.924003701661453,-14.239543783946983,-10.151960883649698
-4.175797811637357,-27.20309790554913,14.03508513680142,2.1792877214406534,-12.221932188634138,13.412956188194784,30.743794443715345,24.730155751235344,6.604919724752769,-7.167364876042939,9.84564160065288,16.97743829192459,-5.708825585774582,5.812424123948019
9.646651096834283,-19.55193663149277,20.67188805002264,7.377241421500215,-6.238210015807113,19.018312634676825,30.39205862770241,27.632682505841224,11.128898593141985,1.101006946538284,25.243773162079968,30.41527069098414,6.624082399536171,22.658939350927152
15.167291360364592,-10.21640098253967,22.38655784378612,8.505825859586452,-0.7814091578184199,18.72986177504128,25.31876018456605,24.978453299326056,15.86630265362051,4.915790178499851,30.21129083684746,33.80684235564437,11.931783508381551,25.74297952556889
12.50467351893654,-2.089862769747782,19.64572510019073,6.528064594630783,5.368442521397857,12.2923376811266,14.905248723770145,15.35236960502674,18.08808188456397,5.438988983910777,22.475692627098148,26.081025415159747,8.582832980500518,14.841431884483002
9.601163628371948,3.1773404896640827,14.97256914851824,2.648668276614595,9.346497773205702,4.92525403888432,2.92489527395364,6.068894350539132,16.568801325457233,5.9465413772236815,17.914630189693607,17.640210892342296,9.452032320317649,2.3484180845889084
3.387924305069332,5.94629087511305,6.646779596400177,-3.1945634785080324,10.393401706751249,-5.440512000648156,-11.965747392267456,-4.6395411770512025,11.864688568161284,8.516444346415263,12.765955930668971,4.72615169486853,12.01171660367201,-9.07825344278861
3.59610015138017,8.04195130103227,3.2899875644612337,-6.474837964644063,11.183272493953698,-10.06791570632635,-20.54245893043128,-12.024986581647113,5.751372040000788,12.573988307539809,10.279846701111312,-1.7278799576837365,13.10851480329382,-11.515117599236453
11.712230155946422,11.292459082389612,5.538291522343969,-5.740061053758812,10.810130637686262,-7.784168855339494,-21.591127888348787,-14.61849669250014,0.2404278837046121,16.219774820335758,12.998055427756418,0.1310894858651195,14.515601556442167,-3.669067658056713
17.092946405094253,16.138582948871488,5.956155478136787,-3.2673886193963075,11.170838078074665,-7.8711552789840225,-24.03978575544837,-18.024861822223336,-3.475364030263762,18.37671433077159,12.218973670743551,-0.8811644534637701,13.523395382249303,-0.3780145780383053
22.08124378457155,21.257609055753026,6.482279567391341,0.951449204476732,12.65972099584225,-8.257775020075147,-25.587193417113845,-20.73159387863206,-5.721530141816615,19.37445126165601,9.235958132306406,-1.9625614319981803,9.862759162753628,-0.8472528481664833
23.520611363099068,24.49532836614945,6.305628532217516,4.64173998771081,13.120448256757376,-9.388833325622938,-25.846528721556705,-20.45766922888123,-8.131117691806764,19.77127751703391,7.756998312596927,-2.1924758575119183,9.23836982507537,-2.4525209492390245
19.50284237907368,24.502112638959005,4.3902680418134254,5.313426312823745,13.046803945886952,-12.680703437169123,-25.916068550127303,-17.611568546169607,-12.326953765161164,19.28429803738254,6.575478055822094,-2.932598776771631,11.404811121541911,-5.4588707129482055
17.102946108522236,21.881455205924112,5.280699589035465,2.995870432854733,12.778936209713809,-11.99884384064946,-21.078569353756368,-13.178259813175051,-18.23981262018566,17.31811573764014,4.745662732979874,0.0323017202165318,11.269930815985706,-3.0932599438223027
15.182484031148316,18.8596363776432,8.715362008742355,0.3525282287315452,12.046258819748951,-7.549223227177402,-11.26040985702334,-6.78215847116212,-23.51210932789104,14.369028956834654,2.582492092001708,6.746836609517042,9.758741793250907,2.999911132181521
12.89133008964106,17.518994399144475,8.792135041475243,-1.5993793948071453,12.63938924783166,-5.329444602393684,-6.207966368976517,-3.224289106985761,-24.89258706086221,12.282769363285697,1.3690225841613055,8.860734221403515,8.783409876872613,6.496121317441048
11.391118669499797,17.878531328624916,5.982477272674315,-1.626995548559692,14.706519917709164,-4.417290980872313,-5.608682638478619,-3.079925627395485,-20.82996361213597,12.596984670541817,1.0959359515871514,6.660658865459226,7.627485712676568,5.750902118696139
7.0663393706219,17.516999826528945,1.0630571535798743,1.115032259661633,13.269899361156824,-4.941728540850628,-4.112403736456848,-0.3596279432078325,-13.116174468178317,14.611890448610296,2.891631745480145,2.5673917136543145,7.874105077320864,1.2464929176559505
-0.0836680644901242,13.40194727583517,-7.286259473046708,1.612769249709303,8.391922042396082,-8.08327550952058,-3.722935795467801,3.8944674053847295,-5.925712121546667,15.544953794361874,7.241629976213006,-5.348563612968326,9.8569711945489,-4.843121841419643
-4.940830545533832,4.694869594940542,-11.952117446881209,0.150824542245674,2.614356054066999,-7.759728478147194,-1.6768170118927637,5.53094937166891,-2.7858683267737376,13.102563487518864,8.097151481054537,-10.015257595237868,9.877695556207572,-7.451094260913254
-7.940280383526255,-5.84957772723871,-12.715519093782012,-1.6097380823984315,-5.156199404822315,-4.012108992553376,2.6839188502654654,5.183127663281363,-3.944242937204507,8.102303800494553,5.428847610656733,-11.11243371745412,8.15740507127942,-4.079289147008417
-9.975684784084123,-13.410456541069664,-12.415853899019504,-5.470166351862936,-9.90318689333956,1.175680236057522,6.655195114887609,4.362511423575269,-6.374052956739774,4.3616491980871785,2.893094377430806,-11.067295916504978,7.23812151124331,2.337143799280273
-9.950406412123003,-14.640254316980531,-9.284238247248355,-6.671213093376141,-11.017412695269527,9.229223316839324,11.017563384909629,2.3724933516887594,-6.389564757182853,5.565055407079683,-0.826263223732484,-8.050437201963698,6.484696573904793,8.643450471953503
-12.58251494024209,-10.376213375949334,-9.342865469786926,-4.090984520481779,-10.952718145710932,12.71602572330308,12.84182869121008,1.6637625300330396,-2.6144621368775063,11.776433071065355,-3.6236831783198102,-8.662910169631745,3.0199149867094843,10.38271033916858
-18.00310004081408,-5.15242432912126,-12.989799562712896,-0.5936753509830406,-8.256208591543052,11.12526858028902,11.542795314489718,2.544740406174672,3.117950370677022,18.743777721671336,-5.007961227594141,-13.2074701748818,-3.090817852406816,6.301313758542732
-24.525074936682188,-3.796144388954872,-18.04839877885485,3.26208963158127,-7.424325252662943,9.569276431077872,8.514708282619095,0.7477266701050443,7.430789241351874,20.715937614030395,-7.773563033134257,-19.31367138358732,-11.473574751855418,-0.8453888822265321
-33.32363398854039,-7.903567869432351,-26.13092145531727,6.038505453271407,-8.752117032724462,6.26194396631556,2.780899499808312,-3.334705213220998,8.012534458908391,14.523450448882755,-11.39742010287138,-28.679188159303795,-22.889517157013213,-7.855961994335337
-36.38650638114921,-15.050502613332869,-28.43539646447116,5.667084913297113,-7.311270365920563,5.224973530312045,0.1224117347551262,-5.3457566546076745,5.056842927109159,1.8074540103275751,-15.29795191100898,-30.900758827667303,-30.01073787529165,-9.656447934545067
-33.09163435899211,-21.137120002288583,-24.38259843706961,2.733170770925009,-3.9582598473597854,7.265363131815199,0.9417652205063636,-5.796985621388886,0.7094056801260251,-12.05321946353186,-19.878882406481587,-25.224258498223463,-32.40909673401174,-6.400097467181666
-27.953649915225636,-23.59894642924334,-18.806177733531,0.2022317690722197,1.733997536888516,6.794713775507487,0.9492226425164138,-6.7128509049018295,-2.656290196101992,-21.30440888273029,-25.817380198637206,-19.294746621917568,-36.24565399366679,-2.509145189596326
-18.887201451692885,-22.762652128390783,-9.476456632461485,-3.1377089817743355,10.690966375494105,4.744934188989961,1.5108222916144076,-7.352325243546393,-3.8994332149111415,-23.134473084435527,-33.2260728730492,-10.626567165546266,-39.88820452520883,0.8187606095249181
-13.98196629596126,-20.622321339624666,-4.3933282688287605,-5.199369963495584,12.802016372478564,2.885254669339602,1.3464085025305306,-7.494591898072913,-3.4651658454582304,-18.97577458746609,-34.598214296286464,-5.427847775692843,-39.23677883869593,2.320356027617708
-14.120084658710509,-18.671438418159823,-4.4389073415367415,-3.893647306340595,7.634767725581637,0.3975433279987696,-0.0824556927556599,-7.286158637790802,-2.736955766388917,-13.186025586355996,-29.43403573019994,-5.031497970884601,-34.64839405383123,1.5690860817367942
-12.148819327092006,-16.91102746563466,-2.4448360266307945,-2.002398686948628,3.4743135720345637,-1.0176161439015674,-1.3962817375118557,-5.018591107418968,-3.009772920970562,-10.013002174157762,-22.329410789552327,-1.3312036950127597,-25.95520374405635,1.2117932337005686
-10.01017483995377,-14.579329882693145,-0.3196518394494985,1.2507603975637291,-1.8689903949502744,-1.112234195340824,-3.0567123545161463,-0.5035174217294133,-4.680621965250296,-10.78287458797888,-11.370136175872842,4.118726715949977,-12.117461526266286,1.629644216733166
-6.139408028304566,-11.366489290768952,2.3498383077004847,3.9984193777646966,-3.377306249112064,-2.530061761645546,-5.122050144184304,0.9311251681803552,-7.018476373240901,-13.261043996957511,-5.178825996601856,8.038663951332616,-5.414115272238437,0.630123775927347
0.484401519719313,-7.710679165293072,6.489497845615925,3.934219598042626,0.5230629319556974,-4.962007469889228,-7.499083172201787,-0.6827624368743648,-8.629271896418913,-13.771833994344895,-4.81852066527355,11.418973278641507,-6.485356063449303,-0.4135040875300347
6.938396225177019,-4.123633872260974,9.452853191826142,3.368026326457763,1.3380711302979154,-7.662366979672234,-9.155843541714496,-1.7214173223869391,-8.411738113310271,-10.527484782657028,-0.1222260644175244,14.84416642049885,-5.701082308897449,0.9449224510581816
13.853933057642909,-0.6526523040804975,11.52375436681144,2.975774095397989,0.398905910172649,-11.108885874025155,-9.970550640191412,-3.2807217405070417,-6.432011140466074,-5.375002866915558,7.0176547775835125,17.947039492036463,-5.83448283938336,2.1324217812035267
18.01342232672588,2.7585152061484166,12.530986011276802,1.823819423804543,0.7444722318144811,-12.152909096713932,-11.185348355507394,-4.445005386848422,-4.037158520232431,-2.252632641688244,11.039538477533789,20.22357587577532,-2.8520603477620607,2.5775889208868263
18.67216917080393,5.547996951159007,11.918444580209163,0.1962764041895736,1.134599719558267,-10.51925109453832,-12.564639183809408,-4.726248618179177,-2.9669938030774574,-3.5198835420400947,13.096998758435763,21.622117962648037,4.75377996328738,1.1684385495760232
18.16521579036616,6.582997204952527,10.835841862514233,-0.4134248773881837,2.1816964191910446,-9.225363658135494,-14.152623080278143,-7.080684601576626,-4.017487672527579,-7.4637085941265475,10.834340606592171,20.00456054117734,10.835394998324082,-2.66901567760618
15.433938533061312,5.214242016342581,9.049346120198717,-1.918382374149424,4.155851421146953,-7.562927465581807,-16.162592478634945,-11.327618697190896,-6.290212245954736,-9.460601654397395,3.0186256816153554,14.962976485413003,16.6246084364522,-4.952292893792217
16.059088879192473,2.251800703446385,9.276639557029071,-2.9516952057847945,3.038540957892739,-6.425441144866198,-15.466286440571842,-11.444921150657231,-7.69756730327412,-5.96477122717743,2.707423898866093,13.782521804254658,22.60642686201693,-3.8392415837922025
20.632606958552923,-0.3541473153972889,11.96127931827026,-2.0354229576498613,-1.3149501929637786,-6.335343067553893,-11.864927113986592,-7.517139557753579,-6.389051241773787,2.260698684230722,9.933322362823109,16.377795973918133,27.87681059963908,0.1602623511750218
25.046117793900965,-1.0087066476807305,13.236827521682622,-3.551139028402037,-4.850187479258998,-4.443358680455783,-8.283320072930737,-2.955478897156488,-1.9835428549380416,10.708883478699438,17.282243974048292,19.128626057197344,32.1926281969827,4.171110175872728
30.732361157606405,0.2969156578008398,13.710474667263886,-5.112539589738335,-8.348095709566836,-0.9724257253094756,-4.040748095449719,3.539657375784934,4.332448797387047,15.04806235759997,27.61863962644901,23.640112337518023,35.20607268012248,5.509500646277122
30.975584016024136,2.247716354064355,12.484911791336431,-4.408759040285764,-9.827484285365692,1.2738138978676792,-1.0504663004074533,6.766187561560606,10.789393501811732,14.80208036944843,32.329510646026726,24.378189034921327,35.958237226136184,3.014309430373976
24.77552551149836,3.6345470972697456,8.7490358415842,-2.237968676367148,-8.398246926932899,2.655488549324732,0.0668738168218309,5.968321094638384,16.15512463268283,13.40621695440013,30.082103890475462,20.66842887895653,34.042212816083946,-1.1563335096148577
17.79947451006163,4.436955178214422,6.161122214220228,2.340960495267352,-7.415761156318096,3.670691475764211,3.3505675946827784,6.967989077393314,20.061009388714726,14.652639481293347,30.82660802560057,17.59540973147165,34.2881451471697,-2.411305499220448
8.24084800251169,5.510029857808362,4.41114820797065,7.663843284384944,-6.19747620448982,3.77874843155133,8.356602228361036,8.532772113192676,22.470634495193792,18.908979163987897,32.54088872709024,13.81807300584162,36.67593637662434,-1.787489259219076
1.4910102266950265,7.361490081584961,1.8923150833510936,8.801093460667733,-4.379783734239752,4.593088062111548,11.615348168129197,8.74772289957893,23.063986969096256,22.654003656129504,29.707144560234145,8.984459569379812,33.11636720232327,0.223367551910417
-1.3804548071746563,9.404026112521358,-0.7478867735999162,4.613647353294506,-2.4370042009217925,6.127816990455061,13.62185947400351,8.312499599467474,21.30306821036946,21.719535219699686,23.33619396714698,3.6898892994129,24.10261502795433,2.158445104317323
-7.364170007015775,10.423687375949145,-4.868741687087936,-0.4571386453063804,-0.9950127850898696,8.113720426117558,15.070273306581475,7.417882942646102,17.15104685869491,15.1690363033105,11.321156400436644,-2.9555448780618976,8.380537074537735,-0.2410448988331534
-15.139227520780471,9.661588968752495,-10.706224120586551,-5.9552427572938695,-0.2552771973483494,10.959208697525044,15.319911276533718,5.88826340792941,11.655032044779716,6.223884249427989,-7.620390189358551,-10.864408090655935,-16.169537152319382,-2.6330669442291588
-18.953682054400403,7.369503030995048,-12.643732440827073,-7.451767542689035,-1.5752879595341496,11.77071475541542,15.659622769457282,6.415285309869749,6.645299984850936,-0.5291696904516527,-17.197502696334503,-15.877259129318704,-26.4275402437055,-2.495994694185982
-19.37543466279012,4.429002889320373,-10.589540177998668,-2.5876010648825254,-5.407201398873198,10.408400095207076,16.074312391910343,9.26159095201102,3.613527939707176,-2.974534332341605,-17.00971601817936,-17.73853722192298,-21.552003407695608,0.0906311780609212
-16.97770592853861,1.639741158389498,-8.200276109212474,0.6430805831602371,-7.537760838870553,7.1343133432683645,14.655031883519287,9.371202844967414,2.63975682007932,-2.846078554624846,-17.97727148565518,-21.39460957035434,-16.643466442214827,3.4568091332823103
-10.4678542082941,-0.5509067898952225,-4.234083548766535,3.2307307469598583,-8.181532407958,1.102133136643988,11.529035395359651,7.121057178747908,2.2907006178169453,-3.5991674498949493,-16.481353752201283,-26.03713378957231,-6.383215673147685,4.196876568056429
