AF3,F7,F3,FC5,T7,P7,O1,O2,P8,T8,FC6,F4,F8,AF4
-3.3620959163785717,5.138325852073553,-4.50053179329118,1.584389990293121,-1.5994986275499374,-3.75050457818756,-0.0637678257136311,-1.4700842731125832,-7.37190227147155,-10.091716622857918,-3.1142044151436323,-7.034324371462029,5.72325946191923,-7.997530475612579
-2.277886694291595,1.7824028318102172,-6.406097820467317,2.88482970819465,0.5038882441070613,-2.41918573509569,1.8799505496784692,-0.9746422629240504,-5.508782820909086,-5.860177226446248,0.6001082915950726,-4.6665711395401,4.513610223740628,-7.80515342889873
-4.095064013923756,-3.2144388897403497,-9.953709594552612,1.860324728458616,2.125878160732425,-2.39838586062354,2.8338547282532818,-1.58105644764805,-2.729728625785336,-1.672836556676616,4.632493527685257,-5.395212581073816,1.861122668510724,-8.224961905729792
-7.458683229950013,-6.10962091269408,-11.368261827708046,0.1741972661413641,2.477152612178702,-3.1932032500140197,2.108324294960504,-2.670802701927472,-1.6809292221231429,0.2707652515486354,5.617529744500929,-7.524108345624733,-1.4174031517655514,-8.257358091052138
-10.095108497699924,-3.440150382858496,-10.413128761321609,-2.846376025311366,1.6479320365409809,-4.1451641328648,0.2417542377194235,-5.1910254769129365,-3.0959437292710144,-1.9130788807342745,3.5832397735722084,-8.593516570726983,-2.146777676585469,-7.868868798360025
-10.351955465099396,-1.1570124752918738,-9.385993334327765,-2.403276038667449,0.4642612956803544,-4.68088811812359,-1.6161796598113396,-5.151223595247747,-3.538674410594165,-5.133657140476519,-0.7114563834800054,-7.752557924114719,-2.7084119190755107,-6.743635646380047
-8.284072415273794,1.5242198105018154,-7.36848526191647,2.060215475503481,-0.1413410641555694,-4.306433995590968,-2.6840468898283185,-2.4625884629115538,-3.755231691090664,-7.429265636451697,-3.799584986648881,-6.403345626917124,-2.872009131939654,-4.575490325467517
-5.4989254509296135,3.2469015337062497,-6.585312154505144,4.595640080862424,0.201749517639274,-2.844198064751625,-3.043111767150831,-1.2926207736475446,-3.4003953961798388,-7.946249986515315,-3.6683092292292594,-6.699853611819403,-0.9951820439596556,-3.2156275917930364
-3.887064759278106,1.3750600411161986,-7.375845839665845,6.2242810325509526,1.0671647113836116,-0.9161106443339282,-3.311437799498922,-0.9429307251270443,-1.93327225671182,-4.780119389674374,-1.748822030679588,-9.415865306028554,0.5696563719411066,-2.5897633771663267
-4.199430816286012,0.3696141365547639,-7.50923720290975,3.884351617954892,1.5844057674228351,-0.0003095972069977,-3.929159869822107,-2.3834506151157147,-1.175273000906751,-1.8861537424752128,-0.0929202481196554,-13.1202958903444,-0.2263983764434673,-2.327497456337884
-5.536950816508992,-0.3572255383290216,-7.531725724497649,-3.801164909294406,1.1056663750488926,-1.5365164532301696,-4.760052222573262,-6.481582223075548,-0.9427944874645602,-1.0458459103688726,-1.3278993082980246,-15.280567464688676,-1.268305465839683,-2.8539495344118637
-6.100645426972842,-1.2033699803215263,-7.20111003700283,-6.530474276812174,-0.3044566662282206,-5.576858929368369,-5.297912322048083,-8.11483442257111,-0.9362575341094606,-1.1639869377872334,-3.6594888351326538,-14.199287951544028,-2.704694060165899,-2.095476796719671
-4.581927492478172,-0.4707753493906546,-6.193331109213026,-4.841128466600609,-1.9108635566351304,-10.271773878214129,-5.155523401925816,-7.49081780174823,-1.5065644856690117,-3.188138867725628,-3.8996031105265914,-10.131882573818952,-3.913391958220128,0.0263056510959549
-1.124680244650587,-0.2981536312401627,-4.979268169078963,-1.6767807889898545,-2.8549242563527493,-12.986067156535224,-4.346568141726009,-6.147114236136294,-1.1396901432088788,-3.6748965967388174,-1.6805441772730378,-4.863763765665423,-0.2304830839513153,2.532921546382673
2.8018210639190766,-0.1706904579194571,-3.3797005249374057,5.181726379719227,-2.814868918520302,-12.326578593201871,-3.2077271406290926,-2.9622322379171973,0.2126234341496362,-1.5167988123372724,4.017277411110149,-0.3935510829339543,4.336016445698696,5.930949846039002
5.404414489889945,0.548010191526943,-1.8333816572839523,7.097914051199427,-2.273537541053365,-9.313671490551384,-2.1784573122989226,-1.349167609456761,1.1933512391312828,0.7834733359807518,8.160381336491387,2.1018636305670158,5.872651570320087,7.0073777224513245
5.637719973813342,0.5158521829904705,-0.4005433841597848,3.597360128959826,-2.126406055613821,-6.53226771283555,-1.650603749721815,-1.4608053351450156,2.099234756475881,2.501138230785507,6.575088196649822,2.4472362946486177,4.908517418041125,5.449316422985658
3.658407758999172,0.1517691331125093,-0.060743819076686,0.4203340048774013,-2.857815149831147,-5.919468618615422,-1.848492683343467,-1.2437574301217933,1.269854936099018,1.7025749982691347,2.711890673882098,1.126465327392464,-0.6040233063363711,2.432609918665128
0.5541852138163443,-0.7658360332160277,-1.064092008778364,-4.435372701168072,-3.943521831837391,-7.15151868523166,-2.61629720357354,-1.480421130704919,-1.6752013117576143,-1.2687564475054516,-3.2709280313504445,-0.9886972910102269,-6.525976145037139,-2.9788650888961143
-2.3053040489034275,-1.892339780634552,-1.4100734622375255,-5.443875398739645,-4.091441886148876,-8.079884639463483,-3.228899985606649,-0.4573413727689113,-2.3522960297873987,-3.161579380647472,-7.21258320316254,-2.724037495424687,-7.934801598618586,-4.811063115185251
-3.913258854221788,-1.7668539455776957,-1.3131850359162094,-1.5886384436503975,-2.2927432657211044,-6.785181986194508,-2.564165885860336,2.125049432514114,-0.9796653165040254,-2.037479336839076,-5.054320560851809,-2.873534983562801,-4.948007945051351,-2.6672606059848225
-4.053973977916908,-0.7341896333067144,-0.1050634955790004,2.5491903791339148,1.1376157336433677,-3.34953088706415,0.2111668365675658,5.149377716176638,2.857727838272009,1.6696885709074984,-1.805076106193665,-0.8557846958563022,0.1141403059443377,0.8017311776534893
-3.3669071002829054,0.8678487889807529,2.7108624265335237,8.537040388119784,4.5269262631910685,0.2397438653237746,4.820981102425144,9.116521045250249,10.29128006330541,5.951410736510999,1.399358703428684,2.6785897013978595,3.8324330333637295,7.18338935048492
-2.9044069468543867,2.288600212273236,4.537182132798435,10.82912756987955,6.040092286211287,1.8951005965485892,9.655180853284795,10.67986270628651,13.18502247485494,8.055314027288345,3.8930906849415594,6.015330254759158,5.199435827253399,10.109699586293289
-3.2833592812642127,2.221462217185027,5.567517631144096,8.509242958286217,5.175808902873337,1.2592916353591883,12.561090043212472,9.48069123839914,11.45325722977021,6.399530822442342,3.177983517756757,7.490555509919668,4.4236668019644325,9.104655909499428
-3.9875221443852538,1.192040252677623,6.665635996777164,5.180403811443795,3.212333102403928,-0.0622857930837641,12.243939876741102,7.8733994119275295,7.851049855614427,3.363380274492896,1.7896181127872386,6.768469601109352,3.087625174644483,8.08332234270178
-3.5286176757266454,0.2262057613318936,7.324532191055621,-0.7938663570938117,2.101909274745584,0.0078326224006204,9.220606405038998,4.979269895655457,0.3810965768152723,1.5977776701574289,2.0727265757836077,5.148150085653237,4.648302093114557,5.462497129316164
-0.5907017971521613,-0.6028754806397006,8.473236417847419,-2.77535375846007,2.7408874799653966,2.193242057675444,5.47818016604094,3.453073776336988,-2.823157121275087,1.836094517433701,1.921658204378314,4.5070710796491085,5.395819672999448,4.809545962462835
4.677671538636369,-0.9867456545261672,10.169610105838304,-0.044764751260711,4.188551357467463,5.293881644280047,3.0033631570838475,3.711369846565572,-1.2941493894542668,3.893299226882062,1.0053114365564155,5.717473042558287,2.706262416971242,6.665911827877296
10.41323696957183,-0.3965868246997924,10.746358178516129,3.075332071546273,4.56928651835291,7.279364134011197,2.335626055067856,2.534703443256393,-0.0093771624476424,6.061940703711559,0.6586461648609693,7.913384562254304,0.8256100596394044,7.383337266843131
14.2233733609359,-0.4513084000274632,10.302353180153036,8.338548983566863,2.824723703992121,7.0072640428201165,2.335813047043324,0.5341357795395467,2.976954583227587,6.204994969282765,-2.2974286607721623,9.26273654445029,-4.512070618753833,7.8237630544565
14.892925017818824,-0.5497159965321239,9.876024686971672,9.235249678117512,-0.309764159236423,5.086376200656754,1.3429719916611815,-1.1585555599724056,3.0070973663993668,4.418773138988616,-4.873390964966402,8.562812962977969,-8.778639126536255,7.961753473226744
13.174645815330482,0.2923329562514716,9.165242883317104,4.915119901787122,-2.964636106588712,3.257782075517441,-1.3028971840679358,-2.963019946439892,-0.6644786249482886,2.6339875196543017,-3.938210215328788,6.266959280705019,-6.460494578228705,7.286994897653572
11.047809578126367,0.1776389083658101,9.47397091235976,1.5685927830571431,-3.736019606968424,2.9694294885682506,-4.667934177293747,-3.73916368176445,-3.5570082833537637,0.7112551607622891,-3.684881637317392,4.104996872947227,-6.1519579269553,7.58543022574738
10.187899374104353,0.8708165629395641,11.060185172679272,-2.3989227415282763,-2.716472106121381,4.405076868360623,-6.982087737285891,-3.263136147850581,-6.852568349065372,-0.5232438291815422,-1.3927279483438104,3.699563328455662,-3.668394132849192,8.782349176861961
10.94632413524836,1.4420268431481666,10.985664415534703,-2.7829771924553754,-1.1207557617498427,6.664318462051684,-7.0002939326745866,-2.9836623796298603,-7.802796519388688,0.0513170937564032,1.4539871744744308,5.349850149105276,0.5992502954164313,8.534788148686637
12.460313138359588,0.1947694089201265,9.447276276461794,1.638511231768567,-0.0699224465991013,8.707913929653207,-4.829009753912216,-2.62143161298248,-5.575361999240408,0.2275668656650964,0.8584287904555801,7.867290003339018,0.818470652982859,7.036875670478652
13.458345711300112,0.4809707330595089,6.7658695843617975,3.306790389917352,0.2184587046358883,10.118183187883956,-1.703166611301997,-2.3721423790456284,-4.1463301478197145,0.0114086787095091,1.2932143464081371,9.433736717519553,3.655185560994656,5.896710075196585
12.97967020979298,0.5531978767875374,2.2737539916670744,3.2478068789986,0.2067064000672228,11.101126281111489,0.9028863938442946,-2.493049390503589,-2.733070522605703,0.1816230379683737,1.710656243235213,8.772592417516856,6.899071883526938,4.729343615066692
10.701608072032972,0.0060835616246946,0.1618714494314561,2.9579390508727883,0.2929913147570921,11.969111575563552,2.089287586350532,-2.106430583792157,-1.9970372453726812,0.225993694284354,1.2890932169651927,5.893096824595617,5.602132552068508,3.9160644937541664
7.06582846934328,0.1703155314783661,0.5799255845492586,1.1105487941486754,0.4712233900984826,12.740556804408053,1.8341502976351207,-1.310752759818001,-2.6378899870317127,1.1401713732900265,2.257835578218721,2.059508652840666,2.591784806998333,3.7369510039045775
3.291507707919316,-2.088606078746713,0.684876226078915,2.5149565447528257,0.6644181722682092,13.172604473721377,0.817357906296031,-0.4456112468469148,-2.1371111292176987,2.854472978291382,2.040495734231828,-0.9464625143413844,-1.6438805240012817,1.029256744305466
0.9977208370794112,-5.016473296123761,1.4152980561163766,7.376847418454697,1.1399966898080918,12.9991613440154,-0.0096805561151014,0.632453988647822,-0.7841974319358529,4.240282489780571,0.5995577417606276,-1.8843527851599344,-7.659949741889935,-4.2834931070258335
1.2639399929861188,-5.512766190875315,1.075361572589587,8.774218189703667,2.353614711416168,12.018778613081931,0.0861030637151678,0.535520589784265,-0.3338314599834355,4.091734439150983,-0.8460966729226982,-0.8313878172588782,-9.271008461325543,-7.189865024821554
3.6299957628819737,-3.487078797051055,-0.7654431380705352,7.401006997433981,4.3246123580128994,10.026712960375807,1.2442239332021794,-0.897318292641635,-0.4568821040828022,2.701212622864414,-2.107281934973794,0.8811756838168527,-4.942970228967837,-8.092652200138186
5.984040814911946,0.6708081360809526,-1.2490600168813777,5.741179739038312,6.283559965609177,6.881406445547494,2.933410736686091,-1.563184343485081,-0.3786084478608521,1.906466108805522,-1.6482451777970974,1.6243753489117316,-1.5257973316947155,-7.293853051892039
5.7863593596119,5.588371217902607,-0.7597440239670497,2.5124004260310024,7.095316327183314,2.812466208683025,4.240526450282318,-1.720435474914047,-0.3374693953687033,1.669488357144577,-0.3856967202734257,0.6450797918226812,3.302111585797,-3.650909813784816
1.9098872604897568,7.556684360611299,-0.7004744085888193,0.9755734870423006,6.129737617406991,-1.3613363839457753,4.358783930277856,-1.4761935510987914,-0.2449297823235405,1.5507549660752784,1.2581230975837336,-1.4986758845560306,7.4705347733460385,-3.0775487188270403
-4.338292150540499,5.135600009833153,-0.6522610540581946,1.4642486429620438,3.767780349810331,-4.516707196851762,2.9817163594882725,-0.405884081072184,0.0047597667039634,0.5236258574732175,2.4806859844044933,-3.589257332799222,6.759048203146446,-5.634150209067614
-9.930982373223747,1.651480516368805,-1.8093101857971217,-2.656641970532186,1.1097714742211986,-5.93474121727793,0.42528093899897,-0.3902187845197055,-1.1962047761180723,-2.7631398458184018,0.9258848037574062,-4.814776020598192,7.31791157774794,-7.614873587392498
-12.114482429002576,-1.8701396076627608,-4.4671211085735845,-11.023357479416068,-0.7772758782078683,-5.803133417774819,-2.491397881429883,-1.4225906730191256,-3.939118886649224,-7.545174745567963,-0.592524926762169,-5.196604498234271,7.620394393042769,-10.280342895733844
-10.197985838349826,-3.626984192753641,-5.669688257304335,-14.629521542848805,-1.4070283035274205,-4.96615735968448,-4.715630795146548,-2.0200866741155967,-5.203859315717723,-10.603289913708169,-1.4949227878814262,-5.065703803581619,4.3075841024154,-10.26289902400256
-5.852703104561858,-2.100198977951185,-5.597261010269005,-14.18799643051584,-0.9172270474587728,-4.127066998831436,-5.360176037470174,-2.5347521247885845,-5.178132201639363,-10.094072382298704,-1.8806242799490305,-4.376770962389911,0.7697896762344045,-6.897295961434148
-1.8296835526880515,-0.3890135771010781,-4.316390646018466,-8.402668428465063,0.1606080678315051,-3.338899047211106,-4.183608815430191,-2.5681486435757934,-3.967319353472874,-7.8363340471121505,0.8881335758407386,-2.8373128975933164,-2.366398892915498,-4.236119185872252
-0.1626700257547879,0.3221493715917227,-1.1204670216041424,4.998445663547012,1.0896984790236908,-2.3663211556715016,-1.913840000880848,-1.8634372630888376,-0.8456668463323824,-4.366539188920539,3.159502793916684,-0.8039072397983342,-6.896184658418063,-1.4296631677486384
-1.1350418256255868,0.4995976590742302,-0.2459558460208171,9.98191923185281,1.0803431667131278,-1.5245837168006298,-0.0655122668401992,-2.0240191634049944,0.3726662650592108,-1.5247880302161343,3.3024122501876523,0.2164735363407164,-7.926402149304951,-0.3606866962233311
-3.5183052323178274,-0.2632732687823192,-1.7528945550848796,6.524268113711842,-0.3895544636358128,-1.9318206801404696,-0.1385688159459741,-2.9727894226885225,-0.3292145913827426,-1.8510902317686808,1.8979803870112293,-1.552073891075748,-5.309782865020315,-1.845472837819792
-5.596948469733079,-1.268133269932323,-3.824078817786415,1.7829686526279356,-3.130546840094199,-4.596873867063959,-2.5837002874920176,-4.72333448650171,-2.131901878785066,-3.361833556492748,-3.122686993354615,-6.365714297104344,-6.105542494686654,-2.454257056740256
-6.102779380396469,-1.1185825946211132,-7.463524355732469,-7.915282912700758,-6.096187144272911,-9.054128648387444,-6.261142821165535,-7.671394268325996,-5.998073166801639,-4.894265786451409,-8.485578997707721,-11.980884113777025,-5.702923818210903,-2.789032326023191
-4.575444189359253,-0.5522674197151365,-7.652294989624879,-11.11174054278013,-7.903844831821372,-13.014344290594938,-8.941281718060424,-7.459388793054324,-6.2886471391872805,-6.0640539613604645,-9.914437496786984,-14.755964659877002,-3.670166422882155,-2.135548282603422
-1.301132297981379,-0.3355621170344818,-3.9390155043008295,-6.71366774388772,-7.80311771778435,-13.765265343078614,-8.713775369301953,-3.864756764708285,-2.7429719563115857,-4.141727076677796,-7.084406388769996,-12.23584327558817,-2.846460063441799,0.1616848400259325
2.8107622880708343,0.9941063739961136,-0.1766984500279056,-4.642539355526908,-6.31488067942723,-10.35298811771078,-5.421585764367245,1.2920726909556437,2.716544064125512,0.9496750524099152,0.1723043015653697,-5.120376020576404,3.002992417855207,2.243810336519445
6.372817990087247,2.1566422466866464,4.858302477325072,-2.248460074811128,-4.889808385979456,-4.578675150598018,-1.0010051966765716,9.155777207128615,11.579489635623874,6.730042683142717,9.077254994360857,3.0932446371481213,9.938884685167992,4.466164408995817
7.9560352928186,1.819865973170576,6.671342180665239,-1.75001495597587,-4.742955254094257,0.2852152207874265,1.7705023858634732,12.573102351308023,15.677233317581464,10.99127819769818,12.562818992830902,8.54396971398661,10.956178958260123,5.718908169673914
6.872074124737478,0.8940341287684942,4.436752126261406,-4.599287210708613,-5.804942049535875,2.077034681149046,1.3992081743513047,10.959779285116982,14.490829165678887,11.262326001234706,8.773603267964162,9.564010781537178,7.821865049318666,5.598769842382733
3.7874556420434975,-0.849635999218223,2.955554213864926,-3.8652980906675767,-6.717765159943819,1.334174828597276,-0.9672133448046712,9.333755042353122,12.74479317827256,7.865382800904061,1.960667995113588,7.444905247571823,2.133194490966075,5.424589144187365
0.4787396596126241,-2.538030996863738,1.0455004442958236,-0.1637426069733781,-5.936721451872479,0.4396440115997526,-2.263140169717956,5.922789826034955,8.404751697497359,4.4526754963764725,-4.990899522875592,5.080883858914948,-4.746911405168075,4.8068914046607
-1.3378893484957604,-1.9574251301475971,0.6638024012971278,2.367259491573821,-3.03860112907654,1.164831909461622,-0.0032307799226387,5.223036493104719,6.926730515814295,3.969589630638429,-7.274005063129572,4.7702681057765055,-6.898120982209749,4.892574691108968
-1.244602348761363,0.3294935171200985,2.647479929162434,4.829589629576678,0.8591760065495766,2.976911701377153,5.426168996228324,8.06836309027537,9.01452361072667,7.413216155426257,-3.3607594904190905,6.826997766471161,-3.4443822092644214,5.92925518657032
-0.3364885472508725,1.7680064554938113,3.869276338026984,4.915434936723666,3.912072950921898,3.720457502055252,10.775031095166296,9.558205152044188,9.574363755640569,14.0330378460546,0.3049293477889435,9.77137090711099,-0.5996473280503347,6.144224230966656
-0.1650693940435776,2.329772750011656,4.979753603391707,1.8256492143742733,4.906427490023823,1.9540294375449268,12.482879978509535,10.844428993715052,9.921457256422917,19.094711675647066,0.5748581042583334,11.671231942558144,1.200104070159548,5.800297024632078
-1.336428348134783,1.0369619281966638,5.888350353378803,-0.1261534094021441,4.058023588625795,-1.3821494324860248,9.719606736445323,11.63151629124115,10.268386085527355,19.31990545079005,-0.6662114969468876,11.574825329536722,1.6606381593836177,6.112037188555021
-3.0310442410132907,-1.636015934052771,6.117353127090859,-1.54894386427254,2.6632385079959864,-3.6028558793771817,5.251878858471346,11.208592132658117,9.989510750223324,16.764889735984127,-1.6885705730274303,10.120813493197186,-0.3877349400343769,6.868081957198903
-3.860860040173726,-1.954102723234489,6.491955279298927,-2.272686434468441,1.973608403740002,-2.5969606639677,3.2733628735129248,11.891369951954314,11.712575697130172,11.971719431891366,-0.1195703300836676,9.023702432130303,-1.198259110837113,8.550826302387389
-3.241458707194573,-1.684641143351291,6.829141575641643,-1.4529717318356885,2.248965090584985,1.3758723999818647,5.985179180544749,13.482797664855706,15.471414644296209,8.86671218478181,6.126540546108606,9.822128501971717,0.0959698476629707,11.442437278768974
-2.008414278822895,-0.8025712847943,5.928929729615572,-2.5476306529681283,2.717738948186843,6.015577774286854,11.800916333804867,12.856756358086692,15.941500419092664,9.823400328678131,9.815354553545763,12.718186853776736,1.1301765264267931,11.35193822070107
-1.7320598615798226,1.440914114221028,3.7731103130191896,-5.411266020716965,2.3900915587442237,8.964683718183291,16.617566812521687,10.196487182561391,13.30298953210544,9.802066048970566,5.938766350746168,16.292684735017254,1.113089098455989,8.134577506347028
-3.363297690489742,0.5159623076137891,1.1716685522938457,-9.038093239125764,0.989321724899539,9.502445702804827,16.986313298703394,6.679296737656353,8.479610437696001,9.786756247420476,0.9349822788872084,18.30485168786328,1.1123434161565542,4.777062136526541
-6.403227846387404,0.4002022928270619,-2.147704282060167,-14.17355336845093,-0.7871384558660592,8.510590586779479,12.544374980531405,1.6441986250209542,0.1759659472571267,8.093929766288063,-5.839873315957937,17.0172058466461,0.3026934515924234,0.3406857066601099
-9.292566667866168,1.5379387968473983,-5.021141318950739,-15.221294033378737,-1.8789696684166763,7.0745303568307545,5.887683974223556,-2.557955725706873,-5.129471546635871,2.727494486979446,-9.451679731112808,12.1150045422354,-0.9831844068612988,-2.394367148709319
-10.648476472913702,0.4584994431845778,-7.257596735817251,-11.741376320645454,-1.7986989502698782,5.323306072236367,0.2809934035293366,-5.723231225456954,-7.241060456415469,-1.079509892536404,-5.3349482611773045,4.664056347047451,-0.994795985792426,-2.84548719317541
-10.27498613896916,0.9414803332619196,-10.306594368486998,-8.785334181766986,-1.0512166432746035,2.641808464117015,-2.740885203614937,-10.829008022129136,-9.62376403312415,-5.99640674680727,-3.908237682535906,-3.6466930130279023,-1.344140426295382,-5.590614873743568
-9.104885193558474,-1.2844446210732114,-13.894163675238502,-5.08541375136115,-0.6394565644592651,-1.155173970733243,-3.999532782110928,-17.435879497589166,-10.763506835833208,-12.309207254695654,-4.490199223809428,-11.236222181428785,-2.303433242160136,-10.031367369262496
-8.176288285054135,-5.010834340269824,-14.386674137712925,-2.751252813673984,-1.0990603006962787,-5.07653381738259,-5.309970514130004,-19.604450274142472,-10.995299066185536,-14.779698111498393,-3.8409089179100486,-16.855891181841997,-1.98330744546122,-10.949702219142752
-7.590095556489873,-4.977923279224744,-11.652000920231956,-2.6748650644931367,-1.9834633221361533,-7.504536298674025,-7.556631574980352,-17.299236571445192,-10.453835124243213,-15.62285557804033,-2.304821156347882,-19.510389088479364,0.1349338979318958,-8.725631153529308
-6.406363895686712,-3.05602428716241,-7.766608503754893,0.7759072823538987,-2.328836917675729,-7.526827822935871,-9.928344587915614,-13.13221201938749,-9.1768945991467,-16.374906923610897,1.7042754176068728,-18.60907028533921,0.6489301656358849,-4.35750522816947
-3.594039160921328,2.7518884768206493,-1.836183774215144,7.138112477608094,-1.6602613428894908,-5.735356777978417,-10.841132527722689,-5.664381846702317,-7.269588477568559,-15.248486695806267,7.211741083161101,-14.481506791627035,1.342696799938887,3.3275956977639107
0.8110198420488235,7.750996743419708,0.8356615303538786,10.12274381666437,-0.4984945011661015,-3.725366654403074,-9.53675355582712,-2.5769436555979666,-6.677222070820474,-14.305938118825688,9.088854711659687,-8.719317522718981,2.582148941017132,5.027296316516444
5.3950729687533165,6.913761662818987,-0.3637843832299328,10.358541429509458,0.2168339714794731,-2.796403939806837,-6.823126130001983,-4.571469669435362,-7.676778831934383,-14.301346338941276,4.944662987517316,-3.69137248776737,1.1971054022391594,0.1552912500459366
8.229976471908655,4.1022471996263565,-0.5690136295435336,8.356749555038615,0.2226723031768642,-3.0570973492455886,-4.341385022372957,-4.570043784709233,-6.488225329857858,-11.53228024654594,1.3390515172130546,-1.2893902029481945,0.9998146291066584,-3.3740967825370576
8.222955377199266,-0.4293123276408956,-1.076435283289974,2.741739655604177,0.3313981199971572,-3.637477225195729,-3.1723873563552694,-4.334445851598512,-3.4314011642206346,-6.993428662230946,-0.8179896266410518,-1.8200611237348223,0.5420605960515492,-7.638176069770056
5.866834377480657,-3.52864912124039,-1.0724529346059646,0.5509024140591167,1.558746589492502,-3.6219448009382536,-3.1476967994159777,-3.8173566787903983,-2.545580983369105,-5.160497859396266,-0.9898715220060088,-4.019005984936033,-1.3626204742287014,-9.18905807399317
2.830171475537073,-1.7393996558402376,0.1250289581606905,1.896487075888465,3.792871159606552,-2.752543492061804,-3.40779595971149,-2.06395726821298,-3.3805003126184143,-5.160625634271197,0.5205065455285779,-6.217686080798167,-2.229623572137386,-6.661743148728303
0.7658995877661186,-0.285954589890413,0.4151406039288562,3.776426355520353,5.481506001285301,-1.3762198674931634,-3.452324529558208,-2.4947208344199563,-6.512964529345788,-5.987047305684807,-0.4031342933027348,-7.617777104989326,-1.7977794154092863,-7.104149105841605
0.2748183678210525,-0.3407877254051836,0.1394283373784646,7.858098383627981,4.90746818119852,0.0579242403310278,-3.5111536073039185,-4.984914877047911,-12.89422459270866,-8.431375489001178,-4.002694622475392,-8.525158199927368,-0.2195619778036182,-9.590836160840484
0.7503564954615127,-0.5678444539914733,-0.219675287569815,9.241961386936929,1.9506982022311945,1.312095751533235,-3.935491541470208,-6.480971987914084,-15.416111526758431,-9.810471525543363,-7.183726052957747,-9.43915636601015,1.2059687604680454,-10.183220112763612
1.108280497040267,-2.254138963047824,-0.9761297800006528,7.537035775054506,-1.4592894884377046,2.253816581151834,-4.466574661728513,-7.5137711682425055,-14.030718230196674,-9.53992730830192,-5.702237851954209,-10.06837952831956,2.0244490951242144,-9.86389801025045
0.7464684453776833,-3.573417987934173,-1.262241596908774,3.7210690167452514,-2.850305000239943,2.664480752866057,-4.392026577268267,-6.766811360681309,-12.31899991340976,-9.833129259762812,0.027524274748095,-9.432970243599751,1.6062656896046004,-8.228450024620637
-0.0512637693386883,-3.347982365122241,-1.0166121334813218,-3.627061906233001,-1.3873069341827753,2.339540689272088,-3.545423496144388,-3.54437865580786,-8.670469301382115,-10.290587090568025,8.22022884087692,-7.073281509767789,0.7645245116673814,-4.6473856283585
-0.5735268786811285,-2.38778273315545,-1.458302077968546,-6.517740404436779,1.3396226393124715,1.3968217665344689,-2.992520039894885,-2.546718752474396,-7.44438262089275,-9.81570127455203,12.587133221153966,-4.132024359602252,0.4368127052401498,-4.18930315853352
-0.5555069539328041,-0.5811740097384622,-2.4486233477583257,-4.682593423668363,2.7350513126635736,0.3569117081546462,-4.370264488619901,-3.5156783204694984,-9.174027901036029,-9.483355404833318,8.607751104171752,-3.0150966660647445,0.3461744829270288,-6.948566347813832
-0.6011099461436364,1.4356683775773122,-5.6978612068048005,-0.9086183274777844,1.5511951879914,-0.2241186060808555,-8.202459201263128,-7.855983593125753,-10.110839268756456,-9.690114650714,0.3084979564159451,-5.608672961646483,0.2480729530517645,-8.693279455445825
-1.629710838518016,3.329986096948713,-11.64236866979504,6.847973847209827,-0.9902209937288884,-0.2464649276098374,-12.76872888706708,-16.852514413539,-11.322838166044557,-9.54955646935134,-9.207568559310005,-11.469649549064725,-0.8638511591314182,-10.435644477584155
-3.756320377724899,3.726628291231904,-13.222942478309678,9.83487575597538,-2.3122835400967467,-0.152852631005631,-14.882328857491304,-19.070951323402813,-11.026976653987449,-9.205963087673958,-12.749234455718058,-17.629545207319136,-1.8278667595825977,-9.247186254175062
-5.704024468985399,2.4147891570474806,-10.435592888236364,7.546775893658498,-0.7803271729691161,-0.4800153065359751,-12.269651910801535,-14.449633536544336,-8.62102681393656,-7.626445542377207,-7.6814245925288125,-20.39407400564143,-1.9225909757962272,-4.220062286292662
-5.530321212619195,2.114387003939908,-5.514644111413412,5.514985296081641,2.8747139760246565,-1.329130450860113,-5.631587549459832,-7.109097199147741,-6.52258042563871,-4.5808621688264815,-1.4271762206622962,-17.8616472230987,-2.0767040145977185,0.2603489683216051
-2.2522969163845783,2.1874506417750488,3.2738932828407696,1.657585840634699,6.170967436276268,-2.313275046378981,1.5177335548094757,5.712606078933401,-4.185577702572153,-1.0280915397340948,3.850229821365241,-11.2502296528419,-1.2903098105335722,5.035991878734305
3.022548903422109,2.243342597406356,6.588790622567931,0.4777868921125991,6.861421195364545,-3.0237008911172527,5.350598473626022,10.890222817500929,-1.859673883130402,1.8005917109923422,5.185770065098791,-4.027493078054723,-0.4818748234710791,7.066681306972517
7.588410286451591,2.1614966514866905,3.8304222490950295,2.7813145875105,4.5573013610674895,-3.485546029388548,4.623150551189761,7.4940372888146705,0.0898683994222296,2.4199707092435934,1.223296601359566,0.4776628958222444,-0.9306316269113244,5.3303048049565565
9.000285713353989,-0.3218265149555305,1.827692823325116,4.2903882329656255,0.7751418558253942,-4.082773282145286,1.56328305576318,5.501066484724571,2.782095016027377,2.251633623465909,-1.1343430840833757,1.2039904985651615,-0.107360240124905,3.441331378617676
6.809609286962742,-4.064293630978983,-1.601124906565713,6.192663722418468,-2.370732251705636,-5.026901226777298,-0.0339052761232601,1.8503381203094929,6.078901425986386,2.031272161074322,-1.1902006616789542,-0.2627992457976775,1.492236010559073,0.374101066103624
2.774727789336783,-5.925078659017029,-2.5342969502508343,5.402412555562445,-3.601884354344076,-5.978420077729226,2.069506952937683,2.490208739151318,8.70462232539118,2.518251152783107,-0.2942626582003672,-1.1730505174237995,2.557726895181794,-1.2592742883205643
-0.5422201955661006,-5.043683703241543,0.0770683256877231,1.1155142643222866,-2.9827554023430007,-6.293778825410191,6.813733083005953,9.045313337304105,10.746539734894492,5.673263291725033,2.3332927438898023,0.2857084049736418,3.647400197472817,-0.8072015512212424
-1.5803713556270242,-2.5313177831764304,0.9996069677814003,-3.4468547481533505,-1.418349627592841,-5.682851660096514,10.863292057458704,13.01693895614929,12.532564783656474,9.540154811657503,3.926132974906569,3.840731268348829,3.115778224358574,-0.3947098506747954
-0.6151875905713915,0.2143640015620379,1.2934685911329298,-9.223391493173878,0.1501567745405534,-4.569454987607427,11.392456790147778,15.985992830750067,13.7817523820352,13.15889471188326,4.597828568652854,7.640464668405583,1.2956047359033835,0.817225371444896
0.7982291210399133,1.3640946379805183,1.6964956053700586,-9.884679674358363,1.1610096325277368,-3.7151759263576096,8.214839388190939,15.984068770891811,13.472608954278067,15.226242198040143,4.271924491470475,9.809839832064032,-0.5887854122173096,1.954480128345956
1.1141792729573634,0.5520838915736361,1.4683318905095382,-4.447284169390398,1.368596986346725,-3.447525653612006,3.5921238976675127,11.39904276789132,11.435829656679248,13.128614828703732,1.7476094608758248,9.75252524394278,-1.7648545037751382,2.8390052704164543
-0.1821339765869272,-0.1661883897282944,1.6753125749926696,0.6154457083280903,0.686261027192943,-3.289420670311923,0.1883733765173474,8.087082148779734,9.092005612148442,11.417872965604166,-1.068473858654915,8.287096745407286,-1.3621410135558207,3.045557604193144
-2.373092116209904,0.696627705485913,2.2608531082767587,6.93179529743893,-0.7624297525505641,-2.4013488893176014,-0.869114873022717,5.2516439406100766,6.191107289455007,10.295533335586256,-5.36918557478332,6.750756141779712,-1.122832192546764,2.222016542766436
-4.044989416881398,2.036666579704828,2.766391629934872,7.990235582868852,-2.50792425824808,-0.409600078082839,-0.2785892161787728,3.5206437035658023,4.9484416171246846,8.408806809124792,-7.917710204445885,5.971910064699355,-0.7430605756490263,0.9878683607828072
-3.9427731377150543,2.836665429258139,3.3777572603673365,2.2771295677934185,-3.84452194690016,2.200985158071993,0.6199702992024445,4.074294851259459,5.840455578395626,9.189603205014338,-5.639676334402581,5.914829588514966,-0.5268713013904419,-0.9215193949438768
-1.7187548254837814,3.3802682852357115,4.617133010901032,-0.4177788487310677,-4.2523694006556365,4.478450777351775,1.070297328543159,2.561405334614266,5.608535224448609,6.455606433863493,-2.859385330715711,6.066748570913202,-2.4470109047215094,-1.863284199670564
1.7509797019581423,2.6574768266279465,6.512914969092763,-1.7032095604025677,-3.7855060631149513,5.717658184139218,1.07036647606526,-0.6531477829744844,4.799413790526248,0.7278104212039525,2.2989450545625583,6.018886660432075,-2.8491891509077973,-1.6615382159605816
4.698258780047116,1.140921880772078,7.134739587937347,-1.3977169011730244,-3.026656029333778,5.782822101934036,0.7279461818510269,-2.001136181848368,3.6372357714594714,-1.1905852424848071,6.45136269558452,5.705676944178464,-1.38991164379572,-1.0302918257916904
5.411207176711098,-0.0300649860395933,6.455250340039296,2.278570218584913,-2.60895245595238,4.872043751337891,-0.1478506998647866,-2.0744192850814183,1.5640008697320371,-2.7117544511618044,5.04917750198798,5.249494155227573,0.1635634792386966,0.5063120719777491
3.3529913199653474,-1.499324589202942,5.0590419888789375,2.151181007204988,-2.7318408119922504,3.214625493072813,-1.6702270083399051,-1.4590773405495747,-0.7846142506075439,-1.59052934401829,2.176339949388262,4.73722044154734,2.3732686334345625,1.2815513525316489
-0.3014645351461369,-3.381049209032836,2.450070173461105,-1.5263073407087369,-3.090771262902212,1.1663123677262983,-3.270028037929863,0.465519126219739,-3.5733493308019733,2.167258406697749,-2.6326809654618453,4.18952447410958,2.1104189148159858,1.2029076658759272
-3.253183840325374,-3.757760689589509,2.1652942050995247,-3.355048791422921,-3.21659352499374,-0.4921537990679518,-3.793152496270269,1.0476832875884434,-4.473754730194055,3.0786456481443025,-5.8187275293719445,3.672610583453195,-0.0245281299997908,3.023444394092184
-3.5592828864898616,-2.281862591556213,4.448726170211154,-4.566962643724992,-2.8398165887006903,-0.6835971545635114,-2.4338013174092104,0.176679445814556,-3.187327273726124,3.655892177694483,-3.255333593807519,3.3632112478800424,-0.618453930700557,6.5277536778789385
-0.97239979486584,-0.7956783930402033,6.451736773262096,-4.540441636331091,-1.9444579928617096,1.1951365276643673,0.4085143736480769,0.6389606550401263,-0.4698455778061915,3.1500234733472263,1.0422489958033792,3.522023001195413,0.6005263940033798,10.571565057275311
2.944248468377681,1.6846874652614732,8.990412251093908,-2.3867950122450727,-0.561025161790312,4.501388813487585,3.327248042757351,1.942310993353756,4.417243438488041,1.9798565580373275,5.608877074421272,4.4718707147633445,4.232085470838893,15.682869477849572
6.077569527695544,3.0144726813825264,9.043398860056437,-1.8369105444299136,1.356427298072311,7.475607718040933,5.081763290982087,2.09875374972962,6.439213014647462,2.24905598346468,6.7210894916501145,6.564251158183147,6.579537137335413,16.14769336118725
7.353237451053827,1.5654274520397502,5.976658440319058,-2.6501256293543345,3.734507626840657,8.405000131588245,5.594096071516857,1.400098830118483,5.3006097529063485,2.0951185630898523,1.8928327301809675,9.93411755879513,3.9039458990165694,11.347873509491077
7.272481373552061,0.7136638416823686,4.587705410936775,-1.6199711158038477,6.036348845291388,6.888655948688377,5.738034966912442,0.4761762236558294,5.074841790958089,4.991448370106268,-2.214169186331632,13.99259625277461,-0.2808653305145979,8.509636350673821
6.979286274105381,-0.56051381585488,4.198081159169144,0.7143448858772384,7.21998600682607,4.065387609994245,6.149341111314188,-1.0224934198904612,4.633231541067714,8.920795512921448,-4.386635191024105,17.099049112756216,-5.35409955987525,6.444401993854549
6.854644068900878,-1.6054361494507663,4.219175588245966,2.934728575654808,6.291116030877353,1.611195472714435,6.377328551206069,-1.0229826240878055,4.778612024895017,10.008576934100876,-3.709000317803952,17.09831221019741,-7.801496860439386,6.220263380715486
6.101023087175333,-0.7408301443232974,5.521121375955612,5.498925319812478,3.1925611847029227,0.4617091097266605,5.409713851811086,0.6789974021373859,6.079857135671225,10.24004424429026,0.3393906420255124,12.825919811208152,-4.668823563828329,9.269496894404254
3.7616485113881737,-0.6957516630227627,3.890042311957425,5.589668937155318,-0.7065115465447107,0.3985732654068066,3.125015184823411,1.4502687974486612,5.433020929941229,6.6637047872861945,0.7313800426601993,5.56767820777237,-2.1460867096354868,7.94439269683864
0.108554053072595,-0.7443346089489958,-0.8079896607043466,2.7551284968789056,-3.1622593852325807,0.7036707653840732,1.0760506601326671,1.7021754115687011,3.0165215840806194,2.2483507150634754,-1.3169620523692904,-1.0361394902968044,-0.1110996186765989,2.5198118559151346
-3.119598188637271,-0.2906316124716739,-2.7101848168449343,0.7659290515251281,-2.5128222798784954,1.0444159284403387,1.4892891378376092,2.1929483208481804,2.3968568234145704,2.0274079592123293,-2.8898826637078456,-3.16106708645256,1.4313156578823554,0.4525106779803633
-4.0291615762223305,-0.4995440173742663,-2.432419294900383,-1.017357571732031,0.9805830578480615,1.6697767835433055,5.155029457298443,2.505407294586161,3.197669948505745,3.468448136728316,-3.441476694701112,0.3314870819564017,0.5446950959311656,0.5856881584477166
-2.2543199189721097,-0.0607198688408046,-0.2166572892170528,-1.368300946265351,5.078606919360629,2.8597887257864816,10.218188546216236,3.600602965012191,4.449306507017912,6.665822634315457,0.2791224928217976,6.718841608057346,1.2327416827659832,2.3152542650505272
0.6035522663318229,0.4110354865076618,5.200673150785452,0.512414081617318,7.0499666363324085,4.383949669799382,13.276894562893316,5.571310251797741,6.84675945427241,9.000295436041013,4.736776975722163,11.212396187345965,2.968944935693135,7.025286759681696
2.24316016742484,0.3090037240553986,6.097493652583705,0.6317916465321832,5.64507693011805,5.621201392986507,12.065477813625217,5.684681817630698,6.571247103063154,7.168053343775253,5.910204928633406,10.489544178705936,3.093896869453724,6.790115021770197
1.5162760824815251,0.6546121670684939,2.3033576796062283,-0.6504087298080065,1.9863388286478705,6.1694218218324295,7.373301592827033,3.962944863533131,3.336545165748096,3.7070417756088174,4.111674307304021,5.095535233296864,2.4460323624830105,1.3605207469541314
-0.7520322276186633,1.232426439368072,-0.90502314236164,-1.6643127775899056,-1.3554048585640466,6.196684715197938,2.4070956502195973,2.284119468170174,1.3533329850791835,0.0537935053439064,0.2565463700406161,-1.2617984442044552,1.2704103147249763,-2.06149961769465
-2.607607511968446,2.601193995103307,-5.191456970954223,-3.117062018991473,-2.324986891148253,6.1040513612984935,0.1199161075478159,0.0912504871807555,-0.1483187253269089,-2.8941435186873297,-1.957816217836103,-4.8201731502370535,-0.8943568117173494,-5.038120219782004
-2.641811788238684,3.538986845854861,-5.922319228317745,-3.8758684507192394,-0.7985069374778639,5.901197622461366,0.8927794654045123,-1.0160577526556067,-0.8221700075228497,-3.656394599595704,-1.0142843683402156,-4.555831362452523,-1.8694150167339345,-5.3985239125890265
-1.0501336408468482,2.519841857249355,-2.096069301756889,-3.742096786748885,1.5675446044220749,5.071496032411032,2.5638996792555027,-0.6625562377939094,0.0972226478644351,-3.5299442946217185,1.0255417884500748,-2.423835764781469,-0.7182428457441088,-1.7998331097776512
0.7105526002078335,0.2761180593257994,-0.6184217348663623,-6.54279976065339,2.725574869051343,3.165085102749508,2.567755498336183,-1.242234179056239,-1.5393392118963805,-3.4896146283471507,2.540305305138636,-1.2059252092844304,-0.0677609171552404,-0.977474003497676
1.228466568150516,-3.597143572110008,-0.4046930454989468,-12.273128181826582,1.6523538704754692,0.4992212310300346,0.0833298116586043,-2.3640459209088243,-5.660596068515904,-2.951188695139946,1.4935831167089937,-2.130601148961905,1.2172403785931032,-2.3212815025743407
0.2494049421798045,-5.892367059184922,-0.6182484966518156,-13.99132200709372,-1.1904274955812577,-1.8637035742529449,-3.6614782546653615,-3.613391174424554,-8.397019820146165,-2.4618975582390794,-1.7202859195621496,-4.29522089979864,2.166312186264637,-3.628015576390769
-1.2716594402843633,-4.3492805711687605,-2.4469491258802694,-12.045342002169075,-4.414900241000673,-2.963108144684874,-6.8520062664323085,-5.379384409203632,-10.439289118434877,-2.532065777423796,-4.574754474245589,-6.026130998645755,0.2431269258333646,-6.151996525810049
-2.095739955557025,-1.9715758872422644,-1.6172672298197723,-7.3744310491208065,-6.652780112724123,-2.816191369136764,-8.64815957521316,-7.251022545047847,-11.328670381986448,-4.128937361737425,-6.382850563344816,-6.5944517553983175,-2.1856111801955804,-7.258063004927909
-1.7303589796564154,1.4328833419184273,1.917969994503695,1.6753008180556892,-7.2222376857488015,-2.4332771354902825,-9.410675945341191,-9.27354410460226,-10.322270669541515,-7.080112269762268,-7.285339267710412,-6.66352448490894,-5.613923682180376,-6.74375895595969
-0.7005712665639514,3.499431522183637,2.970196717095878,5.420788306311177,-6.252197932020621,-2.9220660546849477,-9.725591374461269,-9.082651430968935,-8.968714390049726,-9.305132214657965,-5.251537918580665,-7.261136322655592,-7.174070498387647,-6.175386036676426
0.0635810533595524,1.8392237862049672,2.177339314314432,3.528922110232441,-4.3803932359107165,-4.522899722039341,-9.51567184814185,-6.363301047036639,-6.906695923621265,-8.83054841077321,-0.8997261684733842,-8.465492954296348,-3.806801453278427,-4.916614311051515
0.0598694101549668,0.4551755817057501,0.1603188718514462,3.349116539051508,-2.301982981619936,-6.445583354888868,-8.190655540093697,-2.539535492690576,-3.7336380882126816,-6.001839023317092,1.978609919391234,-9.12944163398922,0.5173320197268196,-3.2337735516841675
-0.5023732142161066,-0.4816701478299034,-4.107566194706728,2.8055739996160245,-0.44332879052536,-7.558948290525688,-5.532623325036894,3.083407270425864,0.3973808841444196,-2.505477297078372,5.908543163062833,-7.8838100608208705,6.057242133915002,-1.2217609199946866
-1.1031568758370298,-1.041234009531485,-6.153850208884088,2.733168551308408,1.0669404715080724,-7.218613247674469,-2.26190709137898,5.143632748626417,2.526975831378365,-0.7181139272341179,7.149056404822682,-4.460550984025339,8.13387736746,-0.2195679083179669
-1.4476273588021478,0.2644623921986788,-5.900078173309536,4.0818572095990895,2.16404367124943,-5.560457778451607,0.324149528380417,3.1001916958447886,2.3928650543240804,-3.1212035641856937,3.5805767341398798,-0.1359586277048201,3.6853392246087457,-0.464638848279364
-1.5744171840986638,1.142717696210844,-6.239103959532168,2.052121025017635,2.6058444589079386,-3.2520427650603594,1.2417433016841315,1.8618127146223615,2.396789091483986,-5.281045713529807,3.626223692926767,3.06288221101871,0.1374024498509781,-0.630821213899121
-1.5854942726680292,1.1505635659437214,-6.21559659113215,-3.1693779610537964,2.0143217820141714,-1.1522522412399034,0.3847345880366006,0.1519226459774241,1.798528850840114,-5.221133021628201,3.0020934788004894,3.663434499705531,-3.830883703629903,-1.0973021333106938
-1.5016918113086568,0.932667714229938,-6.0629557032167885,-5.365137168128984,0.241607301682496,-0.1319373650932434,-1.6306609697405818,-0.4680909643611075,1.2586912797383754,-4.573300870119981,1.4722583444030042,1.5136382020266836,-5.73940197838804,-1.9402986019808643
-1.475325498701885,0.1883097043569781,-6.0688663781034125,-5.092417253902591,-2.247636400999932,-0.8620555822045404,-3.986091905637421,0.787586426028145,1.085290980830821,-1.873552327809718,1.9049433290673607,-2.404875877159516,-2.8060952343264347,-3.0225431198227666
-1.961088821341152,-0.5407153538578633,-5.688258563038219,-4.3234787898717615,-4.38815167710503,-3.371212612034016,-5.9801183244178056,-0.2105076804529999,-0.5015191272727544,-0.9758321096493724,-2.433102002085986,-6.665649157526053,-1.8940195895348075,-5.452955698613307
-3.3541994284311194,-1.0998819536488535,-5.0506819085730905,-1.8250938153822285,-5.040621802376215,-6.66199934773367,-7.018119779648634,-3.0596347157987487,-3.35786483162938,-3.057925114802986,-7.194650420105139,-9.925066700520524,-0.6490099103908553,-9.306230397549614
-5.298601073633044,-1.0324609836657932,-5.049131790202261,-0.3243807835331134,-3.705349087701488,-8.972044083621471,-6.627415481158404,-4.609785042918447,-4.56611608951392,-4.645212814838053,-7.243854202183816,-11.153205140716196,2.2295023653944788,-10.29431115863609
-6.521798770157502,-0.3403644440597024,-5.70962504658211,0.0219870384539615,-0.8963496672984359,-8.82028281824564,-4.783453216722691,-5.430167333636699,-4.229398151204001,-5.45737822940469,-4.203547412442388,-9.925004160730346,4.3125312671981,-8.323421315808316
-5.717388216654484,0.1912685432837806,-5.35462681685826,2.379886736917128,2.116401363861921,-6.126643003350809,-2.30132841179449,-5.007977129502606,-3.003405215293633,-5.831618490162157,1.9514423496287203,-6.896089493802474,7.856699155485445,-5.502164232948796
-2.8439759471721118,1.0117533068616718,-4.08295895336938,6.276960617840731,4.023441550080732,-2.388114095601325,-0.7058850410799513,-2.712223823503176,-0.1887442062235944,-5.890135255878404,7.91016189649951,-3.9196611421519063,10.940355267099124,-0.7937242876774938
0.4797644096938465,1.2568274448220254,-3.0750673493424268,8.061390034746783,4.17361394223093,0.3870104435560353,-1.3311575560225528,-2.151603992132577,-0.0500780464834793,-6.502070512502149,8.082604559697074,-3.154113915851036,8.556574235883627,0.1881707100612912
2.101444801219113,0.3079718718497419,-2.03907170375535,7.969453613555133,2.84338948513156,1.1578265321892252,-4.185540719576485,-3.219912653554269,-2.816308264601641,-8.618007347617953,3.525110609837397,-5.417097613991492,3.0215366494731053,-3.130624404316149
1.0951692530117143,0.2564189985288899,-1.4459904503802905,5.969538944822756,0.9926536531127326,0.4904013663599222,-7.577179122008694,-4.634120295594383,-6.442252180999887,-9.472163628829914,-1.0067683040190574,-9.134064286577868,-1.7301961158324863,-5.847666411533466
-1.4634494538846168,0.4128567707818291,-1.5137760689807875,1.1462261901013902,-0.2884182732981077,-0.1589946866928873,-9.058077768951524,-7.1856539765747405,-12.013016070637816,-8.407633271100057,-3.630559505570145,-11.15717475299198,-6.639809611819838,-9.314072200432689
-3.444371387038556,0.1690533410160442,-1.3833204688189304,-0.6536265074243975,-0.3403121714840402,0.1732770500654474,-7.1639719819827885,-8.040603449683703,-13.862727396765766,-7.442264500716122,-2.806835388467309,-9.19691295094723,-7.393363733474498,-10.358826520813924
-3.440002198138096,0.1429360089693168,-1.2093049095868644,0.6517066436156763,0.7425778038472437,1.141420484308135,-2.6285331190345325,-6.993569776560552,-11.463435602766056,-6.497699032511258,-0.7729326575285215,-3.9455411995920215,-5.718760540222018,-8.07623975161499
-1.7512415661886322,-1.408933190671256,-2.178451640395309,2.8583104237828083,2.177790934853249,1.5010059264999145,1.98610681936146,-6.539797177970073,-10.014364773411996,-8.215602568912473,-2.7092832510201497,1.086319031994968,-10.465766290423137,-7.711965762489526
0.1818748151215494,-4.193172670145326,-4.269975315281468,7.385254376686931,2.9659120398556134,0.3119965433393155,4.08120229356064,-6.059805739848543,-8.208874925382354,-12.29788602154616,-8.559178811752341,2.1500236126711165,-16.96165238503741,-8.461337986784455
1.1723698016722892,-5.395852691231233,-5.595849961972037,9.204253010794035,2.55131710472779,-2.1356169760883503,2.880229632661731,-6.330057990786372,-7.638301117535713,-14.315551196561824,-12.251982623759124,-1.7715281480573353,-17.803733791790712,-7.766758335907515
1.1330133030009648,-3.956280373106108,-6.290154040582008,7.992121868505208,1.2355352542762148,-4.440916609647836,-0.1236911046984907,-7.768221665239444,-9.156542651209216,-12.557230002305769,-9.51814530500282,-8.085489683997238,-11.426374339391357,-6.337020702820875
0.7422501215981967,-0.4634384012945125,-5.262602434806692,6.865088336640084,-0.0347272191376148,-5.134461958189476,-2.4871030440938,-7.316385718437769,-6.825911128545956,-8.213555728233938,-1.0404595878532876,-12.540184835564474,3.61231594615813,-2.593222980906564
0.5259895237520453,4.946533846350189,-1.9464479128956516,4.6132469685426205,-0.4290866910865105,-3.808296720848368,-2.791005538904301,-5.087488919187453,-0.908876973562461,-2.5044562927327982,11.763379889426329,-12.35421027040855,22.69893248088103,3.977928206866797
0.412425738760561,8.23994896237842,0.1055876599391112,2.843909926377088,0.0604203157995826,-1.459320275863078,-1.6099140720682923,-2.6435136325628203,2.5421239918768936,1.675233272645415,18.823016504216938,-7.965391203336061,28.984246718329853,7.738461971912518
0.1525021374242356,6.511033271106865,1.1509660294945852,1.8924402184269995,0.6186916341303714,0.2198414667233237,-0.7033488345586605,0.6296015210643775,4.382050137951921,1.2900649044526171,14.562024885514576,-2.1665154922204835,19.276404812707085,8.811450924228337
-0.021155760900001,2.9245219015023567,1.1036006583087667,-0.6836884798031962,0.3515029378045256,0.0845346323903015,-1.2289033268697267,2.589150892200526,3.492188605475768,1.36660323147885,7.254036892183863,2.328673567393338,8.026144737185614,10.797749331428868
0.5900874330807895,-1.4488981019764808,-0.8698350571121027,-4.54904672884068,-0.9126606937482862,-1.5991564224521255,-2.632114273550613,2.921103056285633,-1.4662073354521556,3.643344057203487,-1.0349569269570351,4.680365753134993,-3.8317611618918153,12.57902414275276
2.29486941363556,-3.8950229261677576,-1.4419669299455604,-7.564013938224228,-2.525039863435829,-3.3226355383938118,-3.2081182611268915,3.858890608739486,-1.9697538024955616,5.54861622618813,-5.995735286932266,5.754965710053703,-8.614941982251402,12.713475269658558
4.175581449236063,-1.7468955815584124,-0.7579013097543383,-9.987326284979977,-3.669042715117257,-3.4296451145739084,-1.7494619837979428,4.880015075769848,1.820608185193612,9.557434605051176,-3.9848088428437727,6.608573055782898,-2.9211771348912703,11.431422632634542
4.3383568418511445,0.3773324235894137,-0.0810303208424376,-11.374531828689314,-4.044984723012647,-1.3393203265987523,1.2989049208015402,6.784739129478868,6.071140464857742,12.60256589245958,-1.1774015366032584,7.329513452074181,-1.728671777953,6.4787997082082205
1.359262942814084,0.4540511207167808,1.2716230271733984,-11.211351127710468,-3.901194559811103,2.003382307075533,4.224693056847279,9.969995094884595,12.62667415436501,12.628644154236108,-1.237117486618332,7.260679167793825,-4.340186121024126,-2.701256687020904
-4.23464825542078,-0.5974823983057338,0.9882512383654696,-10.17242147202773,-3.5188328803477447,4.776878531836488,5.508957477550212,10.700688602945824,14.37738871630931,12.632898110729984,-2.800916382496025,6.043409644472831,-6.244847161513688,-6.583179052225707
-9.901431468135796,-2.9856342004511647,-1.140933019669299,-7.921002233595019,-2.881200161717288,5.543971337409516,4.932485338761921,9.019371548404033,10.559958304098975,11.573794904162474,-4.986217427665311,4.165460302590077,-8.200425489040171,-5.126285628660143
-12.747823729566576,-4.281598785510704,-2.5658574977769555,-5.713679990831472,-1.9620620277238745,4.205541461912446,3.4098815021864226,7.011398157692458,7.696584417088117,10.656497184051984,-7.843593774837914,2.461997709565992,-6.898438033457534,-1.8867319958564173
-11.63001104608874,-2.8814671390091684,-3.761277393054542,-3.653480475662645,-1.1928759881935775,1.9878082490604072,1.9837152869390733,3.885371349112452,4.112140851113024,10.654180790505048,-7.229326330969598,1.3115959438547409,-2.8899507412461074,5.441192249937108
-7.901577717061059,-0.4182075583157555,-2.6818513453682598,-1.2483127460202694,-1.3104006783668751,0.5397493458814893,1.1407032491665916,3.6022315876081867,3.884359072454922,10.801904146308772,-3.1890575065004345,0.5641844634083526,-0.0237351695723025,8.826283691489794
-4.173351216173771,1.1014197382878204,1.318427545918091,1.15643759194098,-2.4795453094711637,0.8633579883015727,1.014602520697082,6.7057147374415855,8.273486377825405,11.98804748924356,1.1299046225944838,0.2399184826246028,1.8684396845500992,7.760433764365859
-2.2089218296883644,1.8217978333992488,4.977207531098789,4.129709394865875,-3.6016358639498094,2.869688435457732,1.9134211390870632,8.852477546666792,11.33951359526389,11.317324978020862,4.76427866425566,1.001318070041421,2.807898992529469,6.96258101891958
-1.7768986833005016,2.073257138198862,8.879489959066598,7.666487757952802,-2.8128041131513584,5.795072264353834,4.281485629071341,10.981135760221898,14.257495119627174,9.760722561828503,6.752352399775667,3.609899472242134,4.733136874966787,4.480081211156072
-1.3047477587839325,1.1918970842377852,10.763455126756911,8.357872451225898,0.9423956418335564,8.978305011522139,8.009112524193725,11.43645435118076,15.04407509607285,9.260818511497476,5.561757859268995,7.831004875523874,6.276268668538151,3.511344362658513
0.4502135311762032,0.7612318989533371,9.843794754674787,5.993953672799119,6.622235623135452,12.221236236676532,11.931982929488342,9.389062549175602,12.555676432988085,7.836752433013346,2.592187727560106,12.053396482917805,4.364546341496396,4.57333041824392
3.256608990747793,1.86015122097261,8.986633328913397,6.122574582198302,11.433745344213747,15.414318859146306,14.300398117748358,8.48314890593151,9.86249721162501,8.806452874109329,2.325698558258622,14.247439257054836,2.4637678761820045,5.348913711385763
5.677839411973174,2.1519920046237715,7.431035260253977,8.23783464139278,12.754240459616426,17.908528853729635,13.97947391103378,8.19929094416046,6.125592091957097,10.58536815798338,1.943877779059497,13.47513012427362,-2.3849962143271037,6.702513581329817
6.356921308339416,1.717283924975641,6.665354998286095,9.01927058857325,10.078093625077102,18.4591676014917,11.307598904994236,7.305009146494235,3.392678237120136,9.6199667002179,0.9312103075667748,10.55225699291622,-6.801669469401875,6.82421016107394
5.174634196309327,0.944837358191874,7.177302883303113,9.384390771992798,5.337686887753151,16.028421076047977,7.8045525163139615,6.362100541940245,2.205360779882045,8.496704908870111,0.464032675804978,7.306405000622561,-5.539912100261799,5.393993475521192
3.397320288504716,-1.5309262011398812,7.86345337168263,4.361125537981074,1.3620355502385877,10.787151393581476,4.998169372406245,3.737474505025464,1.064164774191661,5.68710581366443,-2.543299962989828,5.213495312198461,-3.746052969628643,3.6647572316920543
2.775092151793501,-3.316167655822462,9.2712172543446,-6.99446555587255,-0.1668293334113499,4.299075555265787,3.4170649458739746,-0.7864482026109447,0.6599175168676481,2.5670228145610965,-4.870895053166491,4.633876677925649,0.2822884720765819,1.1146061204477082
4.291144498617399,-2.771265892446785,10.469095119604768,-10.666185764488512,0.4106544641305376,-1.43596834288617,2.5506750828488194,-2.881938231640184,0.3226654326534875,2.2218441253605663,-4.254316303331712,5.084928477375151,4.526957623650151,0.3900218956730305
7.461438854262845,-1.3039263255750382,11.38607684085182,-7.1033181868371535,1.5279054233679403,-5.294734667903533,1.637929748316239,-2.660252283487321,-0.0185910788565329,2.4334111637022584,-2.5803584884141397,5.969881844145696,4.590954047542068,1.802767929149956
10.682359866269143,0.3606027117923817,12.037684776680711,-1.2864080187522882,1.9013676604772485,-7.547949501705474,0.4546286000676502,-1.4335000241952702,0.1086839291128358,2.2529245027618696,-0.3142279086113532,6.966396037263813,4.486874353119507,3.886761262576969
12.37279202020187,1.359844894175468,12.148693301074742,9.907070678328134,1.3696435552670536,-9.201795462015491,-0.5971497515097681,1.8047461245453733,0.5563342806004539,1.215637745990165,1.5049282276304063,7.8822598109488595,4.82753189152555,7.387858717793773
12.053032442086916,0.8203801592782574,11.331003908253724,13.36947412911449,0.5430905655789289,-10.899026174156973,-1.0704166206442594,2.1292467242698043,0.3963528972429943,-0.9363671987954616,1.6579380437787357,8.396018038448208,3.691756704596907,8.244663087103167
10.54343016508027,-0.1064631277362619,9.388789995469375,8.113609977058173,-0.0887559391899444,-12.428899109203584,-1.0854000981105827,-0.7664351074408162,-0.4218881222442053,-2.8354468158507267,1.0009217658563063,8.105231155153454,2.2140847974623123,6.067275161758736
9.18196940836646,-0.1308361693837445,6.594946254027033,4.61015233670248,-0.6011366796336262,-13.15647615667977,-1.3429411746527062,-3.4810337370390685,-1.7837318926672068,-3.006234356674469,0.3962755435005766,6.854680069619786,0.0950551115381026,3.0520046138819628
8.769049827654605,0.4528570644746837,2.74426236013983,-0.1623087619865833,-1.3111214044436157,-12.74988117401526,-2.475014039136134,-7.175616397855685,-3.97359104698476,-1.9800397575002255,-0.4065519941109818,4.982113244364765,-5.005288908239116,-1.9033201647586624
9.1008846605432,1.028717957900641,0.8379948511206617,-2.046448679051062,-2.229481691524887,-11.423285786370837,-4.2913662219861255,-7.347996417251672,-4.682242519091141,-1.3380975528975567,-0.8030313634906423,3.2099513899517627,-8.196500815769255,-3.814673171470759
9.339178169460451,0.9139329673327172,1.135632475809522,0.5565208188901954,-2.97190759725102,-9.567376470645574,-5.632358284844433,-3.256192280748886,-3.8043450881980903,-1.3487192925547455,-0.2288880977808845,2.2467545515041323,-6.752671405931553,-2.1989994548297207
8.737601242631008,-0.2320341045280511,1.9604685160009208,0.1907365320693565,-3.1896271903316773,-7.301518357529339,-5.082372199171365,0.4853950212279971,-2.3711350478477056,-2.629387635450039,1.323904201694879,2.397404246481708,-5.176534420979349,-0.8237680526720846
7.098001738325923,-2.051712424648337,4.121031431074766,-1.9712797513803515,-2.9620016304532086,-4.469191561875096,-2.085109219733752,5.035489019468463,0.2065182371305209,-4.091715472502693,3.560689569940029,3.428613449259977,-1.2565734309125491,1.5472247540902346
4.755692320646446,-3.140660803272704,3.461640649176695,-3.395514317846742,-2.672757415612512,-1.0352442236268793,2.3938064092612272,6.165344455394812,0.7807048851504454,-4.749640717894328,4.455970465848681,4.709184400092383,2.359375367603552,1.140232384995872
2.302802430143352,-2.635290887723577,-0.4430982555098797,-5.171990159411831,-2.53245522065081,2.595749984230352,6.243749580012093,2.8392538606543134,-0.9212523860170988,-5.167647661356567,2.790401431371657,5.455051886894104,1.5736912330338275,-2.763576263759099
0.2674085378748998,-0.9329808839780072,-4.127004766042511,-4.579382740081681,-2.3367586628353862,5.709331120754058,7.458729230877097,0.9607108215797628,-1.6622254045835203,-4.60621928317245,-0.3266821755673911,4.927280516447524,1.90483570749468,-5.013002376948193
-1.1931849662250045,1.665011366500054,-8.605370670974136,-1.1939345653727034,-1.771194364759758,7.74598738149529,5.42372782342845,-0.5871846883318501,-2.121158406362229,-4.166861086175801,-4.011243735062616,2.598149586478783,3.062169920471902,-6.490357408866632
-2.4805132464939703,3.5010802123513134,-11.113243319232968,-0.3559660008202654,-0.9156836767242708,8.653860328709214,1.3257489039138193,-2.351442487097204,-2.719765263669479,-4.9632731795034015,-5.488232313332059,-1.5996241981155777,3.0966110917227905,-7.457973184338161
-4.363823045015977,3.263571313325455,-10.991564882293307,-1.659650203217834,-0.3328314477119818,8.798411481597256,-2.6254501837027817,-3.415694792657742,-2.992444475042716,-6.648389284175392,-3.7160999799945102,-6.972981744373115,3.708964673853048,-7.033005454758503
-7.31694306898234,1.9030939713407995,-12.405988003665517,-4.692880201714232,-0.5667857742515707,8.528910946251756,-4.639197695056012,-6.913037466024719,-5.414558392790113,-9.525984389039646,-1.7457949622845312,-12.020413530512895,3.121296021978153,-9.026711257855906
-10.8329794011713,0.5715524546518882,-14.679890405635932,-10.661505089385008,-1.549583017548798,7.8330911587711824,-4.438972263231591,-12.84827250733484,-10.124973382544644,-12.974717017291974,0.1005854304816095,-14.97687305075766,0.2813533677590039,-13.442106008847956
-13.468774175636568,-0.199452000845102,-15.752567155675118,-12.467996073197984,-2.5640556936288306,6.425010530844261,-3.2523238112475497,-15.317845841692916,-12.25652145778244,-14.689266700570068,1.2462386468766076,-14.874130137412491,-1.9440910692929163,-15.21962595562874
-13.8673526881539,0.0596204688572398,-16.165136443849097,-9.935168364247405,-2.858758356694466,4.163927632561169,-2.765874277029411,-14.554252656873183,-12.060922080839676,-13.739332572707069,0.9282726207023376,-12.438746148698584,-1.9023843721912583,-14.869546478457234
-12.002392503228805,0.1858934732186739,-14.916125789283152,-6.724604586878895,-2.330402995372665,1.3404925331166029,-3.882922050961412,-13.201821015379384,-11.175366965642066,-11.6398943643261,0.6965304986807679,-9.97631361105175,-1.4656173497436702,-13.581104512851097
-9.433952621873374,-1.925158017509768,-11.601432090682264,-1.1750838526160094,-1.594089009957429,-1.502206116266109,-6.211455294352732,-10.008219241694157,-8.55193991302772,-8.813604983658172,0.5113570244446668,-9.999210138070625,-0.4374999069482418,-10.347476707846406
-8.11707873077566,-3.887008819376964,-9.454897647741948,1.0992409351049366,-1.358364849781708,-4.007586873877557,-8.553643655798567,-8.445359474303405,-7.399117102758069,-6.617949411899721,-0.3710291259859523,-13.379105341186488,0.643634449478224,-8.438886497477077
-8.68284927378079,-3.5863695529208024,-8.322655999625066,-0.5518397659845921,-1.7136642514714708,-6.160541100136697,-9.855419034010254,-8.909416142883638,-7.920687448337652,-6.4948502773747645,-0.9998359088810572,-18.400333016427737,-0.584400706824658,-7.975051953339402
-9.762232530688095,-1.9018160158120156,-5.79746469769804,-0.7987968251740305,-2.0362552700376,-7.936133372221548,-9.827016280499691,-8.202833488560927,-7.131852153345016,-6.540446853443242,0.0255533628494339,-21.631790311385487,-2.7333271208093906,-5.255699143588656
-9.097183524396796,2.929156997818468,-2.4330529457618963,-0.9635652026892316,-1.6110767589219108,-8.894695031462476,-8.901000427630777,-7.139515094265167,-5.694137708701858,-5.305417182161216,1.993958514391187,-20.22425573485137,-4.159739469926029,-0.8399861845881477
-5.560931910632519,6.654684742110062,0.7278195662408731,-0.5227653654788557,-0.3701428226484324,-8.363929296300512,-7.79808079917521,-5.762812717072021,-4.142458209860021,-3.4654357257733404,3.55162097198254,-14.03633143756511,-4.067392440097367,2.0718700679891167
-0.3083159156720114,4.726386700830301,3.944886151959476,1.289809828352137,0.9867980866526408,-6.188910927716506,-7.121069659238941,-3.661941506467141,-2.0805990350672205,-1.1513177367931535,2.767495374580161,-5.921995381045946,-2.288431147731106,3.864851216890393
4.012726364393757,1.5522296055202058,5.743362030420226,2.02888096967938,1.6320826616532995,-3.219710641917999,-7.106782309509782,-1.282239137696502,-1.0028074174232515,0.968267930136026,-0.6425539464981469,0.1949981435538177,1.0501833283009372,4.037979478750407
5.338610082108346,-3.1052489351937256,5.801368687994278,1.9658670626301968,1.402362101298138,-0.8029026773050987,-7.461339501083557,1.5151292484341117,-1.0175138077826853,0.9879708983811272,-5.165726433067229,2.0715760869550195,3.992750810184104,1.8351205511567923
3.753247549291558,-6.365205651302932,5.518943473534302,2.963013750794249,0.9611299923217588,0.3754423394387913,-7.362023693869901,3.179445887144209,-0.6807506166443875,-0.1968200746253029,-7.082141025965459,0.5638386896446264,3.9627290742866417,1.4492975509297814
1.2138134244238472,-3.827716822400165,4.454539782723028,4.7155729632038765,1.1428417819299457,0.8698742704541189,-5.880044439235235,3.524149267572698,-0.3069918211672554,-0.5125739132756055,-3.3577883922449234,-1.4170319796863566,2.834408556825458,2.7579232227878
-0.2089044853757684,-0.7584224675473061,4.061506035763319,5.835388043125208,2.101890285102172,1.7247796567367857,-2.774166379461775,3.8097097049408593,1.1658349181617171,0.5478050615542952,3.522481765679491,-1.462350343157908,2.9533040991385278,3.910956916391305
0.0749776848704186,1.6502882079520829,4.615842615778618,6.541049741663295,3.110313582263132,3.105207174755492,0.9833238430542224,3.6305120813393374,4.068080472828985,2.7636275182925547,11.678596410445495,0.5225868022902205,4.285578791494603,5.790403587220988
1.1067769285392046,3.011218423649741,4.02092235268908,5.716839923312148,3.2318693243970245,3.850765889423201,3.6648357423479183,3.221243717068948,4.899325064043921,4.53516678307112,14.545815694889178,2.767171760013383,5.440771259885526,5.986027489578325
1.659913870349868,1.605803812940676,2.606043639570669,2.968862364124046,2.2381568623987675,2.609483445820615,4.112790093255313,2.720002491621903,3.7713707917610018,3.901255612088538,8.510344592671634,3.686884478390113,4.420097897386064,4.227764984550126
1.439516240459653,0.395614374720657,0.1002136573666803,1.279959476634948,0.8769143887811879,-0.5445798324035138,2.7931419549694567,1.3276122717308914,1.8501137788647888,2.130661411465012,0.0616307829217182,3.3784659444137333,-0.1653494571067524,3.4509471176819435
1.0375584836663734,0.7235081440966205,-3.9125530637474575,0.4293412296602084,0.2155991383790478,-3.787800687827712,1.442896196280003,-0.9121988412939136,-1.6481698482072376,1.2036039849480094,-9.649933651376251,3.090570144582614,-6.929777167281014,3.167619394556501
0.8987792769495684,1.172116027961023,-5.087772959623508,-0.2954723194280118,0.6681563384190952,-5.039479108298565,1.472880556504066,-1.5391029948698942,-2.6117281818271048,1.7637720908483008,-14.385606164440125,3.3926028649309217,-9.964587212952216,2.9753631670872998
0.589397508301829,0.9593350046178416,-3.276441643340225,-0.2744713096690093,1.6078820588225256,-3.858690796879386,2.639837527091544,-0.4929199577078083,-0.7318647882658396,3.800105506445894,-10.446348040518368,3.180863806826608,-7.693591493081676,3.366088848947604
-0.7562792349541212,0.0613928417566853,-3.013940990177721,-1.008830592300622,1.918747589864893,-1.8063716231476263,3.389732381181844,-0.328810265927087,-0.5475528644180712,3.751792217674752,-6.96944366479072,0.7820768375810161,-4.165706116692402,0.8154598416207571
-3.2895816276705148,-2.252796359617478,-3.4816073425268006,-2.509630989875567,0.9890248700897644,-0.8430582567982299,2.616417123267823,-0.5827448979637295,-1.2316727989590248,0.7517360869091702,-4.057137379369183,-3.8749981723221794,0.0596004284586639,-4.894155458153163
-5.870143600036286,-3.444808190844321,-3.90796474500198,-3.0843569006267355,-0.7099887853166251,-1.3439943868390856,1.0367204522919025,0.2380577144009916,-0.5220740778607835,-1.6648028783124476,-0.8780236064717268,-8.341144223839976,2.496270534717365,-6.155818856268322
-6.744183037441189,-1.8101435175904057,-5.013081365735589,-2.9580274074816657,-1.9292567946623649,-1.7428408434603853,0.6527973663791045,1.8373470253179072,1.0257728256067549,-1.637610031743036,0.3115746684382504,-9.19657360647284,1.7260440255827716,-3.2774376442628057
-4.903948746610062,0.4859939305588659,-2.8809474541870537,-3.865266548375151,-1.573578008723132,-0.2059259187865905,2.7157012311729645,5.44973924414751,5.352887134009487,0.9079852631533836,2.2999488295201305,-4.858934611834911,1.7526590779573408,2.548718472111448
-0.9472165671110702,4.4044570674333015,2.7350783208485314,-5.638318161124673,0.4410754486123949,3.290303277973578,6.242138348427716,11.473775868251424,13.015371116505673,4.96353609647463,6.431163714583894,2.879060052038134,2.764014677189817,13.149843792508875
3.1979275654384587,6.161709268270164,4.237677820072971,-7.310298320052434,2.988233401454682,6.540181135165438,8.698880373082568,13.440372248597114,15.658771365412957,7.2811095053013055,7.646938536249899,10.018784717802134,2.458909333569528,16.212599491827213
5.351883459370952,2.7465435974807857,2.051755002241587,-9.18332869881086,4.301090734959847,6.838558999816665,8.308589724944976,11.24393022071355,13.259676232098382,5.646526690966521,5.380939491016401,13.241324129613696,1.8138190021521636,11.162788344991418
4.205248852255757,-1.7767574318647037,-1.3785442017793657,-9.522555813448134,2.9692400883578074,3.3211437393127774,5.7360579793841815,8.690238020343683,10.713790290183738,4.862762150016643,5.501349146171042,12.073118750987312,2.266531191049709,5.686509144187313
-0.0258937084681036,-9.210225805149664,-7.680794413686325,-8.042563185371387,-1.1846665084671102,-2.193915440276797,3.457180061102072,4.313036585537977,6.191872846821502,6.382009908083096,4.314172915201139,8.68021695665626,2.248739513570853,-3.1253196442206046
-5.5669925993661735,-13.214663347472673,-9.254831379015554,-6.477743622296312,-6.820893933942941,-6.595129723480568,3.3954052675761237,2.634312010751255,4.658169851907728,7.710341612393129,2.163364629021213,5.779920182582927,2.3116461673804927,-6.2363135940785925
-9.733874100082744,-7.569392562577002,-5.540914366999238,-4.370701091684811,-11.597079881345792,-7.847831853505028,5.124141136113195,4.346825262154392,6.953703073369926,9.92666257172465,1.1069948489019208,4.637185894365871,1.99347405140722,-2.2441421523729725
-10.212258113759304,-0.8931716887828766,-2.6264363130745703,-2.4048366052066457,-13.303022105518778,-6.322150561080491,6.361451204327778,4.735635621671781,6.554458958342542,9.672039659819315,-3.543963286002133,4.71201296262393,-1.058536574257023,0.1925117796157576
-6.458661732934559,8.751178483234774,1.2400238530603198,-0.8634019480044876,-11.06708408257387,-4.098709307305512,5.214534379311459,4.912565360403709,4.578068072653935,6.428444699938945,-8.26256807199045,4.836689964212894,-4.192799157656557,3.385207797307799
-0.2546951691278991,14.929775667286304,2.968640291904717,0.6123031743393411,-5.9299384219657725,-3.073213560833437,1.9557614897859708,4.047821539930743,2.5898056260296003,4.390534326750689,-8.316052555469478,4.497919731378971,-5.214096218594417,4.227873491407152
5.285452132723606,9.33079400695932,1.5570670176866752,1.7268378600179404,-0.3353404617129172,-3.580933358204163,-1.32965369678476,1.398317354677492,-0.4046254507801103,3.2453746906135343,-4.92878472880972,4.015991487312931,-4.313318243216436,1.352863055673667
7.805326761155641,3.7184701358362826,1.1770529466158932,3.8258739713563736,3.277520312856097,-4.570323172774579,-2.7434139919216136,-1.0724844435720735,-1.8864587327198177,2.707403310595396,-0.2640387152112923,3.745126650327791,-2.01155925859829,0.0650996653891606
7.343232126057217,-2.6961245333879926,0.8994733436452556,6.967094099541233,3.943008968656045,-4.869336719993783,-2.1940931427772625,-3.768096979760336,-1.672674914864832,1.8929932902091755,4.488383994561825,3.4336641298001496,-0.6959949844597915,-0.6350391994370302
6.097462944100414,-7.455498395896631,1.443356313314384,9.640712757620236,2.703812229788241,-4.229694875705263,-1.146064350762856,-4.475914125641986,-1.4825501264676038,0.0878211112451088,5.469906096310922,2.568610185253135,-0.7074586765421099,-0.2454396425149551
6.408365714121089,-4.928387716947616,3.477851770694377,12.088411239605684,1.7995744068417707,-3.2721025050599337,-0.952481214865088,-2.6812943699530063,-0.7273008277799382,-1.5207232820107617,2.5614701591615443,1.2960029347788122,-0.35690032876121,2.1418320861471294
8.65807997542214,-2.3103952597302664,6.191274409988877,13.845654583420364,3.0594297205856837,-2.601282615895741,-1.5536760872693094,-0.1491890861726784,0.4300708083151013,-2.78046917935257,0.58596377620997,0.7374356689621777,-0.4727542304631564,3.389711812078613
10.953855075540332,-0.4667063761693573,10.04083136311336,14.581269437122856,6.642150319460484,-2.0676715002867923,-1.771976898579851,3.8348449974135503,1.8343465578380231,-2.545357154976573,-0.913818386918227,2.098506137236541,0.7263306005943687,3.788099849450101
10.905296364425226,0.8020368852661175,11.403905659070672,14.546976877180912,10.986884119366325,-0.8590859452956465,-0.7182175093703336,5.516439637579897,2.537740929285943,-1.4003125044961553,-1.4268841535353194,5.314689957345536,2.6733963733344543,2.9381068842696414
7.8996294637343,0.5153572458215312,9.971288383428083,13.460513780159912,13.910138545988048,1.7500457114937262,1.2323085293015763,4.444811847329913,2.3354944952686254,-1.373964379375174,-0.3181618648863878,8.64130743068165,2.9673720455919472,0.1250943018215686
3.799968495031635,0.7981086237512964,7.35917157561061,12.250666410089655,13.981396639903435,5.7154941953052685,2.835643201517769,3.315617194565426,0.9046285842274422,-1.70759589378093,-0.5751224493893079,9.79026229330077,4.492625453429605,-1.5788881331041569
1.413789170792029,2.7003563745041825,2.5615948426850137,10.90748517100096,11.246286792928458,10.148438550185231,3.202065245957442,1.128107345002119,-2.178099563318974,-2.2193239888592142,-1.573182419845782,7.704794363201245,6.162361382665001,-2.363858666468301
2.1020634282529045,3.836664321659207,0.7979435630551044,8.899908133343612,6.969114062195899,13.795386982670266,2.5325330174139253,0.2375044800521712,-3.955610033660719,-2.956197201959887,-1.6360521119337228,3.395651445071394,5.28195230942761,-2.697284450900047
4.646742394784155,3.405913288003587,2.4712231890520164,6.4153568113242265,2.755090840945627,15.619024779153731,1.7121565724913808,1.0515053360930076,-4.465006013505556,-2.492389264115105,-1.0052883256577492,-0.8769400246388841,2.4080092739596632,-1.906096446818193
6.324597854508511,1.1311554227073874,3.515057397993808,1.987004441429378,-0.309925961013505,15.120489941164124,1.3548007545596192,2.0075805880537008,-2.949970944675357,-1.4874338344070124,0.1538180285550369,-3.2754000896295565,-1.9837534278458917,-1.935469503337237
5.186039792802376,-3.3598641729672245,5.159727512353634,-4.578784551981462,-2.0346139772510696,12.404564401442144,1.3620804326193363,3.7925794810783016,1.4568707147144049,-0.863477498745262,1.8218133840974664,-3.443690514366949,-7.494844452809923,-2.7417253444855576
1.594527715561071,-5.434684244385388,6.004204362431587,-6.7125384037659845,-2.90493411047612,8.186906363283015,1.3492457967552127,3.941911203243512,3.2802715690586224,-0.3619798878245358,2.398710552043371,-2.2236049336434007,-8.727963012321785,-1.4461896699121417
-2.131839671919124,-4.363328260105748,5.482910281712836,-4.251657228648189,-3.4916991240008883,3.790272791117786,1.2903058020915523,2.173721264655588,2.6619672551011,-0.4618366549347071,1.3742499925593907,-0.5847546806421633,-4.178225772550193,1.757236626506791
-3.500051771350172,-3.04740320819264,6.213036872513696,-0.254339632549547,-3.900603316322531,0.9008826227840244,1.564393037478908,0.0461114944641327,0.2705569027532769,-0.4877115945166665,0.56771117516575,1.118821237386328,-0.5377236676339333,4.969250618505786
-1.5680379191069278,-0.662879732186638,7.804682479908051,6.8927418325466725,-3.672910074455899,0.861511329265852,2.351545572816633,-3.101594137566814,-5.241499711780678,0.0996824667687329,-0.3424742067858373,3.0131427198336382,2.682248084830363,8.69392126420173
2.5634203730433,0.9884945294076404,8.12451845910122,9.156054115799854,-2.246160387124405,3.712023456525913,3.104414551492482,-4.890576584043596,-7.563075608400545,0.4353488083256183,-0.9109587602328448,5.0699052256240975,2.840335978925408,8.591760794507364
6.6107560660382205,0.414329468321474,7.439306162850642,5.777762444688626,0.3722371348320621,7.6997517891279585,2.7528846600351926,-5.028336722147874,-6.618884411276363,0.6343407909196088,-0.6786104188600998,6.729872896034976,-1.423431210570803,3.961465330017013
8.571844566722348,1.1267949590491986,6.220889163217596,2.808786190135031,3.3104256733304283,9.961226624711117,0.5186970976790235,-6.092171669149069,-5.273441800081415,0.821699300699809,-0.4902493484008922,7.141034241703892,-0.5618794506363799,0.6803564282148976
7.840367023117324,2.058916257298392,4.053141344418267,-1.7413469122698195,5.245561723843593,8.277495961098339,-3.3945885451541926,-7.543116898709374,-2.068888292151153,0.5417511176855541,-0.5525477189872587,5.7485304844510665,2.976893004282785,-2.2416419905868765
5.347984705362364,1.1806709637457946,2.0365426564375,-3.91971728637369,5.2493903302774925,2.760700946504471,-7.811607580394479,-8.057784920877662,-1.3223470086868765,0.032582054415552,-1.043647747538619,2.7217727897666464,4.79691479494535,-3.963760327206916
2.6971637397616632,0.8294184738598854,0.191770951066744,-2.790829972016888,3.388369116916124,-3.948081258027059,-11.212957102154403,-7.902651907522428,-3.4474284017482724,-0.6427741282358524,-1.2827152004038038,-1.0832471016560703,4.964484815425056,-3.3464175416455317
0.8653131237601883,1.42900863970611,-1.6772236018162754,-2.55724202651818,0.5958971734739862,-8.388636426689573,-12.4571511592178,-6.702454336466909,-4.871790904225854,-1.814891227293367,-0.6066473529436388,-4.56812370163027,-1.0162407742164363,-4.6463988517845385
-0.5678645937217652,2.4586768694007084,-3.289025559410069,-2.099822564296145,-2.050034854750379,-8.708328507915326,-11.184363445301416,-4.174231732744724,-6.608531556380676,-3.1172313934380536,1.325067880943401,-6.963256113893863,-8.952594916863186,-7.461430610579319
-2.9866980239542045,3.774700827041501,-4.598124253635887,-4.447739399334328,-4.042037977535642,-5.856675179298236,-7.854994145934484,-2.801607996695364,-6.6314819505415,-3.5619086162953675,3.362623841550715,-8.208751471195,-10.884263329552692,-8.450987476167448
-7.34317376501042,3.531857100726901,-5.4934216491458905,-10.411285876926284,-5.619017960039173,-2.55173466240376,-3.556815374064172,-2.585752696223184,-4.326031447563196,-3.295401323920215,3.7642011097994974,-8.922349035281286,-6.046665011346599,-8.184403922350132
-12.956874368271428,-0.0864931227195833,-7.741603695812298,-15.394229628353596,-7.350131417622379,-0.9613759366734485,0.3480571873579947,-1.3879856962686854,-2.893617034823462,-3.0933521741254486,1.0819075452815048,-9.933881237543687,1.4935144620363994,-8.664603389875381
-17.66034403902347,-4.742736926082756,-11.435433535147412,-20.184525274543844,-9.520211782188085,-1.1732112214305062,2.706991812832712,0.3269384423630363,-1.7910199440178165,-2.7982101903563223,-3.629951650777444,-11.645577136380666,8.081441690311514,-9.466151507362962
-19.31795698050837,-6.370318760563183,-12.75645607898228,-20.786576306487174,-11.7900754068296,-1.7165823531614706,3.046423219385133,0.6146762820474674,-1.5270175394322414,-2.5954504664748197,-5.891711225277789,-13.653479685221557,9.641304673968987,-9.388375393071978
-17.466601586431295,-4.542485511443863,-11.855398788958103,-15.985454794141887,-13.34293748131131,-1.3983667287612889,1.766794236976466,-0.3896216773072576,-2.7146481298512053,-2.3707867113334897,-3.8366167169799783,-14.932866129040464,5.675095733563178,-8.653529788720997
-13.63558559936871,-1.1911160799140117,-9.42654657786064,-14.269069795286988,-13.37130333642773,-0.5062667366853475,-0.0964166570713018,-2.903669881596332,-3.1599511498684736,-1.668190808612527,1.1211317381524348,-14.47904457420617,2.374389951827736,-4.671660531808892
-10.064528407796615,1.5354334685789992,-4.559619505419143,-14.732721379792345,-11.562234477330604,-0.2273120985859122,-1.4380474528098262,-7.440022082798502,-3.1045786633537635,-0.6810119751412357,6.6946226306695324,-11.9422730163638,1.5440902904140552,3.0537024529457493
-7.982539313250413,1.5530532734990028,-3.420494421777541,-14.389247061054832,-8.292096910566897,-1.0746748820820358,-1.6634816711489862,-8.76527182152296,-2.352801172602648,-0.0826134085549312,7.723653224665728,-7.828509707943908,1.2575586570313415,5.500738712035733
-6.961806643065529,-0.3553562557633029,-6.326515384276339,-14.742163652311332,-4.462689605955688,-2.1503951140250592,-0.9758765146801808,-6.687966326557008,-0.434571425159491,-0.2120928833499547,3.0490909309320946,-3.226793548207695,0.8873089257942276,2.7408403011779456
-5.798951182247322,-0.6449177431252232,-8.523040658804216,-9.80075420922769,-1.1222003816116342,-2.103959697711332,-0.2181428336562021,-4.137031075555488,1.4398609989083777,-0.033230446027183,-1.5655516051021223,0.6364395589253604,0.1169891205856734,-1.159435513352064
-3.952874722202836,1.3404149841186566,-11.390766878916038,1.0743281086027705,0.9268214747229138,-0.7367751170012866,-0.3282191611981773,0.140872257038221,3.4578389489206427,0.1828419587526122,-4.68910768239485,2.745164427005108,-2.224619496964581,-8.250701778524677
-2.1249820188899946,3.06991193135069,-11.60573205098385,5.819447649511984,1.406095375925247,0.5642259516558852,-1.679888299191873,2.22990988821667,4.64598039212644,0.141310831667631,-4.789920305980416,2.558665343049768,-3.919161447009349,-10.339542654573178
-1.4751856747333818,3.223432514981744,-8.293054061473878,5.170161701575966,0.6761043903332791,0.1426724697370502,-3.727361286525365,1.628393065980236,4.69280374405259,0.5872503806545535,-1.6534979980933322,0.3105597258693535,-3.9301793949704646,-6.607219127741844
-2.3106029627942632,1.717918663953963,-5.967255447140058,2.764820378773293,-0.3725950920880194,-2.1889625153688144,-5.275903627792275,1.4779065739008344,4.949798741898421,0.7726529379594562,-1.1706605030772703,-2.8019400511362,-6.310547217025502,-4.838044523327137
-3.5823288729132514,-1.3005482796705792,-3.7244068440090334,-3.9598430168562055,-0.715979911888823,-4.8198117192078485,-5.283832701489601,0.7740291232765462,5.113782968357767,0.9946849090037788,-2.661679951941982,-4.950101893800024,-9.172647781936751,-3.1604621097737966
-3.7363060066692952,-3.0705120833176296,-1.9158906902698352,-5.4705731105249145,0.2030402122780756,-5.796987044146981,-3.625712822906003,1.3473307703965025,5.215400845497438,1.9971150537472957,-3.3690955206974222,-4.685282406825415,-8.596010832990398,-1.6337895260634026
-2.1425643119238167,-2.4085289378393124,-1.289476391301008,-1.1927637553671804,2.012101491923339,-4.595625886151996,-1.1759859329780973,3.672256686725503,5.449974603152407,3.087460320515027,-3.159808626915702,-2.053435479879401,-4.549199781480012,-1.3443924647226049
0.2770097126617559,-1.1291480356411812,-0.3451578492690396,1.4464288177082651,3.513058792403694,-2.452344381144498,0.90323633705058,5.487845674787769,5.086326211362873,2.9389183791190265,-0.148010489382223,1.2268492400983844,2.175401086854059,1.568266211893848
1.8863870872878543,0.3238854891167814,0.5879205766503217,4.5686453511751015,3.4602034975802685,-1.0491130561435646,2.081212545405231,7.299667780986078,4.155249692429647,1.965412922884892,3.844248192849725,3.0148371476038083,9.94526239566544,6.951406376857757
1.913340432317817,1.185525569498498,1.6677493549357931,5.11501684523678,1.5474708362898753,-0.9933160112340716,2.778098551120692,7.736721347736642,3.934689834494301,1.2201236027072,5.068300670078016,2.606759897956792,11.655520355995622,9.25562990373838
1.2746021659889737,0.8593811128598585,3.109576205495313,1.922097006001188,-1.1850198002866676,-1.5993370060335934,3.8110241202616777,6.333322991548933,4.377467494623016,0.8273613341845193,3.877868470759385,1.5416768645868544,6.40508697162512,8.856410122029503
1.792656003907652,0.3334482871813444,6.19850155094031,0.2301184632659664,-2.9849802730753083,-1.9913944605165028,5.49187464434138,6.513780012053057,4.786055211198214,3.166487996581957,2.5128572616263685,2.3729468682357293,2.990602719595601,8.56284356087053
4.450180686865664,0.4504758844603379,11.218778411249788,-0.8462228970397642,-2.6947565735464,-2.194709047408807,7.214682347751122,8.003334373788093,5.421928546915551,6.852204687799744,2.158221400640968,6.252563100665014,0.6321020172905788,7.313278890142991
8.29065806822112,0.5162125847998441,12.886672468517558,-0.0281014452366948,-0.7081386465685426,-3.041163176973185,7.906928291902716,7.882411272783411,4.492147293721278,7.655904807926658,2.180032354327216,11.47377886744374,-0.2734398667445895,6.867586980992817
11.03772356452022,0.43670268766038,11.1911146194237,3.728796486691466,1.2862839388871097,-5.066832659274695,6.927121646515914,6.633693907529781,1.7632986631042444,5.507403780735872,1.0694150128975803,14.482975493589962,0.6184927040899477,7.6073039570605
10.929725151560774,-0.1423193306728855,6.396074785218477,5.726773673004888,1.6836664776036514,-7.617992420091042,4.608807567672528,1.7401729450720655,-1.1099943719483822,1.0931038875558012,-1.2260159809436617,12.693260198166854,-3.3195647116717035,5.3689307870635306
8.137081289210641,-2.113749891264603,-2.947845110010318,6.396183282386702,0.3730896987592302,-9.100386239547788,2.001591658309195,-7.614207996522977,-4.581855979418827,-4.239163160790953,-5.392411471963926,6.708826098806668,-9.210087337371366,0.3867370231924938
4.524958877774083,-2.7451228682931808,-6.6151704483756255,7.232292971878173,-1.0478672716142512,-8.154075997267483,0.0873559593353547,-11.840403079907892,-6.743164711277164,-7.538573603806545,-6.811071355285555,-0.017944252901259,-8.921043831698153,-2.1290304608604185
2.069103113689465,-1.1021209214854475,-4.306420919791359,7.363685894238081,-0.5177530528848706,-4.726309310202367,-0.823822149228306,-11.101231685415112,-7.202639549343385,-8.109737731329535,-2.808900565990601,-3.829497926637174,-2.05545251054753,-2.659752599971834
1.4266096794017074,0.7593732084538778,-0.8716540378160269,10.276352825132118,2.802772929801563,-0.2051949272060085,-1.0507049324057505,-8.288916198666003,-8.276116482283264,-10.159909605657669,0.9683421162782898,-3.543366351425448,6.64814166540572,-1.1737950227521632
1.8929237647851949,3.860796273010248,6.164690742144428,16.271685123546927,7.853633956632137,3.4179257979612885,-1.0216768165822714,-1.1395722895485787,-9.463739185929509,-14.412048621939016,5.994126548173708,-0.981605210774802,15.77830026737505,3.531028398553956
2.5615485925488883,4.742682377894536,8.88396293740775,18.604829555540714,12.569377448732894,4.7516284048138,-0.8592865105052567,0.7471338530371252,-10.708175798806074,-16.840403360311228,8.14680005113514,0.8564288075864113,15.626720631968013,4.853122546987211
3.3692552731057503,1.2401106358301743,6.5351709890314655,17.69197768497927,15.479990083267351,3.854775975376185,-0.4449710261192194,-3.1451768221120595,-12.35057879506564,-18.56598277142795,4.800334870098605,0.2135947300085945,5.704966001094081,2.785359139742834
4.95233656364681,-0.6130675612608655,4.982607695727075,14.206298280634533,16.550088306024037,2.2647754391963133,0.2318743439104764,-6.9316789143489,-13.500106049827773,-17.531799117012127,2.134933811634097,-2.400611315516727,-1.3635076642920774,0.0925968595122674
7.555074800745047,-2.920203094760164,2.292408367694202,6.574794061798578,16.6066032177757,2.1204556773204217,0.9307040125392518,-12.891974224577083,-14.22054384053042,-12.928045002627044,-2.0666467473631007,-5.093494120818917,-8.991924848319684,-4.742639814145402
10.26311330641272,-4.246452286884286,1.6712284465764478,3.148435655857775,16.12075197098821,4.768714043972864,1.4096248763585493,-13.556505275371173,-13.064300917054847,-9.085671301470894,-4.994505106151795,-6.266618348472832,-11.465513887363564,-5.621995965066573
11.523289744476216,-1.063398967300058,3.95795607827123,4.09779584076529,14.674881446166353,9.682021891747295,1.7179889423645989,-7.828225928640837,-9.684356068720303,-4.179450976143015,-4.493484042596903,-5.616797115473645,-6.7318990159457215,-2.0073592702727883
10.55992329101946,0.1980376297075808,5.155886120036491,6.344304646990221,11.60575862575783,14.53013947364849,2.0864414186401063,-1.9384290564064224,-5.346315777116371,0.2512551642490181,-6.090879760520194,-3.916639704462796,-9.395598627646056,2.0893098480167724
8.269962967266338,2.504230169600823,6.143341212004671,11.940418967825645,7.008089204090965,16.56631796404099,2.4844089273519216,6.089278304627949,0.4209228350352975,4.708533815576034,-7.401568207886458,-2.1364658622904926,-11.504518743421317,8.20417788067265
6.554653710207475,5.076780799097168,5.132313176585532,12.587946238325852,1.9210248066235067,14.450429951853238,2.429393532628921,9.50889737856697,4.69298547145648,8.796939918115129,-6.012810554092761,-0.7816787747624403,-8.648514440954893,10.431483177925262
6.546431166529743,3.5922314314242354,1.3562681959198846,7.7469076824201295,-2.5296557702119173,9.136523030786291,1.4438924458632414,7.054374044853302,7.098209862337484,9.777048579840528,-4.113120836448648,0.1634546494654216,-6.1702275595508045,7.937917065219094
7.378813247987011,2.266770128492051,-1.8465978622488808,1.2509502370223675,-6.072300475572433,3.109055489181685,-0.2260078361645696,5.366995118773017,10.948349610640848,11.934260596310656,2.0771683285843943,0.907999686546674,4.776497408630524,5.801273381335773
6.792457108800164,-1.192305766591153,-5.0314133883799865,-9.04847435788398,-9.246720703838292,-1.3978072875114549,-1.4959617265049303,2.6053590323861733,15.573012457317112,12.89885316495292,11.131973511314465,1.5517873854622906,16.982266606337664,2.481660780946163
3.192329829858693,-5.0383830107275855,-6.634120670212559,-14.130050447204871,-12.401456749400468,-3.736837700750641,-1.2964691697057449,1.0426049592077191,16.38554372754756,11.129991726587262,12.846775813069415,2.005333891195079,17.16837244037824,0.0644846188580642
-2.682517581563147,-5.243517648655344,-5.908447691405294,-13.239187042256772,-14.85310074751581,-4.77292294767679,0.2915819926897427,1.6687044261377924,13.44411553624746,8.528595086002037,7.754876038707591,2.0631424626440378,10.924622030289171,-0.7266676341235897
-8.093350597094343,-5.423663564705836,-5.752358181454071,-12.822823757726551,-15.221941608540844,-5.745548119521146,1.7709520782939592,1.4442229906478308,8.971099779319035,6.429586309193971,1.7159057126059023,1.4989846856503275,3.7889437764728986,-2.2278019652986205
-10.461787082101452,-4.828806478187804,-5.624969841139839,-10.680415942490242,-12.734361122682188,-7.245985394019144,1.2761278391858468,1.1743666340470056,1.9099513415025315,5.274180040352112,-6.566262592137506,0.1586118224011414,-3.1670252252040134,-3.752069105634806
-9.457468399939088,-2.63650592201201,-4.718722560488009,-9.405785230298072,-8.212459291046315,-9.082024075585451,-1.8486134110684704,1.9057366061118737,-0.2486795763877687,5.889947562300023,-8.926946052051798,-1.8835906069806756,-3.629345951924466,-4.155784842794476
-7.127714450436471,-0.9998454651338564,-3.421242506541679,-9.786047533373116,-3.683148086854459,-10.75014396564066,-6.266637940061543,3.3975584698717918,3.290222738015588,8.70189804044959,-2.269568980277461,-4.098253236609196,0.9181574415395511,-3.5520098509493763
-5.9696551869870405,0.9189102420574722,-2.069017747695227,-7.467032087326755,-0.8574697572383059,-11.755922491947032,-9.345060149503452,4.119359834759442,4.136645525481697,6.473928296743388,-0.2251726563538748,-5.384098213170901,-0.581024497563064,-4.197850633467525
-6.731509428519203,4.259644230761187,-0.6661681043083841,-3.0764281791606,0.1471351144140271,-11.555211710619204,-8.833159588658333,4.1071429191744455,3.934705793588857,2.016916757703528,0.8797417237401108,-4.357326278476421,-4.8820664598086685,-6.037448922365942
-7.938040754607343,5.999015467192355,0.2553581004513449,0.020737598197989,0.6558680777434631,-9.61810257342924,-4.344238066199836,4.939782299400539,3.7246717452955487,0.7592647651882921,2.221205452866963,-0.1632860106644003,-5.9606845386076905,-5.954873750370956
-7.492786140625405,5.514443061325135,0.5261619982800905,2.306268800048444,2.0136825214454035,-5.995715220102241,2.308661510271122,6.359593644849213,2.232510746057945,1.003228273909754,-1.2531578743843643,6.5608581257808325,-5.702339572011631,-4.236390492721223
-4.79305307324077,5.880423707815358,2.2806493139839987,4.432268712299818,4.245225920851759,-1.886397279120544,8.099120512850853,8.524519087179154,3.8488708000146223,4.995765715331513,-0.1800776862229407,13.37274014154886,-2.663148405883666,-0.2481763624772406
-1.3924560944852755,5.027598357389341,5.492377580241834,5.767091757848673,6.05427165460744,0.761733935891165,10.51965562041816,11.748752129578545,8.666734700730965,9.51321791757196,1.816623964980719,16.99804206529142,1.098286933819851,6.789064118238739
0.352355556877022,2.599243682623104,6.471887763490324,6.033868458968339,6.123937465382241,0.7569534568644158,9.071986173738251,11.819940964891934,10.060056237984815,9.257134277147864,0.6256425780946622,15.335766897466584,0.8913564836772139,8.701755219624099
-0.6307780576916073,0.2952702038080431,5.415748320504726,5.049083441048727,4.434731554335462,-0.9769709232078014,5.571288125804829,8.516183328247207,8.573842662471952,5.871470050552182,0.2500627571228326,9.20202968368725,-0.9464029133202364,5.257804840930585
-3.193104367541819,-2.702424645152702,4.045930010480936,4.69209760552703,2.32133290071313,-1.7706418867714913,2.912447256381948,6.782089435947305,6.83948400631728,2.1770054297768526,-1.3071745593940296,2.3073789213576195,0.4377015172513889,2.370553413401914
-4.98059256429204,-5.965274997650827,1.614809050162544,4.94490865982641,1.2169485347047932,0.5664724250480092,2.954049759986969,5.831953674612827,3.5827799750156144,0.2815691755750907,-1.7005512902262767,-0.9518557099714504,4.697282623632981,-1.7424646442964469
-4.46940364757456,-6.314259649204263,1.385290217882715,4.2626515984643385,1.290826508741894,5.511299923154578,4.991455267411349,5.015273886306959,2.4285281055424246,1.282097915979051,-0.0367861545285025,1.429596169971061,7.4645924452926256,-1.6983276768793518
-2.2281995950256146,-4.0537376466537305,3.759295041962985,2.9952053563783267,1.2799142276318811,9.805459246563412,6.12643674928929,5.194898900662262,3.786910575832735,3.008762989033697,1.176372462944879,7.424028490829855,6.060194475743109,3.6898455148020095
-0.3171655290746322,-3.395164272089753,4.383004700910602,-2.779352268904702,-0.3047482631028728,9.995122276333216,3.5211242603625585,1.0977980516007129,2.7387473383819323,3.800001505372779,2.1593480612704834,12.263573470130051,0.2897316247392694,6.020462690302985
-0.364969253615083,-2.485653906645867,3.919125501110881,-13.6996895286315,-3.675911109026398,5.425991352543175,-3.0690635938007347,-7.545439946014176,-0.0293638980243133,2.521540147081015,1.3252771345103296,11.953943177790038,-9.143224101718609,6.534836258543959
-2.0375302757979696,-1.5967259618208032,2.9365085313365378,-17.46439553182461,-7.312014345536419,-1.0119794414067371,-10.569541619080468,-11.35773060910359,-2.438657131945424,-0.6657333895784439,-0.6640784325649913,6.373517748552409,-13.769687205384828,5.2012842223649525
-3.3019261428459217,-1.6152427503133595,0.6678869216568526,-14.256449436294542,-8.971825270689386,-5.136577685381504,-14.506619117865114,-10.968166298727734,-5.245692335680872,-2.2864793241445955,-1.45563949052052,-0.5845407406153242,-9.104699271493756,0.4204788545591837
-2.3066129664326738,1.5107817856833887,-0.5594326529091045,-6.902443681942978,-7.375945557993745,-4.767237741039509,-12.289649223354914,-7.851139305184514,-4.911712563781905,-2.333350170751868,-1.362773729190179,-4.086414938969021,-1.2008341130814897,-1.7040775048934749
0.8108953613690559,5.615897267859895,-0.7533134399179093,7.626380534080063,-3.228187494546724,-1.2224437894957347,-5.316766822200471,0.1028838665324393,-0.8887925549186059,-1.113624335540509,0.3250633417062665,-2.2178030304444647,9.484681125329818,-1.4080854017599584
3.904945792766796,6.893867949617786,-1.2588617703463632,13.30656536143446,1.2079982731087355,2.1105210663773306,1.8588780356618528,2.2094825710612467,-0.1915359205300393,0.5528993430390499,2.5152101338964385,2.549626028883317,15.258257133758516,-2.4069475810178704
4.69938030910177,5.561802191120341,-1.600952991534487,9.41425176290021,3.648337994374664,2.6638106838698974,4.77048494920929,-1.870822447187416,-2.2708137283471683,-1.4724351010741077,2.494210422917204,5.47633258267436,9.954396378503928,-3.577623570929867
2.850370570798411,2.21382886513543,-2.0080865334848506,4.90166637149208,3.296983510279844,0.4929986088801144,2.1966632539836297,-5.52792470358371,-7.2442544892004435,-6.066873736402192,0.4221919421109231,3.392507832758369,2.4461360705934947,-6.51479905596537
0.2190623450358657,-1.8538700756667172,-2.610783654108824,-4.081594810213368,1.2338862526952568,-2.2882861336446325,-3.209260693153212,-11.177509126666196,-16.754822765575202,-11.234439994262134,-2.863818431286771,-2.9951291016271853,-5.953223235766135,-11.795997864811232
-0.9502590348011352,-3.52658862167718,-3.713095429957462,-8.025628610502109,-0.5600809185014413,-3.547441763645949,-7.208333104380259,-12.476043929534384,-19.250521190431567,-14.405710833778128,-4.826820454317052,-10.0658519188407,-10.32004095364367,-13.11131719952939
-0.207621740766811,-2.216747461664657,-5.463050975660777,-5.667669230587833,-0.768943264578354,-2.7000327924643983,-7.2256813743765775,-8.308249653920138,-14.487084886557476,-11.86721336026676,-2.9478864522979014,-14.332460911616296,-5.145619749280867,-10.536675091792004
0.6897155372927983,-0.5104035634476358,-7.90475180622682,-4.579428059699659,0.3010958834254609,-0.6726219832304565,-3.9532289975572175,-5.346300259506498,-8.378128314706927,-8.146997261886636,0.6074918963017073,-14.806830396156698,0.3315028237172325,-8.435986519735584
-0.4630340501741727,0.4933499988939247,-11.21852514521821,-2.3274277221341846,1.0865749822985862,1.2689805887792571,-0.2475895444595295,-1.971159420589228,1.7744422625556884,-5.321565252757892,4.192929913600194,-12.967266536215549,3.8329073167632153,-5.556887100423707
-4.1042107290922445,0.533263632954905,-12.74516853243806,-2.950933801343603,0.1358226033041347,2.5366977445241474,1.4316359943343429,-0.3885210703836757,5.792617577934509,-3.547277443505704,5.146278197301324,-10.970377621416477,4.616288395270395,-5.202702252426218
-8.371326765648135,-0.6049223925938758,-12.333003081522545,-7.545381898519581,-2.6190019861521563,3.301583738936685,0.7753318470682871,-1.7238434925753952,2.518646889998972,-5.411326806530664,1.7356746501318825,-10.03148804008906,0.2537367496546906,-8.22778129648556
-10.702373826567424,-2.1123846994441084,-11.592264401835898,-11.939882529411497,-5.70416036283261,3.9071856409143777,-0.6790636708469577,-1.2195774596428206,1.0884071514373177,-5.493472130638524,-2.128149504414617,-10.14123218142106,-2.9345989840994373,-8.953405372768636
-9.986291786751366,-2.6531678099999243,-9.863951660879122,-17.35190769803588,-7.193705132307684,4.388084847129633,-1.2371452997493435,0.4273520360844229,-0.9512510209934092,-2.585368228821985,-5.227039329042226,-10.712211886590808,-3.212860709783159,-8.15207073708825
-7.271865620812761,-1.9910885972986696,-7.687076782957631,-17.614863795128947,-6.18738975338232,4.516700815340784,-0.4307715596332855,1.4027571698935428,-1.650647260321186,-0.5513072836994947,-5.511778679103535,-11.119019311454906,-1.8895027910350133,-6.402544704016516
-4.550389925519895,-0.202032228254461,-5.186344120765007,-11.66785225446112,-3.5040794624741807,4.168696979335962,0.9641160998920526,2.4062630787157886,0.3032977410733746,1.721909626048545,-2.1764963591837736,-10.754080188184432,0.7424853416713201,-2.650063249881392
-2.9349097143106206,1.6476516306101832,-1.4319240774691495,-5.1891695820276444,-1.030489667298184,3.5481583628618267,1.92561250504852,2.055135310829272,0.4061016015687503,3.627566538833624,0.1944440501216914,-9.037262110759968,1.7847331373557251,0.5940551287265063
-1.9294780198684836,2.697429385751196,3.479763436309743,3.5169517084792625,-0.2336728999003838,3.064536572687615,2.0790136477080594,0.0647008046555429,-0.6224970461756117,4.170693719099135,1.621521829716911,-5.744838245453565,1.468819974728537,3.474867992093299
-0.2566811749320692,2.3291244177439703,6.51878638996032,7.589986554270884,-1.0287663070353474,3.0217696723248864,1.776469698825906,-0.2887178514651801,-0.1313033142308098,5.386825052354388,1.8420634239947065,-1.340914189651457,0.5241659389735152,6.3253627884897226
2.7445647573398304,0.5420824591133292,7.573577632646529,5.745625397359455,-1.92417151070574,3.405861638844499,1.5680618485863675,0.8137579182539112,1.358898830437162,7.920480788159473,0.8225244466938078,3.241523717052125,-0.5422257120084947,8.606048662604199
6.465245476069832,-0.3379870454695983,9.640647401090638,5.752920323582346,-1.3268246396247465,3.915462875556507,1.717697025120593,2.6005685758483024,3.0971191763856343,8.775478140640885,2.4692831132907327,7.316028083734473,0.1264767705492201,11.322651786175822
9.539091104330453,-0.3909521929543565,12.10975589095333,5.831080255152649,1.0782258822832205,4.177462593976436,2.126239174550697,5.795681709080526,5.486429328668823,9.211674086819205,5.531513807146881,10.90356718548243,0.720794055941939,14.371157663356833
10.88271032625493,-0.0213632422275665,13.518907350419653,6.677017112162195,4.028434496192787,3.985497963504287,2.525032796535264,6.776503315492397,6.343335010480428,10.18489108559073,5.945917612440122,14.347530158308643,0.6615100885308354,15.106864582314154
10.359726182286856,0.13129321895061,14.205671023852249,9.468791098246,5.701423952317711,3.4122747514740297,2.6543762207536474,5.358121290455792,5.438185258398108,9.057185323130092,2.35513344400892,17.435498054858556,0.022091644180306,13.455752917942965
8.709814988447782,-0.442365384993708,12.147028972650132,10.561253712719116,5.171390829354856,2.7427834837419525,2.3475818523206584,2.910071997631259,4.326037676382286,9.451237447347127,-2.765406447379105,19.055650068037476,-1.1770865803017043,10.678457275799405
7.0188183592930855,-0.9345320666134322,6.888770713857326,10.364822298940666,3.0810688424518133,2.2933167377223214,1.611759434996543,-1.5158255667045943,2.441536240941081,9.453145051504077,-9.02350164862648,17.977065413762517,-1.4973889852638609,6.115274637485544
6.16129377763054,-1.1429376372115936,3.654318051990393,8.939755697507032,1.023868022238993,2.248883518863259,0.7084596013917306,-3.3976875497669994,0.6962493349794658,5.920873492705208,-10.710117385972666,14.14268506394432,-1.4796808192293147,3.760979441466047
6.413973688167904,-0.2778620303798453,2.169869722843673,5.557199497091775,0.2320663960534261,2.6095791068836647,0.0898210583355663,-2.434877201220108,-0.712439321157825,2.9150942107994884,-4.230804038844295,9.150739836443003,-0.9993077126038764,4.001009272492365
7.276001907745169,0.9492490549239678,1.4965478881103962,1.0238044838342015,0.6815710547258469,3.2300089089112376,0.1188119823960072,-1.1410723604358015,-1.783674567863226,-1.1298917956710426,2.466865924921525,5.223592739235421,0.2669559804692947,4.306608899724116
7.59899030548058,1.199637117082455,2.827060464660132,-4.957293253963521,1.269280520382683,3.880527495620591,0.7633455894334311,1.6222900696346905,-2.1748908176272805,-5.1917286049699705,11.085482569538554,3.423241562845273,1.5232967907094457,5.728445915607321
6.157590241148014,0.5012946126658977,2.1029926719644365,-8.271710652274708,0.7893568116790135,4.311170675571447,1.5636975126255663,1.930624367522035,-2.374902874354037,-5.190383358493532,15.275343119448154,2.739900990927122,2.69071828992887,4.862088303737139
2.4920143876131995,-0.2335698980689525,-0.6893246664414969,-8.472331336779474,-1.14370187075804,4.352385899965121,1.9507112883000524,-0.6625219639407609,-2.229328977181704,-5.3760774044681225,9.464061887633914,1.0003845689333453,3.5615623391647206,1.2641621444243591
-2.5526747972349053,-1.1631017936801948,-4.53915765418471,-8.484107811856376,-3.89639518507149,4.029456866315158,1.6459164047682575,-3.135758956993399,-3.3733414489542604,-7.85368603451895,1.9709808990216815,-3.139656651820678,0.6649871176184672,-3.8028754197774974
-7.155958533698302,-1.3189171301226994,-10.43474211490298,-7.211707197101512,-6.354564826857144,3.5579881924229118,0.7911612587606882,-6.482113324676559,-6.008671586594983,-10.912786077371134,-9.5760252706673,-8.918962547052166,-4.497405645319215,-11.369362478783057
-9.65224534224238,0.1809801993211988,-12.260313330013805,-5.56911240442026,-7.669105574076109,3.12684906057558,-0.2676923502741939,-7.880719748986679,-7.299720760818444,-14.094102715881755,-16.312843836297773,-14.0731130120684,-6.736146000147625,-15.078896316341606
-9.646567003610356,1.0750239478456427,-9.666869985644288,-3.826267026195087,-7.646321951827577,2.608426458548001,-1.287067470271685,-6.7799038650520185,-7.5216198496426845,-13.797997083078473,-11.214362204375192,-16.72247738337292,-5.242696636087364,-14.530817526141623
-8.208589435666656,0.6899426557493312,-6.815233999491956,-1.103345270292028,-6.615033126332761,1.5175226376707087,-2.2289682836175704,-5.8309371334709335,-6.280656033566928,-10.173586219604823,-5.468453306386498,-16.798970952280996,0.7646517170867405,-13.606109825742662
-6.978064251215241,-0.0479762542153327,-2.263185034212119,2.330054929947329,-5.033428796071623,-0.6138925360844878,-3.128329608107417,-4.245843238815313,-2.9064467070285707,-6.041502629874879,2.789247142319193,-15.808366962337864,9.27502708295206,-10.738667496405464
-6.931582961418514,-1.2958707839483097,-1.5047652910683154,3.8150456321869495,-3.2159197456738307,-3.711197760689063,-3.930157427378009,-3.661443001763311,-1.7805972990621712,-3.926756498090823,8.566272523468502,-15.344662012329463,12.471453277271593,-9.451262649196243
-7.788168318085239,-1.978127561046752,-5.434974961732152,3.158763808528639,-1.3329056626424372,-7.00815275093249,-4.4779983190121815,-4.515736732820791,-2.8738985653792284,-6.4063824494883175,5.030831244211704,-15.821032366868474,7.81312980542176,-10.284397020371657
-8.412156279410315,-0.5071858864632875,-7.066084659755333,3.0171075722344494,0.4583312961870565,-9.537680274000603,-4.638519260395322,-5.047468872337378,-4.0716876832447335,-9.094922759132238,2.5766641220433995,-16.439736111622267,-0.1233109649580037,-8.186603955312982
-7.742248168046384,0.6070172425946855,-7.66531522448802,2.794610707400995,1.967353551797288,-10.903544860357863,-4.420837176059967,-5.748423417165846,-6.338874538628531,-9.742358595898525,1.114464288765751,-16.133792546596876,-9.269074265340482,-3.863120416511145
-5.4831376079930045,0.8975050595590538,-5.6600605084199005,2.847230537744907,3.0576441607210665,-11.607098573554628,-3.9865907693967895,-4.8304636023317205,-5.834359729158045,-8.441166754397752,-0.8751173986713641,-14.443090707828471,-12.942019964306896,0.5069682008489669
-2.153985604905049,1.6574215181132517,0.3093455385932996,3.608725270583872,3.745223512556709,-12.527372236945585,-3.544253912193726,-1.9157156847563668,-2.1180886847523945,-3.786534665370456,0.3317275208649862,-11.620775789504323,-7.537913691812049,5.6904080904259695
1.3695168495018422,1.4219300932751378,4.550240711220632,4.482825209010329,4.193554120199581,-13.947341039433136,-3.176479408143601,0.7977907458853456,0.8108112077986707,-0.0378744724850186,0.5482244908581756,-8.113255933355656,-0.7699762194151577,8.994789248351552
4.416822436919153,2.4685290866166496,7.635327213829837,5.7280803689232975,4.617607661062351,-15.04055414562844,-2.703303111386214,3.7786943461997486,3.825628243410187,1.621837615902685,-2.103387212557013,-4.038988105079616,5.186258628617379,9.936091082735947
6.837649731215942,3.303951417489817,9.286221880021776,6.787122730498485,5.1705756077316,-14.41628248332512,-1.7388667474331925,4.458965453916248,4.382056835671637,2.2132520559172444,-3.881026963995213,0.855733722871129,6.880529558345834,10.32825606004486
8.905591398194968,1.2546655266844065,8.265314004962272,7.602600058649265,5.845353149821023,-11.369770682790652,-0.0280290392934574,2.241870462576243,1.6138187046433408,1.3719110880913186,-4.883585370296029,6.722601892077709,1.3643873456952584,9.361358558439171
10.868183730457565,0.1722044128615077,9.149459894082447,7.295246076800683,6.413598660807452,-6.747375133646052,2.117104310795764,1.5617916051320626,1.274883261568495,2.8334019950216462,-2.696626019935507,12.970467457137428,-1.3869897836252356,10.680666394695118
12.462744049773388,-1.843044898646184,11.652104306903489,5.597267098725957,6.493517615653943,-2.556032440431689,3.717065706077783,1.8354500638004487,2.7893426533675365,5.966030320037782,3.711534780991114,18.02807489722157,-0.1014628024931093,14.686438055266054
12.857776833267431,-3.322626120959208,10.914549754633615,4.830869299466079,5.8170021910581085,-0.5265570726127855,3.6632989275138392,2.1794994183254954,3.887882163225558,7.894680214782577,7.545006960406016,19.97121640382315,1.4810303210332283,14.269147210366162
11.23630230608287,-1.759481183380753,7.501206943263103,4.832869826676841,4.548569731822759,-0.8353775034714772,1.6289114495019206,3.387790813168075,5.583952871074882,8.421401761329827,6.76180025344039,17.865736968094254,3.750806506126556,9.91137957602496
7.646157315654452,-2.76513094612152,1.9548946047430076,4.6344016708309,3.3112847767463838,-2.1259352623308274,-1.4084569746203035,2.648631619373006,4.65147131660892,5.978939619637011,2.910035213990395,12.847987862698858,1.5823948844247404,2.2042791851284
3.317678530725587,-3.922318605275508,-6.723802235883246,4.682276388383951,2.7425674931420865,-2.8137850013347503,-3.61848625468182,-0.1494479064444092,0.6728076212990732,2.4063389409463585,-3.0916726017071614,7.765929175708941,-4.860850305299195,-10.493556161504168
-0.0354807441520819,-3.1588268926441128,-9.481820888439964,4.476456047537525,2.908993218825444,-2.4547638750777843,-3.5173156071489053,-0.4183246923103186,-0.2297354147151011,1.402610221604714,-5.59476668487718,5.2279816345881045,-8.11041039613347,-14.651579620065226
-1.4802581762495317,-1.838416764799604,-5.778964072467605,3.940800631446358,3.1962361565320343,-1.892272678882396,-0.9813415911231118,1.4978641757813598,1.476774726066194,2.91413173412794,-1.7039764935363662,5.49314931832205,-5.35458527148842,-9.625063630358278
-1.5599237672089783,1.903249525899488,-3.8805834420407006,3.855522247829808,2.9124463420320623,-2.1033406946843627,2.734053899286192,2.8785762674309083,2.8111992170486406,4.9447093773098665,1.1910039648574586,6.183937987173156,-0.4215857658609758,-5.745986892148462
-1.6793306011588207,5.745057136308736,-1.8338092401501065,4.13767913147087,2.079644460925447,-2.971207257586503,5.92049216901389,4.530430514671447,4.899837383771356,5.726439743240412,1.9240072389987055,4.399562229007856,5.380216499222479,0.0128734385316071
-2.6705558377440006,5.916207573712224,-1.9023589468835331,3.3807483652928454,1.574010648418465,-3.290465750766668,7.46813677561445,4.138253077873376,4.114910338989809,3.9801856802082094,1.6921984539835546,-0.4756096134161645,7.960329433102348,1.1094204746561946
-3.914941952965645,2.782753822263398,-5.50098236014202,1.6081807737793328,2.3555742816069447,-2.0306105510798425,7.254003891804288,1.144198031388969,-0.1330254149899757,0.271645513941795,-1.6554480974076633,-5.876700518320504,3.962201354251226,-4.274103589677833
-3.9471122645448986,-0.7945037933364514,-5.309091665472252,0.828153886368398,4.463297630324245,0.4598390030869801,5.786339868932949,0.5120748824553962,-2.1028780964520206,-2.2309831912294347,-3.4475315424849127,-8.079496753250748,-0.0113548277917352,-6.447476997988299
-2.0115573196497287,-3.726060390005353,-1.9257198712142611,0.8620710177994602,6.758424204546806,2.624792796631773,3.661682742730406,1.8218111923758884,-2.506523889761544,-3.1630003684544987,-3.291438417773357,-5.414640266393199,-2.0893940016208723,-7.14734395600828
0.9731964407263014,-3.882736347071311,0.430097143781958,1.837844327013446,7.722180689412614,3.1754682074040623,1.3766917853890206,3.4062418277757662,-1.9105344864486316,-2.95055200119621,-3.0326753970267517,0.2427184312510988,-2.2702198726214027,-6.632395451851395
3.073737952946537,-1.5457971007263955,2.972509289920524,4.231625768163138,6.63442764254485,2.436806450349838,-0.4981337660416614,6.222038124676145,0.8053790598340607,-1.6590536357214247,-1.3057815251810667,5.053338121590659,0.5076784559890577,-3.282952748600423
3.05785569210604,-0.194519381253652,4.4053725172126885,4.199557689662997,4.1363966720616485,2.201351862645613,-1.2156158898587464,7.499746314163242,1.950035887546338,-2.8140927247336425,0.63729112201834,6.371827060825179,1.0343653488234352,0.1077294084900913
1.5186060151302063,0.2913887090098623,4.075754049773675,1.645245284655824,1.757171467343225,4.163600478090833,-0.1588107833577581,7.012567903061364,1.590631867615187,-4.691488507159755,3.465291194507965,4.63111760804426,-1.5423661600613952,4.023383821671759
0.307686085504665,0.188194804898186,4.132520301032564,-0.1257378185767821,0.8371005993267442,8.367762499949608,2.6055447283100204,7.277835477899546,2.289367824511901,-4.452973880109324,5.203240242741503,2.4558411126794955,-3.518611036256868,5.8673949312128055
0.8176849667821404,0.2225829968840413,4.116445632838529,-1.8853251889535108,1.649431494735957,13.05640268382606,6.065059079144266,7.6918343117097905,3.363587030390471,-3.266756788419696,3.652036067881837,2.118527291737168,-3.5888587107012264,4.93871778451261
2.735476687291856,2.2363146476442286,3.792546042984836,-1.367920203243098,3.250720105846664,15.979637234709326,8.668459161600348,8.459139994856919,4.39103600967091,0.4719047235721159,1.382131857176055,3.769794520176609,-0.7267444751237797,3.220406909466444
4.364894851827335,5.525516365271392,3.447950743285124,2.142976695523682,4.06221809226275,15.956847213294768,9.19888786448426,9.952763101096965,5.661301536561933,4.91848421020884,-2.667378133443413,5.812028954291161,4.473841908878012,-0.1899582574916619
4.1000633086823965,6.6420621583221005,2.6130947252812478,1.7525869102969704,2.8116081395396897,13.42774833790173,7.46026194891236,8.87380759925436,4.974091196915471,5.818675836989289,-5.489318379221073,6.644809792691964,6.892156443190041,-1.081864209693792
1.663356406931806,4.406677535095728,1.3163114613913507,-2.2396117916627114,-0.6557752991830608,9.771893017879275,4.263356151977591,5.12511413237586,2.118142718566764,4.4853758017543655,-4.213453961668273,5.956928482219732,3.8525305233131246,0.9878688101300918
-1.8551633460003352,-0.3654643402982029,-0.2370644931113178,-7.528794502302297,-5.136659204626282,6.213049120744435,0.8153233003296645,1.0272842168137788,0.6818051831878866,3.258383988683107,-1.7593174286484816,4.565081168581148,-0.0393058238218339,2.599459019921427
-4.923672988018456,-7.034285604814443,-2.1283538018273807,-15.609569784024185,-8.62616779885955,3.250320081411915,-1.9161783777540995,-4.145190880130654,0.3095638114892676,2.291920848742058,2.0451329213878022,3.361103673837799,-3.9328091916905743,4.7941921621998125
-6.519156511848241,-9.693644383292394,-2.238861639175321,-17.487082303060525,-9.480736979025622,0.8623446323679818,-3.4319095198005183,-6.091000502016287,0.0704571694468567,2.5870440371791084,4.776239548317126,2.575652870053335,-5.60082255524677,5.554923281101447
-6.451910964758143,-6.587583874298468,-0.3379394254054979,-12.427080741041571,-7.525171868607749,-0.9826342095393804,-3.624767376313594,-4.1341801563273535,0.6635568882770475,3.918221825261242,4.216699215193208,1.9032108929923224,-2.3415485735850843,4.328236610683075
-5.138416925951226,-3.091360114907016,1.1046860462828147,-7.607139810249635,-4.2860229623255215,-2.086088279800491,-2.7568299011230795,-2.9013929579789,-0.4649492544933997,3.632762027571188,2.8093505119033977,1.0611990127870743,0.305751604665566,3.391933741098546
-3.234156170380696,0.7122085206212884,2.557400586214229,-0.8908676608379603,-2.003975988005845,-2.199516905013299,-1.5326995543172228,-1.309186503150275,-3.4569329246987373,2.1578711662928427,1.1560113859281818,0.1261025683924377,1.3918515427945677,2.1464560801567347
-1.3613328740951929,1.9279825658458396,1.7955351442485443,0.591835126883468,-2.000722070739974,-1.3445847005738636,-0.9092401918777656,-0.8365485934044958,-3.773497900703572,1.2957341533036528,-0.5692884768701512,-0.5248086290199379,1.2103161376469522,0.7506142427526575
0.0638219789555745,-1.2920715584903029,-1.8254928807309152,-4.655691956357399,-3.656240955523619,0.0707187381489036,-1.4563878619757542,-2.285558884572104,-1.7131511774253008,0.8279900319355319,-0.9699954161417504,-0.4430687540410327,-1.0408231041744185,-0.5071907397390235
0.8727553118521625,-1.3277013494375831,-3.324324917508276,-7.998659012494063,-4.9626097048118,1.4353234184311183,-2.75129601858658,-2.31315561405421,1.2953966103325452,1.146429811155116,-0.4046090576007631,0.6163050593778125,-1.234950843135633,-0.864444865532806
0.970428620852262,1.2507398907314136,-3.1588466942544446,-11.305210681169449,-4.367512625554424,2.2569483509192665,-3.5763882451867666,-1.3980503214774165,6.202540693481545,2.3932594454571574,0.0333556985246496,2.3348329155279104,1.5331233889963776,-0.0611728023986271
0.0633273905439102,3.898523461548363,-3.065899438892904,-12.338285897367088,-2.362729904000384,2.403711471220904,-3.0148272051517195,-1.2281823775008474,7.447943951382049,3.193443272454545,0.8440494671276985,3.570621434438179,4.596957907778995,-0.0243181548660003
-2.328840417526811,7.323403049941786,-2.1166130965397527,-9.577840112316087,-1.2605318445415303,2.138861980072776,-1.4807987460504952,-1.3486986903503335,4.586493302021863,2.691220175836411,0.558401871851658,2.7072006469469687,5.373003820517501,-0.5766204063040926
-6.351106557823945,7.373250720613044,-5.023050526914166,-8.947927446138749,-3.112225983400827,1.9317249589981935,-0.5377721083419447,-1.995281667944434,1.2181077994205625,1.4076543389732603,-3.2068747558990665,-1.1863689459907023,1.444904150974377,-4.126560157513008
-11.158877759213102,5.854980524703597,-12.249121814824536,-9.649300570515994,-7.545221946382602,2.10390650155305,-1.4646987999950989,-3.42865791418775,-4.057795628958923,-0.6883327261310024,-8.395583509793942,-7.127575615415809,-6.362186220396458,-11.349950849465964
-14.922978195403935,3.908585108870633,-14.587206162932906,-10.012566960567222,-11.638948307751624,2.4682582012290077,-3.875357914633408,-3.908846221813119,-5.831670247730296,-2.328131424190604,-10.69142005164927,-12.224782701529232,-11.562208243311574,-13.780941447681082
-15.867801191025467,1.2771999042037103,-12.634247633224826,-11.003226205148213,-12.236595750016726,2.2218758324469814,-5.79891061306731,-3.450689838109716,-3.355352467395268,-1.312199697855563,-7.246252589302888,-13.421263527664106,-8.740037508287706,-11.601559880082537
-13.68834523218295,-0.5056701833533059,-7.368713629104983,-10.185302273871452,-8.759074379789812,0.3118600381639052,-5.277630961222431,-2.825664481283416,-0.1860781624038189,1.037441409929473,0.8586710957238637,-9.821888030071506,-0.8539819042955457,-6.887744860732783
-10.080398571636447,-5.382365238775307,3.33178943875874,-7.353289686908951,-3.923892744189006,-3.8074344762058185,-2.0736212132229825,-1.6451639441905803,5.190927990954879,3.9136449256493937,11.096971386313411,-3.59008975206811,8.510469289499541,2.3885845641016235
-7.688388894157776,-8.750411136332618,6.431728612509112,-4.634484911562216,-1.5902325692200652,-9.51581756023151,2.024517981335025,-1.3503582378483818,6.851842380845451,6.376093888094042,15.704034357385533,1.536192063048956,12.795999346041851,5.175736908896094
-8.143672353710363,-7.815770751588827,1.4976582054641756,-1.4911954517404455,-3.608480226544814,-15.068045068320869,4.501292351480409,-2.0852175650102422,4.086616775215544,6.190279403537311,10.496829144716088,2.940083845126294,7.48124080214777,0.9016637212785532
-10.76475461951448,-8.418139066959773,-3.43181948154056,0.1601369492233954,-8.461003913221022,-18.489649591246472,3.865885174036288,-3.151945847312027,0.933710495844604,5.306848198069461,2.3642005863534283,0.7668876512245362,-0.4145955473986553,-2.638267223606648
-13.015299085410172,-5.463124086048697,-11.338393320835426,-0.1588403832487191,-12.74491417873177,-18.751442497078,0.5142328200495339,-4.947540427167058,-4.189503182359886,5.213944235127456,-6.455122979307823,-2.710363472030936,-6.013375095603488,-7.9772347968001345
-12.351075530375056,-1.0734310653651211,-11.718091052198575,0.5493015270291491,-13.91126309338972,-16.307589128273275,-3.7136260290301255,-5.342721980436989,-5.561611458118152,4.734877432414114,-10.66445306483953,-5.116495369938688,-6.8548961751837245,-7.681701187649108
-7.960645835491697,-0.8454625120264225,-2.95349667342926,1.8069929827837257,-11.745878618254658,-12.56255571149728,-6.706277798471847,-4.155467851816382,-2.3952486496716308,5.0358342510977065,-6.775938783280787,-5.460747570990638,-2.974342444279724,-0.2691550227021216
-1.107364291121602,3.3230138695482405,4.535779207661811,6.603776210053292,-7.629282049286875,-8.770659720402248,-7.149592564265666,-2.310112940482514,0.6529181940618032,5.792399064058642,-1.0608283910011522,-4.072302443561112,1.258670149192595,5.8977148404526725
