AF3,F7,F3,FC5,T7,P7,O1,O2,P8,T8,FC6,F4,F8,AF4
4.054185515871412,2.8860827926741,6.961282895606136,9.00811844947562,4.944795984374738,0.5482457346169793,2.252511170876218,7.175260898617162,-0.0147242250473395,5.0098662496137045,4.829067749042434,7.440093446440306,5.179462592401391,5.008049616310774
3.1858212406843878,1.878106701909572,5.978670056877281,8.149821726544006,2.293900326955172,0.0196657821576884,2.9030424374068358,6.722538972198662,1.7725298894510304,8.139096876264611,7.721516186848105,9.171814714324,10.680341604551495,5.318623766190304
2.573306787291806,0.6707140182911309,5.834533266493482,7.221914450205336,-1.4626518484776443,-0.6198149432989641,3.213760520531866,5.878568322988517,4.060493317211797,12.460179980346004,13.974307758366516,11.928391301158324,19.25067347777868,6.620412470799818
1.5994907890933583,-0.0260877125141478,4.572802960586126,5.727879949233923,-3.408514011590397,-0.9640858403540112,2.379918022632664,3.982214190676976,3.544370905957282,11.09189554124653,14.073955269215377,10.93325715352662,18.99560390305417,5.710366344943699
0.6561454397736324,0.0523822980933031,3.3525712211529406,4.174765097173105,-2.5217662116841386,-0.98477924607376,0.1486478495028456,1.484127615918328,-0.1662040207742843,3.33550033012779,7.945365612880275,6.143656622203595,8.800809757694072,2.916377941497447
-1.398118416236943,-0.0770130827738691,1.192912303882409,1.9492004241566712,-1.9732079023155928,-0.8635322748824152,-2.1777189992730746,-1.2063601069365626,-2.5203823089722435,-3.4145663674241056,0.7747329662797063,2.2265503077687687,-0.3415453566918546,-2.121871913796095
-3.584638172363046,-0.4781682076944172,-1.9693870899169363,-0.9014159910198036,0.0463152103423951,-0.8861955437975975,-4.83858561914688,-4.025829668022332,-4.190375773715257,-10.697125643145418,-9.570958173247329,-1.7090221192481605,-11.1887607880357,-7.387019205123816
-4.48428645220498,-1.5737933560256885,-5.3323386852347925,-4.50693241984142,-0.2642705027358288,-1.4246341163181817,-7.228318083285189,-6.510717759799285,-6.324052025447573,-15.576748164775015,-16.175796017777053,-6.433575640848235,-18.40304293007865,-9.02148710045715
-4.13264517450776,-3.089438433880473,-9.071507539181413,-9.002551993698221,-3.925387817585376,-2.8004266870325343,-9.067138514988324,-8.441495205432487,-8.16331960859339,-16.58518732481774,-18.09195035133931,-11.226350086771433,-19.972912574103237,-7.019309694712414
-4.4150142681195454,-4.36786282830421,-15.768759986832483,-15.210667430219702,-6.520970050659173,-4.96718712256932,-11.423539735867529,-12.32381278176294,-12.831605234843552,-20.420667981496308,-22.96163844226627,-19.752602043866748,-26.371001603471885,-6.898669159083569
-5.020153885134464,-5.144566365042997,-25.56774319357629,-23.327312333595987,-11.441715441710196,-7.299653658982118,-14.088926408694778,-18.157320173474584,-20.571212229187083,-26.181965786160955,-29.18748361556259,-32.23582365063048,-36.156388850777766,-8.44176554529134
-3.81598079659158,-3.1913321568634294,-28.548724074522035,-25.373801942988347,-13.301573392586413,-8.84023500561595,-13.978261112671907,-18.90903935713049,-22.11374504750848,-26.43054132434696,-31.20911139539237,-35.473964165553085,-38.10936113057157,-7.563805288785577
-0.2351339984531937,1.392699737379639,-24.50547387346261,-20.8777769493264,-9.8024467263256,-8.940924031827555,-10.94212155677766,-14.54818227103171,-17.485371836475675,-21.69962634001977,-29.644988535562277,-29.231394212829496,-33.1007625279997,-2.5726640128375777
2.392461451908498,2.9443803518478715,-19.59696438312394,-15.7781836128583,-7.500026524934366,-7.758546455937443,-8.243779747792042,-9.517806303156693,-11.979976445871738,-16.72692299681596,-26.01139202258855,-23.45686102573651,-25.096119640261445,3.512065609807553
4.816975972105935,3.300442998689766,-11.56131580214979,-8.186042385602175,-1.7477087183198607,-6.097800855223195,-5.258233915435893,-2.28326020354373,-3.5665696289255044,-10.174491614634013,-19.182652820971438,-15.344013858700311,-11.784227467898244,10.94538747948138
5.600248098427355,2.283939030308855,-7.644835271222633,-3.6494415454174143,2.4528085004716,-4.709211626168807,-4.163982086181489,-0.4573147059767689,-0.9851082620067044,-7.376659285447674,-14.597071413632312,-11.915748263990814,-5.079016004324185,13.585238473061338
3.0427065582875,-0.854547975007475,-9.02292643227865,-3.3076508585196924,1.4221205801985972,-3.717800309751496,-5.738043845221646,-5.194208820306554,-5.464253505701421,-9.473994721608518,-12.626536197895197,-15.076513911159603,-6.041970110942074,7.743504394076858
3.820804736517664,1.7513033361755417,-5.738854315897599,0.8716617585332856,2.9963944938379683,-2.74006861719781,-4.653079698094197,-6.286082292382622,-6.912821572392918,-6.376693893368049,-7.472565654359399,-10.862009285676145,-2.7518850528071264,5.273272549375083
5.162722481960864,5.374508674083865,0.631622604766969,7.594861298619142,2.825496026187489,-1.5169374119053534,-1.386730029676246,-5.407105911485552,-7.353047842938651,0.8673084581814574,-0.2253564806286848,-0.7635218051207006,2.1745599296823626,3.355175999036291
3.954650881366645,5.807891003263537,4.033215924013544,10.329336416430412,2.045769748697495,-0.3372513189497459,-0.1051709630691288,-4.583617070592577,-6.302006651999959,4.664554071299573,3.5483127499684373,4.149816321642269,5.740056125010197,1.0549182179320815
1.3160351054000157,3.7133603016366896,5.6850784907670695,9.867426786370396,4.157229254300985,0.2292533157099912,-0.0498172329332408,-2.166411453143023,-2.0869028678999504,6.415864577577096,4.264402484832583,5.720781953085968,9.441583897645945,0.8538700031895072
-2.969002984923513,-2.550476462878072,5.225568161722896,8.311095604576872,3.96488229417661,-0.0177973213002271,-1.5337751960522024,-3.32276826864107,-0.6916650137915092,5.255036628825756,4.818753573760565,3.451303098648331,10.629387362244852,-3.1504895544307256
-6.70375429893816,-7.844259682885468,1.5403645423805927,4.435155647477407,3.67383043165325,-0.6331614190815626,-5.34819195840433,-8.28984437845604,-1.7356261921934657,-0.2881125564721447,4.133733986180932,-4.834988200333512,8.922682192570324,-7.4112153439817
-7.0935714388162765,-8.327834506161283,1.899404481072072,3.880042009758798,4.215893131941288,-0.9722641816046264,-5.264424855308008,-8.492584706393751,-0.813923540506919,-1.0944985948490524,5.704009738357936,-5.370172638653524,7.871800000623464,-8.010960774461326
-3.9095479407198974,-4.380593485472544,6.3700150954961,7.154111647893698,3.4477818327539063,-0.88177520796365,-1.1455727812960037,-4.558379319982292,1.140996830598062,2.757289649727557,10.10678229185387,1.9665892142820776,6.9499886914672775,-5.746501068211891
-1.558898011882678,1.3073471728012858,9.155001496426436,7.235365797070022,3.2676671595034787,-0.8460296979022566,2.1884063209976645,0.2993471921730657,4.381211119194489,5.785027659180973,11.321616367089726,8.151670755500561,5.591401929984202,-2.868428516081602
-0.2453524659568388,5.04401120540478,11.68571875666312,5.218063729420793,2.963700336244863,-1.3747970448847608,6.031674135563026,7.788423648210547,9.654972970254349,9.87202172297053,9.98952206999278,16.090205163968456,4.416560017114723,-1.881070760932785
0.5866176047095545,5.21651899005764,12.09841025361831,3.701773627357165,2.910632226210122,-2.2643926657197904,7.236036554527375,10.383683540517575,11.227452896104776,11.35314660858229,9.052075694882609,17.468799758658804,4.651557642569781,-2.5026484059496
0.534268865518367,2.895263708655782,9.393204737333692,1.6302256028710234,4.457458554712503,-2.557174917666225,4.868712810767662,7.35359921861841,8.962984215751671,9.38258739765532,7.514049031694327,10.56094476183764,6.593417976487092,-2.6632396688204207
1.4213319604671415,-0.3068298369098432,8.087998085444879,1.4602470459823491,5.96772150346987,-1.335507904414765,4.1785305363356535,5.446978877281715,6.676541261955432,8.142517088028425,7.265653237309113,4.969662039914754,5.7348268276716805,-0.2842396790159642
2.675609568876229,-2.1964495880597554,7.6201844227731295,3.622424254611624,8.19479422666364,1.3743713353472533,4.349485629202288,2.9072523828079864,3.1078796841706744,6.638718544451528,8.789130333187261,-1.5015081099945344,2.1539939854550454,5.496500143022537
2.5680479578813515,-2.0664494956756423,6.274632354762283,3.2152237003970834,8.731957078182154,4.460115332001759,4.414757519292481,2.9168058908590395,2.66753646799724,6.163290228415328,8.6460307091797,-3.7659035070504014,0.6404702123530732,9.529311116838295
1.2802757282465933,-1.48782240920862,4.77626749257677,0.6208308225851379,5.61782680662218,6.505601306557371,5.240059815119852,6.6623565669677935,6.155493649015348,7.417371549448276,7.242336833674459,0.0638291072781317,0.4801569640746493,8.034186521039913
0.7411256999499866,-0.5634465370791569,1.5921602904959429,-2.9948864811100444,2.157222390825032,6.81347181754361,4.810426770091931,9.171386036945483,8.14630792740014,7.194192685603346,5.457315701786112,2.229014196362341,3.093403721062092,4.737269259546231
0.6684273062741374,-0.6918758403846933,-3.5294050794442637,-8.650177902007227,-2.934722817381125,5.802356640813924,3.1032429176745837,11.421495713131693,9.718009181440408,5.880562727102353,2.669905273240151,4.334428550951444,9.567329521332404,0.0164478390036268
1.0852023776208906,-1.2051205604787338,-5.793464393163648,-11.136166731278578,-6.061544198926301,4.517792708116638,2.504210963460934,11.26322695732604,9.690270754519446,4.203604368889199,1.8087728015579767,4.184363190955011,9.61804783231549,-2.9594183078202985
1.8694548925180303,-0.3953129276155738,-5.247027699417984,-10.152555920803154,-4.58215022951113,3.766736300132077,2.7201470978949764,7.691518087106202,7.0701208926222,1.5907699506091404,3.0866748375450355,0.3767508861516985,3.172936604771558,-0.9892300246274506
0.0884100717061657,-0.279898489418551,-4.507995296694522,-9.17532605738784,-3.2869063319902505,3.6219985694671664,2.4351899408135256,4.26487121426178,5.8006031504867845,0.4302891487818004,2.9763536508853723,-3.4046867101027867,-3.5083369348801927,-0.9584123023892516
-2.5661727836105896,0.8596684955861998,-2.538105489858282,-6.975518962981572,-0.3428137603600377,3.6115515417335606,2.0153945181390327,0.2178889692028904,5.439486278907685,0.8633655476273387,2.0296972181537343,-8.1230172713201,-12.659918527558226,-3.1650017903989087
-3.5682163667512152,2.1127045142969374,-1.620293808119687,-5.940623484569397,1.4472668409704252,3.2888778874969176,1.7806010879736325,-1.3142643231505164,5.417483384623404,1.1504016785325977,0.6966958181277826,-9.510764767780682,-14.534299082414844,-3.680868135102571
-3.2161888084161765,1.2892122310979632,-2.134491176740425,-6.577489271133534,0.340315277382027,2.6365294123212046,1.589609127034669,0.5073518245966054,6.485053131606273,1.8369947132535425,-1.6420119016114612,-6.708284809126365,-7.648390176711993,-3.767381077855524
-1.1754507186297252,1.4644850992817755,-2.085795984442109,-5.999741260835184,0.5774258528468021,2.021717626874349,2.2547400382718434,0.5216720682716555,6.012413554213152,1.4796785030704274,-2.7424544307374723,-2.969577094478546,-2.9024204082860354,-2.6888268286443915
0.4502999604526913,0.6430648804093745,-2.078697953403685,-4.81307418746505,-0.1877016828318885,1.858214263882192,3.885705018659786,-0.4791209054647166,3.9767269230598448,-0.240824292743181,-2.5751835310050253,3.0144334544868427,2.061188073736357,-0.3113499197774779
0.2490951994005203,-1.1016447542946646,-2.032710155581876,-3.2781343943028696,0.1212392858561814,2.3187634497656173,4.422838627240586,-0.8526266110881199,2.820684089850254,-0.6331605651389639,-1.8017513142228316,5.423039088569196,3.794616247847731,-0.2206264083666016
-0.6580096014705055,-1.4581802698882935,-1.7417456499235089,-0.9802056339474168,1.6912579791629043,3.279400402185715,3.938260522866493,-1.3882850287255204,2.078937914702086,0.0174656813938658,0.1280146283872289,3.529745080630577,0.2957210999651803,-1.960676531125889
-0.8762533886794235,-1.931208679932568,0.3402055303672044,1.880446373919379,1.640336962307697,4.4281155279626585,3.741373385676937,1.242486099251254,3.313769625164727,1.300187345076551,4.708476127489755,3.1170378117797783,0.7706851613037029,-0.6653520606767589
1.0484196196966744,-1.345133803483685,4.484603614009229,5.418699650089318,3.296526084101806,5.396981021778261,3.4349138385323403,7.429579542231043,7.105283685875029,3.7509234293367215,12.222865031858824,2.7919119208914664,4.165750111478475,2.70173601978199
3.1770691295464277,0.3499550597128518,6.95383089874007,7.71305561458811,3.460243197319984,5.888545543020843,3.5245790816485383,9.526085588831416,7.966025317189937,4.612867059543603,16.481991439737605,3.3330241536829384,6.616572901705832,5.423447163342492
3.4943813987540566,1.490522223911671,7.961491370281679,8.594105589554285,1.8372033680379949,5.836791893973643,4.206762125274447,7.86540185628546,6.079197046736059,3.779443919154496,17.45515761348827,5.615975949139551,9.61680078132757,6.471186754434461
2.5840694229715906,2.1905415795684218,7.163196217532137,9.137684078862607,2.12511152103467,5.542603740874339,3.9041108623174656,4.824818668537711,2.5471498981432568,3.639898936867512,14.424159657647976,5.588024193467052,10.555356072565678,3.697057153606889
-0.0521438006458673,2.598283463750457,3.60852782817872,8.823760619925539,-0.0641377176819047,5.597261854091513,2.6899684793240164,-1.289641758942848,-3.9260012329913394,3.63009672851132,5.573067581943475,3.4859165538115,8.882021916130883,-0.3004353401812774
-2.1817731323346066,1.9911504328242948,2.109218135489161,8.398408092639423,-2.3949403217059606,6.488982014414437,1.690069002865522,-3.667040682298798,-6.45539073180672,3.0145186535609323,-0.0236145036792766,3.011278622040341,8.093700434843893,-2.0610236918099494
-1.7416479117952215,0.8278125596323329,2.5316350107889307,7.936062424000157,-2.737878864783051,8.094470257458495,0.6283314049057259,-1.8897234775922536,-4.75353882416129,2.0615549728221483,-2.670556549875469,3.582678347689792,7.572212016286974,-1.6589142944058284
-0.6944581090083801,0.0789656973020733,2.665171176526947,6.224904103675321,-5.705124399347633,9.490215866982886,0.3059013503414596,-0.9779298257459969,-3.4018070309173085,0.0492429810154317,-3.795984631700127,4.907121925057784,6.832557216305532,0.6834684216488782
0.3447558379545032,-1.5773326761259765,3.5131751153217534,3.36817965987005,-8.177113915872303,9.381417086431377,0.9671910706143386,0.623950497748175,-0.8345875612603917,-3.176094632033668,-1.256669543322097,7.672909103414334,6.428640434132351,1.089896852055539
0.7487121036684655,-2.817335859879171,3.097961328059516,1.4827539692572909,-8.044742842913593,6.963882379937541,1.251691005560977,0.7892131848744365,-0.7235453978238533,-4.876398371705351,-0.6569705311050494,8.17965740488973,5.269867678372922,-1.0419824664180315
-0.2844333045562731,-2.515270426913668,1.1614635340001558,0.5086273537832675,-8.636873984934358,2.6115169961686053,1.3709684674640552,-1.2039778374517622,-3.826619171646314,-5.047817483996675,-1.766366852514755,6.3300413312491735,3.395299578447824,-2.858583433399448
-1.3324824627689096,-2.5763783925801067,0.5044823154509613,-0.285763500285918,-8.030714972582052,-2.1770608148872777,1.2166606297034723,-2.0349960952192125,-4.44319108506123,-5.485339066025079,-2.5644718839779324,5.226004992326717,1.354787810291141,-4.898644960159936
-1.3807479965688216,-1.418317053506698,0.7590722447891814,-0.4109109416857509,-5.280130108118232,-5.617880059645257,0.5275770953593687,-2.299214537783928,-3.3775138508747027,-5.609926426164823,-4.186604160348443,4.124161511675196,-1.0534817400829275,-4.574466266976796
-0.5252584904203783,0.655804340910032,1.4032821161436582,-0.5919023657081707,-4.647068113898429,-6.712433217862772,-0.1160099148384374,-2.638330308144168,-2.863632640879177,-5.534304178520539,-3.982632389406028,3.770306333679063,-1.7592398815639856,-1.6333510807243117
0.7424811183787818,1.538007114084115,2.9479482183374843,-0.8323254803102518,-3.5833080812341698,-5.800197683328274,-0.8240267844206675,-2.5589420645300653,-2.024692686273577,-5.443570874835608,-1.7494861119639986,4.683575907313999,-0.5083323289870435,1.069212360634118
1.4703244649353109,2.105661975831297,2.7856418605875355,-1.0525189176464411,-0.445493698327706,-4.2187055160156905,-1.997464636791609,-3.183689924049873,-4.0028629049122895,-4.955180809742712,-0.9907278815942968,4.457732297118999,0.2734918305126524,3.049037983054457
1.5637482606792608,2.021286304204839,0.7758675870449585,-1.427369533121645,0.8802721293411734,-3.347696796265748,-3.589404531372452,-4.554260190316607,-9.285643581874751,-4.140335843472868,-1.2594058040616924,3.316353837530645,1.0534136745419385,4.925444198198915
0.7450016520318664,0.443213850904343,-1.4851648785910327,-2.2710787329074416,2.0574441084509947,-3.740752663628543,-4.8121486285667725,-5.333991295704776,-11.41520801367153,-4.1851773262988665,-3.439228605506966,1.040479340814799,0.0480377970533721,4.758867467214731
-0.6264636780773323,-1.04455958402894,-4.62178361377425,-3.693532740981988,2.470525593884314,-4.9359818653288565,-5.6754876445417,-5.701542111359081,-10.846662763297456,-5.153525732699992,-8.340479251970969,-2.916551037525559,-3.329057184582669,1.7952949056434526
-1.2020247336948424,-1.071177997485579,-6.997341417459162,-5.0507959576983135,0.2600978797869324,-5.991524082134393,-5.795689785664683,-5.271106691850373,-8.323595865021865,-5.307470479090184,-11.52417329889636,-7.817957433571664,-5.421602600333143,-1.0044389874557096
-2.1509547284111448,-1.271066721237604,-8.357800815753711,-6.43551115481717,-1.575441522232507,-6.256466499934254,-4.915547960327683,-3.7315378029708137,-2.391592453317979,-4.840791975576448,-13.22305910570727,-13.950865677697706,-6.6668806566613465,-5.876137790301531
-2.258680856603552,-0.880931482445477,-8.801678357370255,-6.622744108557392,-1.9002789824228368,-5.774125595650859,-4.300936182815462,-2.630206256931076,0.1166872388240245,-4.165988161878513,-13.064439680685886,-15.991493509050237,-7.050363802951871,-8.515577820915551
-0.3969442127272735,0.325999894434167,-7.7634828269416225,-5.363526979361277,-1.5894611037955777,-5.0790063873390485,-3.8281823198527936,-1.8488366256755728,-0.9022383607524862,-2.9510800757016167,-9.933789672579469,-13.373919624512643,-5.820484401967012,-4.801508917796645
0.143044904592772,-0.5939162773894844,-6.53393190415703,-3.471659589712989,-0.4932449211178472,-4.662526043489186,-3.90027044130665,-2.0911488896702664,-2.512409801213316,-2.206516226628163,-8.056102016365346,-9.543321556441372,-6.55342552581559,-1.2465349332928648
1.3608877655460092,-0.5699191239322421,-4.939334128077408,-0.5492921225945339,1.1421815159801638,-4.60641349560335,-4.831690148924119,-3.782210639646877,-6.321910025796457,-1.971681740273514,-7.136688144820937,-3.0501864213354994,-9.204681830112566,4.24046620673691
2.510544070314437,0.7982091133886375,-3.6131027261965376,1.898292635928061,1.5434415769803993,-4.657277905514972,-5.156355758955532,-4.76515230810216,-7.422633957809941,-0.9651774390698792,-5.1176263892894855,0.1805023722922026,-8.481103444312447,8.093225926827412
1.191432261762472,1.2577587041718576,-2.857711441561667,3.726050654967793,1.682831486497807,-4.5774123809831,-5.010167664552556,-5.252512627645121,-5.407058070918422,0.6540327189007396,-2.753858187691081,-0.5755685237371317,-4.7818648696460775,5.478830974692203
1.3230127549702635,2.8777479760253053,-2.230380816204175,5.852715891346393,2.5485607325015587,-4.375299638206935,-4.50663960675481,-4.653584069530767,-3.3018330078711244,1.9106364079369813,2.3803678618446047,-0.4821550823910799,2.4690956262540835,4.178668447118903
0.8346260883415548,2.8531807796628184,-2.0278773703646853,7.885846505934311,2.6037595042557937,-4.197686608528441,-3.337848540470268,-2.4428254992075327,0.1178347609167873,2.971503337554414,10.695457208310314,-1.0512304044308662,14.591432565681762,2.3320507115446083
-0.6063269141161967,0.22999658089781,-1.9611717389236505,8.053097621827678,3.017729362339561,-4.050886739259502,-1.9760636342177311,-0.7496183035809562,1.7447112075032412,3.5507422725398188,13.069877896736406,-1.494614293051953,17.666636219627527,-0.7945564548484737
-0.6798324837924808,-1.9132629648731987,-2.059379367699373,6.199465768462167,3.728852867842406,-3.706351746545421,-0.3323963499656045,0.6626463028494679,1.1265622740796906,3.4329802078997997,9.445071861217803,-1.2691196922423489,11.158055070843432,-1.6165641548235772
-1.3141274908002794,-2.6739642377350314,-0.7278325652048817,4.371756741236718,3.464397351039553,-2.933103117669658,2.433441542757483,2.1998567909728064,1.2693388947867137,4.926124507669472,3.539001728803645,-0.3224191080511233,2.802585175395316,-2.6933711014250363
-1.1161345245107428,-1.525899237669596,2.248494182123616,2.1766353278352013,3.6988634757826793,-1.8123980951831828,6.340220021140365,3.4651197774273714,1.408553975653886,8.072313399933284,-6.8408932847503445,1.81239030210978,-10.756188047902558,-3.470469054972623
-0.0723345983523685,0.8474007606155095,4.034064664896569,0.8577391718760957,3.900808946875769,-0.7622188975526654,7.924036487138367,4.884734705474994,1.92617030798059,9.284154642073691,-9.849885061442302,3.8440491996484183,-14.665552710581784,-2.096126274436279
0.1718262886681709,2.0789870841711604,4.90598949335465,0.8862264546031883,3.3230321185234435,-0.1949980864430087,7.079039004866197,6.401051131714159,3.248565840591191,8.854429653876188,-4.478197652924657,5.945613269400523,-7.163636121657773,-0.4946612966102175
0.3606230702554672,0.466051447774207,4.053975462113682,-1.126242433956361,3.0393148579022684,-0.1529786382947913,4.906611791185442,7.040845460490255,3.078724821114203,6.575093012909919,0.1586852079130673,5.337838877880481,-1.586045529771445,-0.8792325078548107
-0.0920231627269457,-1.985016694878493,0.7665188928280987,-4.928677572271525,2.411193707611569,-0.3220394126216201,0.4881743076329653,6.772482620138035,1.4954534217549316,1.586543412412395,6.9227787211741445,1.4923290283622417,5.71470651752476,-1.2024559890869044
-0.7254897309155319,-3.1071360598581177,-0.467424865560488,-5.624588362473644,1.4471914623587818,-0.4197136304987214,-1.4378839304042443,5.719255431948753,0.5644267407737029,-0.9150937675356188,9.237215127303944,0.1869737388866862,7.531849956903902,-0.9521031726800232
-0.4466720776237103,-1.9688399660675957,0.193674115121763,-3.496377615731379,0.7672682491123807,-0.5121632259352205,-0.6034018373582052,3.599941803301372,-0.0820267592342546,-0.9301703421624972,5.544739747977601,0.9428659734481056,1.5411323440712636,-0.295622209178962
-0.0928971988337919,0.90163790558686,0.8269538290351558,0.0150723633158685,-0.181448018806213,-0.863007625459467,0.074186286264247,2.6646673969424604,0.2787889950472738,-1.4678352963827168,4.241395054272729,3.753228333145768,-1.97116691196296,2.0455615799908644
0.315923886484361,2.644962802984603,2.371590146530396,5.986549790654045,-1.315395528519245,-1.448679195426236,1.7355047794701366,3.017808205825672,2.095100283422322,-1.4188306515065725,3.5885375837993188,9.941978924410163,-5.12727459663455,2.772065163231409
0.4064809088751853,2.2449425262198237,2.675190556890376,7.362487407293138,-1.770316318095234,-1.711389764202603,2.4634558913503124,3.108417808697995,2.7122520291999432,-2.2818153137557604,2.1961702070118263,10.49989503926384,-7.570106846345385,0.768491852082857
-0.1582648364282794,0.4913607758100939,1.5047439181116724,3.613275733665897,-1.3417705325108806,-0.9384553309003314,1.9045538066770595,3.4551378333899256,2.2986083435086124,-4.423193017860925,1.2150455734730017,5.230785725623365,-7.692477058535065,-1.251002258077638
-0.0494484217416887,-1.0472325666931066,1.803580632220118,0.9862697758073888,-0.5920157651473036,1.0055791939396377,1.4428131146776342,1.3450071660512626,1.3258652230887702,-5.275864243724869,-2.252973847724514,-1.1395135022090794,-8.786120553181702,-1.8834849249015857
0.801965706923234,-0.3912545782242933,3.180717453202906,-2.1087501072578063,0.7203413200559674,3.3075271847756293,0.5333594242206479,-3.636029210440804,-0.7860386690277718,-5.154266450169851,-8.320084700784612,-10.70476729129572,-10.27060556195533,-0.0137518277084842
1.766515348043941,1.3071733520834825,4.2538089563992845,-3.164919266623946,1.5267487388759915,4.634709093534426,-0.4982770944962335,-5.67705343919453,-1.8737657931920777,-4.9620033253531,-10.964896277487313,-13.724803145533633,-10.367100161690846,2.9593383079344653
2.3059520475249777,1.7549431318795907,5.473156258382155,-1.1016652242023035,1.0328086130688074,4.066758389532178,-1.5570674061623049,-5.153855110855647,-1.9053021615500216,-4.267596982609448,-10.392282515722025,-9.073508945438856,-9.411643188681298,3.8463068298322094
0.7444413839994126,0.9504632492235096,4.873828358758551,-1.4200269979128497,0.664695848524506,1.764763145577013,-2.1622813912660948,-2.8625881520518024,-2.1150417937575043,-4.5789671164295305,-10.053345596738282,-4.961510138510937,-9.568103567219833,0.8946646008750684
-2.1837889270466886,-1.521641383966128,2.104334946298001,-3.439333095349077,0.0491628978829283,-1.1447766041662364,-2.143915010813823,2.5127569513335426,-2.031141426939408,-6.073377807838052,-8.734902238973262,1.046418519063837,-10.7247844882167,-3.4041030926781
-3.840430344058997,-3.5243267091166217,0.5749163100780307,-4.025148597939058,-0.4682346455891052,-3.3215213240892894,-2.0704753360954467,3.667796653628759,-1.6898827727453,-6.041964956401134,-7.271245193893243,3.342972602360658,-9.62092465230973,-4.83005332217761
-3.171471983280149,-2.535921858713535,-0.0947848410475965,-3.9612622401849857,-0.0220600515821267,-3.985466454010581,-1.7641914081987196,0.3604485446906179,-1.1709580922877665,-4.7104791819995215,-6.03460193650288,0.4866609067707595,-6.480117196365833,-2.574320361198401
-0.219347655359073,-0.4337982924849114,-0.0904315215885552,-2.271497971209929,0.104828456625202,-3.2013764914462497,-2.1314676000613098,-2.9945410654988343,-0.1817440205571775,-1.839700417889862,-2.101608748662948,-1.4579715437265508,-0.738526926234627,1.6022434121530105
3.33906702934775,2.094091048677513,1.2931421158050087,1.6088608227970105,0.1966978023834177,-1.6137965102257947,-3.3159927015869157,-8.070886131782395,1.2739477493423437,3.218561582936593,4.437937942418185,-4.150970570566431,8.45490933873766,4.576495828283831
4.447170628787721,3.306728978395998,1.0326281115902851,2.637747730754455,0.3502270257496069,0.0577949720598756,-3.13883525548798,-8.850233571676325,2.175017529908321,5.145401533830447,7.467486760117546,-5.021996697047145,12.139781798806736,3.548574564603914
2.224095132453946,1.7326212266459269,-0.8506064389095088,0.8562447285414654,-0.4420556662237543,1.4038274233865955,-1.7039474145226543,-4.43943968305708,2.492671976533827,3.819793883757231,7.109807422210599,-3.1170359488931787,10.027174772133712,-0.293497163349107
-0.5918984935233241,-0.0723374047721699,-2.243451383691005,-0.8699860932317066,-1.1728273178673965,2.4082190729413746,0.4048457581549186,-0.5763205287614359,3.156625716940912,2.24590594340207,6.717693474228158,-0.3270358065701102,8.129327257007894,-1.919844928644496
-2.220699612558914,-1.4192698255699832,-3.7325267919436262,-3.61205719065158,-1.8318856809703656,3.2624704007144683,3.673256526021461,4.270485266498747,3.959319655883275,-0.7994521520777276,4.985009163346986,4.342694442833851,4.423954198092433,-1.018265423935473
-2.08043222819169,-1.7346712122129286,-4.09172764028454,-4.387352755926769,-2.7316071082723163,4.073066778832873,4.241358373897086,5.257168672687664,3.365915416460409,-1.612121079368623,4.965155543433192,5.982458431636088,3.2113965481700943,0.4065481696978618
-0.3699441916849591,-0.5925112931756915,-2.93521008781099,-2.693375781320134,-2.4970903228804557,4.663891353859215,1.820178855391686,1.1888114939116468,1.3597313569294245,0.3293573163491315,7.174386824408716,4.1672274928359485,5.455477354420399,1.379740440335158
0.2559223524567996,0.0341442944354613,-2.6929962582189613,-2.0794560309297894,-1.959477668809311,4.620973248694556,-0.1406812562525557,-1.8017254795467597,-0.9559400651288942,1.2999170039009451,6.966813794493441,1.7701871047277251,5.265596630070064,-0.6741217027630707
-1.3017656665743846,0.0706929423959431,-3.077925918903426,-1.836285989993334,-1.819200949301483,3.585894261121732,-2.5122353045456967,-5.054065117246202,-3.917480675313032,2.1971581318879454,4.955780494063571,-2.487899252587312,3.6993590379200096,-3.837111936429584
-2.868247970258794,0.0170958403773889,-3.2989872850905155,-2.2594327367419,-0.959583701624704,1.625638552918813,-3.1098462017910293,-5.948028157256167,-4.369141589789821,2.494935408123366,3.5841474725875018,-3.3151921841602463,3.1989604451661284,-4.195682060541758
-2.6255197667661383,-0.2024028509438568,-3.775427866854069,-3.9480857094049866,-0.3670271960962179,-0.6005059150152103,-1.2502812050711052,-3.3112017272935974,-1.868980597194135,1.6292519506017715,2.1726543149361643,-0.1095319372893748,3.009602284475681,-1.6171223174156268
-0.9086564426660906,0.0475850315077876,-3.997404648439983,-4.566240309784422,-0.2514511369724875,-2.0802422063522066,-0.818918403285255,-1.6632905383964949,-0.386226848947429,1.3132213441269007,2.393494829209601,1.7143706943775026,3.4422937230715256,1.2607364092134423
2.556443191241606,0.6134290502209049,-3.916274969966585,-4.265533548689403,0.8960755501033907,-2.034396957958604,-1.252777014638476,-0.1268943908303189,0.7930721754624396,1.2950929585521975,4.745397213756342,3.369364909549766,4.832821734481684,3.292448315916145
5.089332347712373,0.7603918469403573,-3.184408336200277,-3.601768961030286,1.536568274025585,-0.4825110658088647,-0.8434232466072704,1.4298288573650757,1.996989801613604,2.005295118596081,5.9089544673154935,4.23318560860376,5.2557139695536925,3.2319881355504525
3.9550106090492543,0.430092949808963,-1.6144345330703298,-2.090403309368098,1.1821194370151256,1.6695765063063617,-0.1532535245741955,2.305949991457439,2.572511858416424,3.7995385515716023,6.265134253903345,3.44110819764344,4.756879570713157,1.008639530741873
1.594297416133963,-0.0869417050819529,1.232211309355396,-1.0368852050782362,1.5256658764603008,3.187297421747928,1.721937755344257,3.689564856972538,4.903857197148045,5.344909658969181,5.218190520501808,4.343867252814337,4.403673095181568,0.2034768504668946
-1.300741766518986,-0.8525991263072477,5.607364504054385,-0.4622444945020753,1.184783859661105,3.3564713674886733,5.059983677300588,5.380576135839841,8.988945186151986,6.816339153459774,2.015147019395959,6.674277225326473,3.807040335535392,0.2079946816671295
-3.1991359374467314,-1.254180648100418,7.520453958830233,0.7869997757082762,0.1201753185666962,2.461631500206863,5.991760210935462,5.682105587796892,9.984823318940668,7.145318544759082,1.2125583376772622,6.898256926531895,3.563984886494417,-0.2549247403466231
-2.328185876161704,-0.9444406082840822,6.8360939955940525,2.4733864434341446,-0.0811461662437022,1.480755252557456,4.5054423094673925,4.606666714618117,8.031108660802174,5.963800061368753,2.700267743631518,5.400545933147244,3.8158228485164063,-0.8507412443270036
-0.5906701726117215,-0.3547343370814543,5.314809718712384,4.0150768876464245,-0.8389691297948144,1.2478156692063749,2.249115538478884,3.158118973045358,5.271819833634718,5.360435628169958,5.704395131295754,3.3840262314445693,4.287935504919624,-1.792386126211702
0.2790223451788257,0.5157770798464848,1.9518893896597036,5.539605272466972,-2.341428995573177,1.811663830934421,-1.6877443123100868,0.9613496140208992,0.6475879591488498,5.048382137843673,11.327007235931626,0.1875095170225221,5.182356711428408,-2.62482116506933
0.1439864533123522,1.056619175939962,0.4283573298804161,5.527583472465694,-2.427489419939997,2.525595136929298,-3.4034559140180467,0.2695194468651412,-0.7545576160370164,4.27468027006458,11.750108709985223,-1.0804928172808062,5.023850864074044,-2.0777426918753124
-0.3719631998068359,0.8959042877271455,1.0381006435472795,3.721089591308791,-2.10807323017846,2.7075328751287646,-2.553583318018624,1.3830050405939287,1.5931300040702656,3.367659106222968,6.575203883816483,-0.1217249056329541,3.705201688187003,0.1007380575333283
-0.4678508770508087,0.7128670078041031,1.8605030997483911,3.820136713315775,-2.2260103678091987,2.20836242381025,-0.4533109338995726,3.5857678450239,4.287188783221698,1.8886035692947365,0.9768020304750724,0.9165663674174372,3.241550311940243,2.155644784698457
1.561489371476064,0.8314907467255375,3.852663471633549,5.6377918085794425,-0.9487623323843702,1.4025983161101845,4.011886559063543,7.590706481432949,8.657665130700101,-0.2449642110081462,-6.883845338315796,2.825721435770241,3.3743118878882035,5.129490390608176
3.710754447893322,0.9835862017407628,4.46814596744193,5.97021793275565,-0.2684705134093202,0.7369171727424337,5.739232705458996,7.967446026157001,9.37674651200809,-1.500847528406971,-9.45904794965597,2.392658091678981,2.3358285694377523,6.317415044676277
3.441247863592248,0.927484563539516,3.465040949904172,5.407885690292591,-0.8198511086825684,0.3606988735714194,4.485766897728592,4.376419465135364,5.7234065863097365,-1.8764346495623387,-5.586272423291747,-0.851111948210902,0.3574628167019569,3.5763571188091907
1.2423970829268842,0.1661523031367226,0.5167442785231553,1.5052458308415342,-0.2467808887955571,0.1565936920428692,1.31607692083077,-1.3294867174933305,0.5230734187238513,-3.290451366041617,-3.9059938785382777,-6.264444370968704,-4.5771688706707545,-0.2637054708253107
-3.2211295444258354,-1.6187706811216889,-5.219179078049109,-6.560690321592915,-0.239067379076904,0.0016901332113281,-5.180087994781098,-10.64492372185762,-7.779176118252492,-5.512557488789579,-2.610236586744787,-14.91416387055114,-13.051801335200336,-6.864504808673933
-5.94530207513242,-2.7240819449762723,-7.326089215491002,-8.894474692828368,-0.5479919667227091,-0.1043762466133806,-7.0437480145959634,-13.376945792375276,-10.785949842537056,-6.2410906093130905,-2.795989112074133,-18.037358016043285,-15.225366455297747,-10.131876944490848
-4.148657670035102,-2.136275754043027,-5.726797557183126,-5.606322332653267,0.5287051748842378,-0.1487105962963254,-3.9722947271169873,-8.824275955856823,-7.759685122282232,-5.6463007818213615,-5.917228884378386,-15.182051088414038,-10.97325931261352,-5.798910084035841
-1.0565979861022,-0.8205781270342754,-1.5681264222579927,-0.9332320868113312,1.208147257688191,-0.2204550462080683,-0.3281814709774455,-4.076992347231673,-4.35437026576237,-4.118911093192621,-6.143732589247216,-9.846825411265884,-5.060010515762796,-0.8789817122695223
2.6974655883913674,1.2276554435763438,6.838529394808145,7.36596160093997,1.708360165443895,-0.4096273820855577,5.781641547324025,3.3278411612583105,1.554596583257304,-1.1394845889845246,-3.929434462116706,0.2769674419087676,4.830910754181422,6.170839075926143
4.280235887332992,2.3235406094322477,8.851879258689337,9.159707461792024,2.42161036749242,-0.5908106443074921,7.385101865489895,6.207483543208052,3.633168899314313,0.2787050713890444,-2.650220632929891,4.825676069474556,8.157991078569008,9.415008953106202
1.774700438180192,1.2644262241444175,4.021263557822893,3.488814848761543,1.9219815234791575,-0.4107583810441677,3.633447182493533,3.269120880694382,0.8877574131754292,0.0042278398963478,-1.3426025299714694,3.0878676371112284,3.8255299709885073,3.823813251257948
-0.2351046373620998,0.1321213879243787,-1.973510936083932,-1.27453336985378,1.0574477969800031,0.380812403556285,2.254216685381309,3.4274476613977387,0.840966339291874,1.344501917323623,-0.6463717897078655,1.908537459281917,2.353768723656186,-0.3391832126445015
-1.4890349614246272,-0.8941365416119873,-11.714550726391794,-7.5568257085507025,0.2935052633491468,1.5279400461890686,1.688518675499506,4.959577556629563,2.0199723288024725,3.7429673235449417,-1.0464857118856707,-1.216748726503183,1.3478415087836595,-5.095325036703689
-1.9709521865483863,-1.306585196162876,-14.04893010806462,-9.47041550299282,-0.1448205867896727,2.2540673648322507,1.6213580060286592,5.283623186953925,2.837748320876138,4.935068051415519,-0.2358039153037926,-1.995843499925375,1.2276841090270942,-7.285128553728207
-0.4310887136076039,-0.2619925898928623,-7.72752968030743,-5.486939362771289,0.5150633771197016,1.803798997267159,3.261575850132833,5.59440928380313,4.357095947306703,5.292749188855189,1.6112722281206735,0.4735956031612198,3.5736524337934688,-1.902928159509251
0.461349819632431,0.5937440535863807,-1.3553048511910224,-2.4478770851937584,1.3248129855150976,0.1500964756159231,1.4708536190416954,3.478274007848307,2.947474445118265,4.540563507777933,3.087089210285329,1.877738109223616,2.5022330344878227,1.292542725648661
1.1143161934902452,1.1887368145479391,7.906681885530252,1.3554960654412271,2.3473977289992742,-1.8027638583457453,-3.750400941411092,-1.4358567259973014,-1.6719470821235662,2.200948422110285,4.572676300141056,3.376944380680713,-1.683116984565147,5.506596251675207
1.9192562867663088,1.4488382465841991,10.43281715849237,3.178251569471812,2.836725195376712,-2.844309641989112,-5.967899098491843,-3.224064342203194,-4.32077375818405,0.254728770544852,3.646028281585509,3.662688586375893,-3.134374880675709,8.388836988925709
1.3839297465477989,0.8057687265216107,4.493205620291387,1.8620509358080573,1.751977284962594,-2.474213370633313,-5.906018725578799,-2.1108652544009328,-5.596279446173924,-1.4267941829485542,-0.1280425925038163,2.092536737503177,-2.655537607834749,3.863250647232869
0.3188623529007204,0.0537460060780553,-1.48767440632075,0.4414214978389394,0.7899987650951987,-1.3951659690483478,-4.825257190984841,-1.997347844439317,-6.409484090392281,-5.399781932264524,-3.6109175889188583,0.2683021816586135,-2.565025768198048,1.0683393320764374
-1.6703259600171267,-0.9982935374283204,-10.200954625918698,-2.123924190860989,-0.51060480328448,-0.9259463001406196,-1.4621443085824477,-1.7671216002125372,-5.753403115414285,-11.46662530177298,-7.390151260080419,-2.3255122289513954,-1.90431751453968,-3.99901949761506
-3.458162513841454,-1.8906065766008016,-13.331034733831943,-3.620160817896192,-1.6589714193990066,-1.7738833076029437,-0.8119331712524313,-2.6713425885129363,-5.897846076496737,-14.119901111811563,-9.410984828765992,-3.098986702632988,-3.334355610646038,-8.95034908586869
-2.884021593569358,-1.8165485735101696,-9.271344505703311,-3.614110603571955,-0.6487757228180255,-3.311761406011911,-3.0553816276946284,-5.307581383315302,-6.785361575550525,-13.40354436085388,-8.935917821822503,-1.6594082187753831,-7.270204999380844,-6.157853709905653
-0.7222868420434345,-1.2472136106546998,-4.405751357580643,-2.41366992893374,0.3058380099799963,-4.137608833228157,-3.7839364163652727,-6.086270657278765,-6.630625382400539,-9.910222624694525,-9.345335964497616,-0.0440874992142678,-8.540720426397373,-3.879928128476559
2.796942066842554,0.0664523804604116,3.735615128494548,0.7701704481486938,1.1638595424728373,-3.4677227216064104,-3.991135590289897,-5.278634893985211,-5.807999592777324,-2.17077871941077,-10.016750497438032,2.4646185782091945,-7.553282293610949,1.0556010176726425
5.253222039711535,1.5061766871731108,6.928076251803929,2.690219157447404,2.696092083590756,-2.0052297671655985,-3.0506895045698403,-4.225446349470573,-4.285614625374653,1.9184092801235928,-8.51580350158182,3.4325043524388548,-5.81050873622292,6.790854627535027
4.126859403754145,1.6630612104751934,4.015426710924612,3.3957247492380147,2.374926672685503,-1.329858253332322,-0.2354584844996951,-2.239170508800172,-1.7698545899806384,2.214060427475249,-5.151966016642606,2.4644284686356945,-2.266778232612324,5.732449309899206
0.7869007362265915,0.7876780227667248,-0.2424964121933514,3.1264181622895166,1.8472479164526248,-2.299421803305222,0.3610976776758426,-0.9693899975339866,-0.2428592975377759,1.9698609346060847,-2.528870749748895,1.1737140491138018,-1.491905442150198,3.3802988794409097
-3.7378748690768737,-0.7942446063560863,-8.210522548121952,1.059756130914593,2.3816432121037376,-4.020803361742424,-1.1375363292363854,-0.5826538434947865,0.250531708768144,-0.710212099077786,-0.3789699356687755,-1.1492954513745706,-3.800493446399953,-0.948539360608884
-6.273356776593265,-2.2378728668232446,-10.900474532264456,0.1732318483559561,1.1301169045366444,-4.50247981611977,-1.785087341521286,-0.8444214971736078,-0.0271405246838756,-1.6240614648986864,0.1690448555797733,-2.041770030778382,-3.428202559783746,-5.424966472390814
-4.328721243971742,-1.8201412979039315,-7.4528567348330785,0.373765973330229,0.0429027366863829,-2.4949260695658357,-2.3235944391645145,-2.257009405455791,-1.6173762625456054,-0.5136893408508769,-1.5935806373633294,-1.220207029483077,-1.1959394876813068,-4.384999545190332
-0.1747076756210875,0.5902925681239612,-2.6957430611791646,0.6664326493748494,-0.4091859135407073,1.1758555131766322,-0.0177845225060956,-3.0583179090656003,-1.9657273110514428,0.553125251966791,1.453181467812744,1.325633406130225,4.383168756581631,-1.0031216238823617
4.474033287320443,3.624900056986325,5.778621865209002,1.693787256729921,-3.142394480056826,4.063368658721277,5.823482379614216,-3.295276532802041,-1.046454026498023,2.603147787736246,9.333423790523756,6.417255591780623,14.597760725998572,2.747334679944088
6.500057843737635,5.113174295123171,8.448530358077434,0.8450736489549612,-4.07734069552994,3.993311323825623,7.905032581601069,-2.858847110905698,-0.7036648971367471,3.095009001374724,11.795051598090838,8.077488697890994,17.13077110885504,5.0118593366625
3.865103080566567,3.6560291437611303,4.391246612383339,-2.0655592688094733,-3.665865971952558,0.7620463443760421,6.603897163430809,-1.2929944188633848,-0.4202815066042737,1.784089256390697,9.762783764950017,6.175540490812031,11.828995287997744,3.0069768767467604
-0.1619765903753895,-0.2644910278431245,-0.194766555800456,-5.041915294779201,-4.970400773775777,-3.7453443939091287,3.1428671709948723,-0.3414057625412621,-0.772172161732271,0.7853515028025844,2.8552874291857777,1.200082750626017,4.074345401862117,-0.6036131270398813
-3.628144179450988,-4.696402915777129,-7.760082642214336,-8.687894164217862,-4.004433622914053,-6.970511609589806,-4.153381734795857,0.1049825744700131,-2.0402275545813966,-0.4892437356633117,-11.316308973023114,-8.51339434475067,-9.065147245636204,-2.825838680518116
-4.821322962926097,-6.321252911365401,-9.756131033612704,-9.565123613356654,-3.2424737507840757,-7.366984505954605,-6.2339340268155246,1.0272149392818528,-2.352168862891503,-0.3441477684030487,-15.603472865726832,-12.285078004914212,-14.10600785116642,-3.0893353040610734
-2.7138348295331447,-4.2287048430771215,-5.002955274135172,-7.112256956812167,-3.7442027862662832,-5.108974330575084,-2.76203398801282,2.1199371579539146,-1.813361855664158,1.6422789755736924,-9.668049030559176,-9.83383303916781,-9.828714700642982,-1.3789900546411509
-0.257445503362684,-0.7327691874123093,-0.8508711407709006,-5.4110502747343245,-1.9174087125478867,-1.5873233245244478,0.4637439968511883,3.448299935733307,-2.218329612802157,2.360351539632155,-3.4315714151800503,-5.097447222827484,-5.8988345733612295,0.4947015105704674
0.9255969394917484,2.5199311070141226,4.903670641758805,-3.6239967521764296,-0.8153059251040962,1.6212692693545492,5.502454620865988,5.125286635747464,-3.299184612103521,2.1794111184802,6.981895353258209,4.600732107821928,1.034693229954189,0.3228035917874435
1.101212705492122,3.443620430789763,6.886807460704175,-3.304963833435774,-0.5740869857836577,3.5209366910042483,6.599508658258065,4.874002437650068,-4.0528920183954895,1.4795540424087186,10.226822002676316,7.961470606649276,3.169297456254336,-0.8542398107875424
0.4781324484922563,1.4701622159522223,3.792940438902385,-5.256307240407253,0.4710141097189856,3.926129447437624,2.724549939046142,2.528765102553141,-4.732055941851727,-0.3430516623420594,4.57619906808429,4.255760231455131,-1.0443007606430774,-1.4322319408804756
-0.2922941655702881,-0.5567166611167669,2.369245989544676,-5.55894421214077,0.4876132427070064,3.322994834210196,0.5070409975996727,1.0782390050774222,-4.347821102812782,-1.13353747140415,1.5055745495587358,0.3858468183329605,-3.841463157488907,-1.6153682002856131
0.0790961132308824,-1.4926160560402,1.158324702937188,-4.664787931113091,0.3912253475836893,2.55270651327867,-1.4790842663390866,0.1015499396849125,-2.648561333130183,-0.8907886106696008,-1.7956255546565472,-6.402557794455599,-7.342877971628338,-0.4061446825302794
0.791383106427512,-1.1188094708458247,1.3345177067372695,-3.116445496356315,0.51437757920335,2.3617899436419973,-1.850962415276515,0.6917182466067352,-1.1609723577283189,-0.0898404005576584,-2.483201104493318,-7.235377985608736,-7.37178866039193,1.4266456250755648
0.8371042179369672,0.7450494844849098,4.021612606395386,-0.1641922668751971,-0.4248951959823741,2.923708857186207,0.5341428206117969,3.5526143075390784,0.3672983747900941,1.7982184961237644,1.274793037414439,-0.8658827420467031,-2.599231731578791,2.230555914200241
1.3230303262047318,2.4847749473346283,5.059236149893932,2.3535786377350094,-1.6629113208790427,3.651192819760114,1.3774996297230024,4.374805012678015,2.0798153051690926,3.2797982534941474,3.1935051704554342,4.58670780782145,0.3591670823312847,3.001050946507102
1.105701032679644,3.351056241432484,4.922726726244491,4.502114274303139,-3.263078544782568,3.5854333452793767,1.2109929349901918,3.403643791415208,3.718257946774403,4.369509058086738,4.340025996642918,11.362292091725658,2.655415023740088,3.676877074596177
0.1372509635855368,2.804648311150956,4.549295165170918,5.845267402812622,-4.141787631957931,2.19265087885449,1.003463901105893,2.733026066428311,5.0632561359465775,4.679963664763783,4.543812693896456,13.240382653939388,3.6515435639174143,2.65321853213241
-0.5779307836022742,0.8622224783216642,3.1902412471829367,5.8937425909900085,-3.450292868230993,-0.0784661927823329,0.0037479080874103,1.5409802575674056,5.996812952341175,3.7846467743508976,2.715797092179669,8.636180318478425,2.1428052152791173,0.3827386243892027
-1.2893277994852996,-0.9508987932682844,2.466699847500645,6.275228471856321,-2.793145087096085,-2.052482900084064,-0.0442951739424013,1.5277819070254264,6.528067246510675,3.508143673579346,1.6598095575088752,6.079114706295281,4.501751739474964,-1.945659642173072
-1.377866256908779,-2.6467754856812893,2.4035022709005536,6.758763518003437,-1.354277501357695,-2.7677276451610204,0.9068735990889586,2.9987623416920086,6.517194412064191,3.6869246380239424,1.0445298865101402,3.8999937070271695,10.571104206656818,-5.428927642458342
-0.7145919026538147,-2.994131130142454,2.418085523063175,6.956709276233687,-0.122686959455878,-2.281775839253207,1.0640114100784928,2.313001145057489,5.821478510463028,2.681686095952026,1.4247135329113358,2.2529743897359613,12.35951764076881,-6.099717522820496
0.0741438313718387,-1.7625981332016454,2.885317372698701,7.13188281816336,-0.3443719381545747,-1.5726405530621204,0.7246597631178375,-0.2906096751064319,4.343620723662095,0.72303171057679,3.405536775011455,2.5235413370692945,10.688312297363089,-2.367006500692848
0.359809830798015,-1.626536652258013,3.0860217755138275,6.752242281928038,0.2908196815876824,-1.5946925709650586,-0.4758118173247991,-2.4844105070870954,3.597860914087639,-2.2226343802446813,4.470113803153321,0.2228571738992782,5.660503079955069,0.6099128462013633
0.3548002854086484,-1.6721817496475222,2.997568486136624,5.7934689459604565,0.8945309887497228,-2.3705960470256078,-2.906477573437962,-4.900654026985692,3.638071948802835,-6.49498236938888,4.845028564541485,-4.354438901590759,-4.495569111050143,5.5644334074878
0.1679523218574911,-1.4737064709834329,2.962007633779609,5.8293286947231095,0.6019665379932568,-2.988475545999716,-4.68642640005548,-5.522489607735429,3.565478224839439,-7.608732645291248,3.9865259999313936,-6.684064538704064,-7.750250580470386,8.145435076981219
0.0218168366316023,-1.4832256698636734,2.8169859210746577,6.870668424290336,1.3566562177441936,-2.508220428290116,-5.921226292607551,-3.838468764745645,3.738917947074897,-5.294757583413331,1.2891240098609946,-7.328729496866064,-3.809046060329396,4.074885163973247
-0.00176943785682,0.4540171686273409,3.0598849862223245,7.225855646888412,1.935750156868314,-0.9062177405412228,-6.523991230628387,-3.9999196739365,2.049791338443676,-3.01615113660273,-0.7773326717490582,-8.525920933057986,-0.7466334806935401,1.2588317467809007
-0.6628665160447329,3.146852118287211,3.744290221404213,7.16764765568463,1.5374795380491508,0.8384897303277086,-6.034925858282274,-5.605331010548728,-1.7641256559952565,0.2676697360612441,-2.446174097176378,-9.54319882382467,4.069462568989764,-4.26107345773203
-1.0416790060703147,4.049562045119307,3.966998370275401,6.595781995199952,2.2764400886008715,1.5804087837728318,-5.463376580467829,-6.4305064963298095,-3.5900826281487177,1.391960332318653,-2.8968556868527764,-9.29133807250781,5.424728229906028,-8.923795835365057
-0.4594065976645602,3.372135751525932,3.797767281961382,5.181098746426795,2.719450018969595,0.965311929980814,-4.631464621468046,-7.159409421176239,-3.729755189394578,-0.3353857110797903,-1.5124726758564242,-7.894515070552431,2.0305119189870604,-5.689173863741623
0.684684536335922,1.6613251214476172,3.4085629418652874,4.278393697136726,2.0440470149785432,-0.3539289314823506,-3.909708992830588,-6.031580100306568,-3.196524191650683,-0.9005685020337458,-0.1340960186919127,-3.4842059857742838,1.9145009148836571,-2.440796885514024
3.13582120983724,-0.2900644342202388,2.605775034807344,3.8237868718815298,2.6160447619009184,-1.358832792244094,-3.49700631252262,-2.6130183382062038,-1.124221513292577,-1.1257618144935515,1.620233985641863,4.400573625394276,3.825231781172567,4.0552062551558485
4.373000342419646,-1.0279097544021345,2.553705497673584,3.58174107860065,2.78964761008672,-1.4876117037482004,-2.0037698452682,-0.750834740643099,-0.3736306247635761,-1.530038045244192,3.4927700872803813,7.907821880922835,4.54173546792561,10.05280452630072
2.506353815316094,-0.4064132368682722,3.313261126124429,3.856777072382114,1.9292110293336449,-0.8837292862064672,0.5037599590791908,-0.1307324470578156,-1.04358100457939,-1.5407599796702227,5.186350004543147,7.011083925986339,5.213100209564804,7.249680055739971
-0.014019290551733,-0.1826504408773239,3.5565978110505165,4.600704809196394,2.266722445099525,0.0409548160900357,2.913549735320196,0.4017610772580604,-0.834032173695328,-2.7464816864885284,6.790201579923774,4.989884910866565,3.9496415854750415,2.761813644370643
-3.6008392650589256,-0.912491852940648,3.499730463819279,5.913180122155635,1.944843396894394,1.1595155822493055,5.454314105214284,0.0846750280432266,-0.3278827502805459,-5.167663601199835,8.089239114828576,-0.0164267261068714,0.250406876574293,-3.872967302443616
-5.414066004146514,-1.474987364227678,3.7414736632717207,7.806702248173065,1.6866800548267484,2.6853857638992764,6.174004024493024,1.2878691426380418,1.566374195885594,-4.799049309540186,8.249698970562232,0.0436812945886174,-0.1247412302038692,-9.021036901315268
-3.168765436848901,-1.8024473088835269,4.096693527941072,10.339874091196885,4.188210371757704,4.699383572379688,4.686901431163597,4.159258570868012,5.269799503956182,-1.6596631383210083,7.074470074280795,5.857236224706883,2.653715415714038,-6.339131856995949
-1.2924381563311569,-2.031002663469702,5.671863874830957,12.320538441322272,6.821177660371229,6.716794001336581,4.62384180002604,6.8865257162582125,8.638457468872907,3.133606194085596,6.53905990837396,11.590336471057302,4.677113836692938,-2.780946501569855
0.6744961834929298,-1.354774518132293,8.653332922162381,13.66750111099156,9.64248946316229,7.858582013978534,5.601076236565869,9.997739810947108,11.971425770869038,10.578421715327448,6.490430482645232,19.209084484473227,7.039851842236182,-0.3105757340640981
1.7642664349782426,-0.6252156995291533,9.273100471521296,13.073877926939378,11.713470868039586,7.575699033751107,6.0914706331101645,10.596237588584533,12.549040236710503,13.98293349082912,6.029921500689805,21.308017134501885,7.229831979403092,0.7952479262585926
0.089248907636713,-0.6071884723679916,7.5517114362264,10.026856595954074,9.919377799070608,6.253138498654437,6.720531287841711,8.183058823459127,9.67942575931703,12.912914219692604,5.523277746375395,16.640032543454122,4.507509077983773,-1.2785107811995435
-0.0157907045709956,0.2897554614078463,5.490704820084513,7.695765674059268,7.012349291242293,5.031968621978365,5.966563148086907,6.731381090202657,8.683718380808935,10.9309271005626,4.215698771815,13.671834592491104,4.834326829972174,-1.7229672696217304
0.4368672944226659,1.3686721730681413,2.2585802869039595,5.743731452013803,3.624592667584373,4.877909243225091,3.5833095960210657,5.5766911859655055,8.965282832662805,6.323271061535435,1.978762599396832,10.575115312610023,7.747226113609729,1.2308105033933427
0.2608082441795977,1.7203692175027785,0.4877518883738334,3.202299595464137,0.7536957071367933,5.681348816071974,3.0474081810245397,5.373270154824335,8.954334641422637,3.5716243382405177,1.3874640887738137,8.36954011411071,7.649326898064205,4.104555321410822
1.1387688638849165,2.2090629705243887,0.537793855819999,0.6458089103246653,0.0655615429935438,6.249955938881968,4.177845720778634,6.901929864058724,9.611017941934058,3.1400757508688266,2.438533057128509,8.436857388303972,5.340005493137476,5.293102942587227
1.270410240602533,2.2092203248535163,-1.2436418305697416,-3.427215177704086,-0.7583266670210217,5.304456121897189,4.273166002004541,5.300451239884355,5.691138658850413,2.372312080228597,2.9655421054644786,4.124333410377892,-0.578613547702413,4.790862145906251
1.698722124568054,1.7325624476911792,-4.326656914237234,-9.13113299507449,-1.6262548811043491,2.65026235222939,3.91675388317284,0.6667938101883016,-3.265633450909536,2.4389357180876288,3.4606174436861123,-4.2625970401240005,-11.387048299837176,2.978547523734606
2.3800204583541325,0.8456143607081346,-6.515681739623951,-11.734093950529903,-2.6345567300763224,-0.5349292814323903,3.137128764063465,-1.890407930535712,-8.0942190474386,1.5875279537657347,1.981463305141051,-8.47409521298462,-15.132255134061062,1.1654757815625296
1.5917135834843583,-0.3441643559368381,-8.291307692749106,-11.209362583268808,-3.692541981630932,-2.6081681109750434,1.503228685957225,-3.118524888461093,-9.541848827147092,-0.4190302608779568,-1.9995112735148248,-9.29089099706639,-11.669872986318072,0.0993106127243445
-0.1225839275594034,-1.4107919000811258,-8.846029277745513,-11.414472141951263,-3.9395976202557534,-2.789374933892504,1.2606559793535734,-2.459056966452998,-8.33626273491381,-3.42962416225097,-5.231219283105398,-8.957346130175539,-7.620703828003771,-1.4966855262227818
-3.1331832836880134,-2.524767701543294,-7.730076282728976,-11.408098564090112,-4.243237120493742,-1.737516643202575,2.429547145365066,1.1579137128607957,-2.426751076777616,-8.002054311508873,-8.20255743667059,-5.819679952250709,-0.2871637491008078,-5.81966908700842
-4.289839140411689,-1.7084088347620583,-7.9690012397223935,-12.61339184342969,-3.842832758318509,-0.885062827437153,2.412309276520918,1.7889466883462688,-1.593107145342074,-9.68415947810324,-10.357053989630026,-5.902544873419217,1.1575474832744683,-8.075719788971277
-2.0497741880019387,0.3292677259111353,-9.41312182174648,-15.721687233464914,-3.0774517549537506,-1.1752880373640693,1.563644054539903,-0.4451041136781452,-5.911067311579747,-8.304288374931227,-11.0278382860225,-9.548847205309064,-4.544313291663238,-5.074828642664951
0.1531598230076056,0.4425135026543685,-10.668810297724246,-16.710195283596317,-2.6324474753582283,-2.358134228225957,0.728092361958089,-2.042776332388429,-10.481114443989572,-6.047001921153528,-13.094321252542924,-11.4749122732848,-8.4215061931685,-0.5867758442890786
2.8530713143324147,0.7338947589137281,-12.335940078598574,-15.915363233901967,-0.9997666632884276,-3.4202215077129097,-0.5334279970840069,-4.194050317754886,-17.4933306523023,-1.8150412620559195,-16.33881456399599,-12.947713750075373,-12.719093730962836,7.800918236282097
3.544070859893175,0.411703762163878,-13.698778839971308,-16.491216869474133,-0.6583029379797591,-3.644846643285263,-1.5244121109519069,-4.445161982061638,-18.779803553818184,-0.7572255205386718,-18.081450820332776,-14.422814662347028,-14.751433611791686,12.469101015124872
1.016429977789417,-0.8859073135240738,-14.627656680650542,-17.85675362465639,-2.4505105823620528,-3.264612059096791,-2.1701818807593107,-2.2336829038452044,-13.376889615933392,-3.3831150883245376,-18.699909039349524,-15.202162638250964,-13.061833189603028,7.5292532689144975
0.4023258434608091,0.9004970192756987,-15.88573642629949,-19.996296678556,-3.792858046037431,-3.142458122535505,-4.098594842775439,-1.8124321282981328,-8.952414073849157,-4.976366941262883,-18.39538948481253,-16.382040784905602,-12.78895159105578,1.616464231683499
-0.08910898862186,1.785966184866468,-17.304279345258173,-23.477790895859524,-6.65443620515886,-3.865886518153017,-7.25928161965191,-2.6642678316142274,-3.5537613930392427,-6.737121972229597,-16.641657356478202,-17.863342463949575,-12.980236903086457,-6.8083698004554085
-1.0651699928008609,0.2797370320617114,-17.987725553160818,-24.54383120122748,-8.59306949273937,-5.147845771473686,-8.628238498712024,-3.429497319789574,-1.829752901509967,-7.019488976520761,-15.06242185386229,-17.879747240440576,-12.275058150032525,-11.34931283420704
-1.071850717803137,-1.1128751134463843,-17.955938501851005,-23.100452778615026,-7.516198827603426,-6.070359764032741,-8.319035071342233,-4.841267636410254,-5.2535602601047735,-5.0379290425944845,-13.59854203399402,-16.468576388228378,-11.365687529529009,-6.293732518153908
-2.948973437878679,-3.843121163647435,-17.380125931925917,-20.98910710620176,-7.276423768166469,-5.910770405846099,-7.064192932814335,-4.243731769524326,-5.300916862426945,-4.073662419545223,-10.242993232745269,-15.332363685695618,-9.640222085720008,-2.519041614809484
-4.227171549727244,-4.286007934421264,-16.030061894968373,-17.3170350355329,-6.167941513137573,-4.8002271841627255,-4.1526220901793485,-1.3761548730598774,-3.149874060155783,-3.609557842130185,-5.1870852556392055,-14.167211356223817,-7.004708583340248,1.4593440775204165
-2.4360034338378203,-1.0144782090093405,-14.127563945648903,-14.486568233934712,-4.867026618816635,-3.663901494295274,-3.326750438224656,-0.4754374739015637,-0.6523472981197598,-2.4531368120640527,-1.9808486055255397,-12.529070826085672,-4.730889837580231,4.182071569338424
0.2810625159528622,1.780591339160595,-11.613136445410726,-12.748450589560145,-5.760304292712205,-3.5092217081340777,-4.777102554213896,-1.1171188108855257,3.654459187708428,-1.071738679712496,-0.5326400441771374,-10.678590945818184,-2.7561453398676536,1.2115903439604467
2.2335181580817167,2.6019447213958906,-9.413518109417616,-11.066888531567312,-5.807905609206049,-4.633358725851913,-6.023392358513081,-3.067802202234528,5.454302649848383,0.8043416633355899,-0.1861712174208475,-8.400585611981155,-0.3526469358150972,1.1936231800765325
2.7578927728539067,0.7481549467083283,-7.641848839051677,-10.11162642923897,-5.659879145195343,-6.3491187847363335,-7.936904705640967,-7.238834121345201,4.563097694787077,3.2948853876684883,-1.8270418775469184,-5.6829225344229215,2.237534926803193,2.3297619368176923
1.106523253189653,-2.3966502753458574,-5.985690739340278,-8.306126082864147,-5.641430122883256,-7.430498883276215,-8.171201297935866,-8.863729647442728,3.6427364250277736,3.6835852290476314,-2.0035907470234933,-4.568489335359066,2.90384996049043,1.2577866802472095
-0.7428196266208834,-2.6255389851787005,-4.734843126953844,-5.590839650672571,-3.836362895492334,-6.959564313851459,-6.294142181674626,-7.886590395182241,1.717787815385087,1.8133809233421776,-0.6771609458575284,-5.212223534765524,1.4982030367366048,1.0283807935002136
0.6640616591365449,1.6062454444331749,-1.758200497685717,-1.7393094139230136,-1.8722893986310567,-4.971520484400713,-4.267974745796291,-6.141283646563936,0.7395660169466072,0.6326560149115562,0.7195548807188886,-4.052837542188537,0.0973343191676565,-0.7633472553399467
3.085876146004624,7.675952943923026,3.080820841533119,3.7175181954284926,0.1134696914688415,-2.4324260071325057,-1.4295631613281894,-2.488492173169386,1.0914217224840752,-0.4017384173944741,2.989400819818451,-1.3850815824059752,-1.7730993067453005,-3.1674887877794475
3.8064566929928088,10.099250258649937,6.181434665429647,6.489946234633953,1.7889172046030268,-0.5615904642714469,0.1882966414738922,-0.3690210799919876,1.3417933154125308,-0.5983828038875292,5.376621594764071,2.2532591049667694,-0.9694952198949678,-2.789778964198514
1.6532953952060785,5.79816553401141,7.835850928712246,6.470260455043154,1.8077748421790671,0.0066169651651932,0.2235802816685753,0.0004924275408638,2.0648986898518364,0.6246069256855868,7.860885268112038,7.63137621464,3.1373909236415534,-1.44848463423372
-2.167872628799013,-1.6524840495917867,9.150490899690626,5.693060920993073,1.5820177438823635,-0.3923834718081309,0.103617775725149,-0.2503955458762457,1.4848830623745364,-0.1367379523265077,10.44336301856485,10.88172279934483,7.019121887775945,0.0919404330702668
-5.070884158950421,-9.18482296383455,9.40131169070992,3.123645598770353,1.0670756369836325,-0.7840723643916903,-0.7713216690340541,-2.042520689635772,-0.6378054507470472,-2.7318042481668905,12.937343037963853,11.880367978275943,11.532090023373918,1.8230714801386267
-4.892439652714412,-11.133240690727373,11.510696551688026,4.43988866495293,0.943901831526839,-0.3154699059043651,-0.4313262373583869,-1.488723247812396,-0.2541459535531791,-2.1120781063810803,13.980177677662857,13.47981467506574,14.534582425258073,1.7622664491083175
-1.1134856401547673,-5.4573798586026445,15.690558546830545,10.20232693517925,2.2480018786141587,1.1473462511580124,1.3683727380301671,1.5930660484942114,2.443877655244255,1.3991432370155876,13.324513209589275,14.852618780629369,15.332966117313862,0.914049485659458
2.286907826043933,0.0512412099783269,17.88172809880115,15.03866722667312,3.365144009419678,3.007378947994738,3.300855027167243,5.662675872687961,4.813352417818152,6.497415533320952,12.110371809251614,16.955144082546813,15.42568443690022,1.2472382436184442
4.4859098320297655,4.317154200275674,18.574360367703918,20.262008167074505,4.64063131422879,4.456870759457388,5.894574789184858,11.714319186948332,7.598428885236396,14.288308308171713,9.922891415276387,20.2090096989801,14.009512037944084,2.212756993907861
4.417892361241709,5.355586728507302,18.255602987305704,22.30836324389209,5.452000038203424,5.085005525256747,6.999235259460347,13.263069396710804,7.522691730459135,16.41714358908669,9.432376918291626,20.72194363867753,12.339251694601804,2.966107340313642
1.6832569343875456,1.7632406301132098,16.125345698583512,20.07738112999995,4.729799252988532,5.109527245660843,6.333643876806207,9.784450337044516,3.922517641284645,12.273429280780068,10.98574358691406,18.564194549050185,10.474715185698292,2.4797031337039623
-0.0218281444456554,0.4672206386215542,15.434084905750463,20.027721580334266,4.006643162178511,5.095521920953047,5.966455157187728,7.277050524612076,4.0188489180769,8.88688792256617,12.592073817920747,17.013448082145786,9.648594983354,0.2069013905832014
-1.6664613947336373,0.7113353906564315,16.21937655897482,21.256482731859126,2.89096969994697,5.423123245749991,5.370869825428692,4.284372701576729,7.290886718089682,4.3383176271479,14.9748622478611,15.37384223867398,10.337205751395938,-3.2344992930504155
-2.481585425594224,0.380042022314594,15.225370139425262,20.764723267050687,1.9728054994535191,5.945243752000749,4.45749725591539,2.454662339613203,7.755155396551601,1.5577464968669212,14.146891044142665,13.61281906609327,9.576816036115972,-5.288781507319375
-1.524745399558816,0.3279822235920811,13.01407990436054,19.49136142040871,2.293623426663986,6.114212011587853,3.4844950931025083,2.7867778167376764,6.495385845535303,1.6975921155403093,9.567419804789306,12.253548252690498,7.682834327574346,-4.42244990626972
-2.0768890085010363,-1.7720389764088302,9.787962299961409,14.003174262714644,2.400454998755842,5.473964467526258,1.106374782710398,-1.375401295381762,-0.0301715701108669,-1.1719833775391326,4.177753649265472,7.427568503375128,3.695513371697334,-2.3611846715160847
-2.684584190447074,-4.981055297400567,4.976086678995351,3.5988284008346083,2.622322063870138,4.10728585514272,-2.7174489281970837,-9.751595586828667,-13.271717409233606,-6.269805995564843,-3.113829132080874,-1.0060756162556417,-3.114161115546959,0.0298197134512253
-2.115404083810306,-5.110336120273562,3.791395128710047,1.0835489380222794,3.037467032979221,2.647175686924669,-4.196401663648189,-13.259229401781871,-17.977991349427263,-8.25360253345242,-7.032797980102618,-4.770109166305588,-5.586211011452766,1.7367329511478726
-0.9525711520328588,-1.932919760576159,6.5275323586716,6.454766136043772,2.963889194095582,1.81227463470438,-3.3293121250305457,-12.62622846442851,-14.350698625038149,-7.739659914071785,-6.858028040047202,-4.15487980228014,-3.6543562629903863,2.2733157097088545
1.508492459051267,1.1242191022790151,8.334752980556852,14.752924875902137,3.130111530934837,1.8269034983366623,-2.1521024285497976,-9.188883821668597,-8.889452511209603,-5.925807632086192,-6.373215936645697,-2.0606696260497315,-0.9589288644746272,1.1245425466385743
4.907155098746637,4.587385151001261,10.31853548744231,29.028684286304788,3.5488264533095646,2.2000984593396997,0.1886166111689527,-0.9372081785924644,1.8365529200256308,-1.7511293083892907,-4.126013542846423,3.3656366409472307,4.139692991057963,0.369499498086602
6.096252255261351,5.710697812243692,10.564685940609763,32.619721917858335,3.5655323387864617,2.062339316499049,1.4307616992270045,2.6137336873843,5.88232525554043,0.0645584907905946,-2.1400938106669347,5.040840528716113,5.43686793866961,0.8627786412512164
3.600145976843686,2.809702070416415,8.158676627369678,24.15841056135108,3.1731429766644696,0.8274252423690314,1.2567076214747264,1.2222751462407218,2.141100173424917,-0.7241088205027201,-0.824480301667755,2.46518265073495,2.210152089318096,0.941001613533881
-0.2525167750173911,1.4896841095031204,6.88456399059701,15.565300671151668,2.805715285059299,-1.3016415560269363,1.9535842496710456,0.588456052121204,0.8292862854503871,-1.130668740185023,-0.2725487954751137,1.230437347286916,-0.1532501788089033,2.1796452632904573
-5.969878208598187,-0.1430056707045737,6.123731308825106,2.750015495933979,2.1525553721886364,-3.3559786997901,2.979866160125294,-1.4175967677260972,-0.8283157868988795,-2.2638772888785588,-1.228498788748806,-0.2761163621465811,-3.1772994554938205,2.2154541005848745
-8.858286799840508,-1.7027168787193911,4.632275069042258,-2.225779334695644,1.6628987358238487,-4.174182809693292,3.32746006153536,-1.1984511399016675,0.1374587221845307,-2.4494199248413624,-1.4670905597890918,-0.5533409987650547,-3.621615631927929,0.3817718255926754
-5.061733613924479,-0.4627899065433131,2.9495913094135777,2.830174603094967,2.2387422636778207,-3.177497814514112,3.211219229620524,1.990531583070671,5.266639344144608,-1.3201980126254071,-1.2287474056302057,1.1803100474654162,-0.5426798394204719,-0.7284486705159158
-0.3279983963040266,-0.8585866970118015,2.545437618792436,5.951460924193494,2.888400870639758,-0.8335308190342801,3.241892516405541,5.400692146479724,8.928571703291063,1.313016298990472,2.2886427994368943,2.9788300127160574,2.700063731719247,-1.5566512983488672
5.895129238392471,-0.9956958985756208,3.5010694467308903,10.354655173358676,3.505105136657449,1.557492077715068,3.296965380039697,10.085751280055224,12.127904143466754,6.098105517813816,9.826854691014022,5.434892503787934,7.138529627552261,-0.9353331477360124
9.217366802669892,-0.1336684813745512,3.495091531887472,10.955165667745304,4.358686570446381,2.6909371944396234,3.179833538165397,10.888682294031032,12.23973227048295,7.904132495546152,12.03504597759264,6.417999301356576,9.293845548304695,0.315869784789837
4.769782235741837,-1.0563553162073656,2.772327188222228,5.805593852670274,4.444390841084342,2.156330702988338,2.981728256496586,7.142243830447528,8.056972123264623,6.642480543754182,9.149371792214144,5.536514513004375,8.496747806426058,-0.0746342602522069
0.0626346174355724,-1.4431887672985495,-0.4104140529370835,2.05685772135037,4.030988615555325,0.7129810194642303,2.264403221412362,2.7213643461453367,4.142217329843649,4.049071020680343,5.131516538597471,4.3277658616350045,7.599802190868093,-1.7218189541106057
-5.0921685936430565,-2.1600231493241013,-6.740890731284153,-1.945116026421409,4.089271295699134,-0.3350279415539603,0.9739518172351582,-3.7549426709822127,-0.4140271276175606,-1.1585893735584205,-2.0670417907654266,2.155786596193278,5.585749806026108,-4.59675125447693
-7.788778040311415,-2.700013703840153,-8.7672894909731,-4.528380577858803,3.653291067902501,-0.1970765529012084,0.8368161935303784,-4.576769456767362,-1.5657559597042188,-1.781375360846749,-2.8697825415576816,1.1260296276186867,5.210810688580951,-6.011562020426985
-4.210653411354041,-1.2831470515575376,-6.592948934688047,-4.546276917231109,1.886099369609776,0.8056484474327306,1.8811222603557192,1.3189906852792497,1.8101329244519115,2.673539771731334,3.66372851059281,1.50606662980307,6.948540489058978,-4.290558353032452
-0.7205376304164857,0.2539079922950175,-3.9668492060225433,-5.215372324986671,0.4403888031380855,1.6382628131668184,2.077800828487585,5.063988738190682,2.646422084944529,5.734844224537111,6.958874781453559,0.433724264311271,8.345622601710325,-0.7406282000164155
2.487310493975759,2.1931514816882944,0.7265353349744305,-5.819488208224819,-1.6014540031360087,1.5839035095918916,1.7162317141228638,8.452636009614567,1.9502347080434423,8.979566378223828,9.057792461977192,-1.671179555009643,10.146592546150163,4.189852829608683
3.8005707792342895,2.5776737023111087,-0.0800947072499368,-7.587002702563658,-3.929674711071344,0.9347702294585928,0.9622028581275174,7.680548086061764,-0.2639944159541507,6.947313860866792,5.290200851132408,-4.574495431438593,7.064898130784738,6.549705272493668
1.5493936947575362,0.915247430953012,-7.301490336890458,-11.086152334396017,-3.0513966199482176,0.6739379669229777,-0.5705159277548529,0.9387891073146918,-5.352739528158939,-1.8185848334126145,-6.585330956455104,-8.80389119094732,-1.6859294711057504,5.031304012681209
1.1074565440676525,1.1965741706471935,-12.117352079694008,-13.213933295550328,-1.9185174790787336,1.4500085831871845,-0.3971220059231221,-2.0220997182165057,-7.448563833017257,-8.124352578226919,-15.37763400490774,-10.90881872471704,-10.697786828672792,3.5932973475558816
2.4686679439093924,2.4094041420162897,-16.19160086472097,-14.28693781552666,-1.4683652903412456,2.843465142459081,1.5777232887493826,-2.215658910646759,-6.670785212392367,-13.314830230659677,-22.43032145346443,-10.750008651557453,-21.31243278156416,2.666514065178048
3.774679971503344,3.713690517510818,-17.91695604103526,-15.081599586218116,0.0782670548958963,3.6526086014635553,1.8829959391331148,-2.7688995174122506,-6.709026863390944,-15.54839540789093,-25.282633745049,-11.134357826022384,-25.84473705769494,2.391708005320671
4.754867286520838,4.63678721417809,-15.64287477057145,-15.01341686242079,-1.5611373573883327,2.942150855234047,0.8955986085682691,-1.9276337518448703,-6.426318596827806,-12.888482224478077,-21.40893642080672,-11.326936017404204,-22.78683843211687,3.273948600702373
0.7885226753874652,0.3442311513145739,-17.535796939145293,-18.31906053403079,-4.622212190519941,0.8727293830380631,-1.7687001383700924,-4.893993278013552,-8.03259941410801,-14.3508119197161,-20.730711301995207,-15.1760096140807,-23.375492253442253,-0.1059204579337613
-6.944135134237049,-6.643691411806802,-23.12026721118252,-25.33379253910719,-5.747094851372322,-1.4382592634036655,-6.904543666986317,-12.12745588455392,-12.148186658202416,-19.3037528300594,-22.199722553126477,-23.440120468945896,-25.811564066396105,-8.014628655754542
-10.508842882399325,-9.779068947619445,-22.609701132245924,-26.47082975331739,-7.564729579665385,-2.8389101478701377,-7.532676516785132,-11.95633778598752,-10.87127402436515,-17.69810344881952,-18.308782045692052,-23.36360081273341,-24.171700256553983,-11.702599591523084
-7.794745127471547,-7.653407202708443,-16.942267138852316,-22.09709781794158,-7.630619267028085,-2.962579506782617,-3.478454691008389,-4.821040481195104,-4.310411746288314,-10.58119442657232,-10.356452431932906,-15.112650141344156,-19.905289232854173,-8.663077226598844
-0.4070999947091862,-0.5221042194561988,-7.506174033316484,-12.94994612742246,-5.45180073885578,-2.252366375351926,1.4827099610952312,4.253121954010672,2.8594365491077545,0.9491672562641772,1.9830805040084092,-2.767218948375908,-9.468418496270465,-1.0106776334904315
9.569352225850386,8.194334492935596,7.789931487854884,3.361386763250969,-4.893054458208138,-1.3381735861331665,8.984584606444727,17.753230249682357,12.284942551525331,19.032877624023243,20.15849292182161,16.70402336453944,8.422713776650202,11.36032654320004
12.950245298228108,10.839719192179723,13.02238670508839,9.151588224184252,-4.478418986254363,-0.5147260674501695,10.237452689783446,20.65208161010579,14.446194678560891,24.212990429959657,25.102222121490342,22.534446896020395,15.316907286156802,16.566496360276943
5.812870756333674,5.228121373004878,7.312037858762567,3.739934116344732,-3.999506048024621,0.1626057459170624,4.216508646752828,11.390325602950002,7.985024154514974,15.350855916678883,15.709576918067237,13.162347481984328,10.975376915452628,7.966720272617239
-1.1095375943505004,-1.3184718780943905,3.4296479234027424,-1.8658656300334744,-4.918876947260116,0.4167312384657862,-0.8769409654508064,5.364987868348486,5.335362702140765,8.491404193961426,6.995630770022703,6.376464688717428,8.105661671309564,-0.0753384542849411
-6.4892993257405145,-5.966087357400838,-2.185813894231823,-11.775929282517524,-5.084969053040855,-0.372982858734872,-7.175635389818995,-0.8327042890792472,4.405615429597191,-0.7270647074232945,-5.410435692680953,-2.5733589748502568,2.758729553574269,-7.857794027951188
-8.244490431875194,-6.450975793179779,-3.2836355130635155,-14.831761259374018,-4.451438842093286,-2.631239166072305,-9.663208696271754,-3.622969719725457,3.433107902154473,-4.193499077027016,-9.326168137602584,-5.376754499892812,0.6506282338282408,-11.692588723769983
-2.637127301246604,-1.2835800942144768,2.293369476453961,-9.169996088659046,-4.402745829700425,-5.879472611253732,-6.78443414785815,-0.3307111946121152,4.471669292206786,0.8913648965533008,-1.825983490615504,1.0345963892220045,3.673928247774268,-4.689768417116876
0.0863650296417758,2.197123687024291,2.640924616356792,-7.833710080164374,-3.948270288117778,-8.691222513161279,-6.769975270901824,-4.023636046480624,-1.12385745140731,-1.1456738055713331,0.2639183191561646,-0.5478496854436078,0.1970115065634095,-1.7252909308973732
-0.2964153487502991,2.412658138515744,-0.6449917616029813,-8.159188344334046,-3.246185776605021,-9.56659622193922,-8.269863908814207,-13.6729590789273,-13.663023438021828,-8.244947534785709,0.0991366077359559,-8.030923166316693,-8.474945027828431,-2.33072721250531
-0.2942143196595441,1.1952011253087913,-1.578207579475754,-8.126087384514449,-3.0220946950992573,-8.046206863802865,-8.061705727107167,-16.600861981067993,-17.42260702948466,-10.43311171443584,-0.5863870363907416,-10.396344575302267,-11.963527693062913,-1.7732598683113143
-0.9093385461832852,-0.690250962884401,-1.8750396964175668,-9.583184589963643,-2.4467039783502407,-5.066961760344157,-7.282981906782153,-14.461161803263218,-13.293266502080442,-9.78015538205348,-4.40356663250112,-10.006087487303736,-11.634434494938414,-2.0813782071221407
0.4583175466236753,-0.6726823547394136,1.1121007918987682,-6.8326330458384925,-1.569557382445085,-2.2358728099127347,-3.7895950300421046,-7.921004789336099,-5.961167696854182,-4.94665305602067,-4.206807738357061,-4.692902245507144,-9.182650451618994,0.832938332599783
3.549912685758345,1.4934663678048286,8.430807859790722,0.3473495525708516,-0.9761255362541847,-0.6847364918837684,2.957145969913072,5.614149440140068,7.983189767849516,5.91929751062058,-0.1177573321005612,7.608685510717102,-2.587918693830232,6.335697336737743
4.951074059955493,3.3065461586564275,10.245365412035143,3.3705502287982028,-0.4882621248239669,-0.4814109636756711,5.238417738430332,10.327454393421002,12.697940376706171,10.047153512901907,2.0279141708239927,11.112785211773586,0.2669390084676447,8.961589928905884
3.240345041031609,2.2411679090478134,6.805167262303072,2.9942107124907804,-0.0952710319886675,-0.945422804349846,3.116543487440528,5.8072431560728965,7.140464672025283,7.459429431424226,3.4460725693689898,5.87231259958372,-0.8159133969499026,6.4660401724306364
0.4271135546908147,-1.378476768655536,1.831358190536403,0.2781214399512111,-0.0201455096264538,-1.3641370803602513,0.7472146204756392,1.336111453084451,2.162770111310682,5.349969350164098,2.4161287821637862,0.2190705231467553,-0.1703790489643353,2.198864704733414
-2.897835274714495,-6.4367647882682615,-6.863845997375178,-6.63700413444468,-0.0690719314281473,-1.3972656760154225,-3.54843982600061,-6.686256827746512,-6.003306065233605,0.9721307969410332,-2.189446902447885,-9.295803507958864,0.5538739628217284,-2.449053956716486
-4.334853130919464,-8.686157519746002,-9.406586778434832,-8.40969802478589,0.5190627593844578,-0.9850897050484946,-4.754207591613289,-9.34752882707999,-9.191436087182868,-0.7725492450295541,-3.2735036203618857,-11.692565414443903,1.447857030930667,-4.60084165543232
-2.233876294349017,-5.563124475493297,-4.972169333757661,-4.806487551668712,1.3980886147941955,-0.1405207871716811,-2.1417612354203515,-5.196706997720105,-5.711572681002432,1.0745535934289574,-1.17568885373958,-5.466587355636757,3.161651705811682,-2.5257402945894984
0.3799221592814971,0.4767684167083036,-0.7099690991721853,-0.6750814767395454,2.3251402947334974,1.021779728038723,-0.6183085568283351,-2.1693295005705293,-2.8355805800310536,0.9347398837664818,2.5008901685771323,-0.3013327569849828,3.730606484279796,0.5157112174523832
2.794730581202613,7.6771138209275716,5.785772481021169,6.155649275561033,3.842060838023425,2.137057566558383,1.0574337448445903,2.081731484950626,1.7711678404257305,0.030210220403611,9.33806637991044,6.588359264303367,3.2729250443936406,2.4925256924428534
2.902791454888107,9.812174347733457,6.7646846838644645,7.775452104348435,4.318531067631963,2.690590778859928,1.3245297146941557,2.9334365660856743,2.4267115556130787,-1.379236696497354,8.825037277423483,7.603423021281793,1.7061622568385324,1.2904197794304169
-0.1042014159712286,5.07465657374427,0.8319467475006079,3.258195571882318,4.018320503226982,2.434909285209983,-0.6138693181941964,-0.912466953185652,-2.0860148183581355,-4.091839928744569,0.3164089946061824,0.9008661382526896,-1.4323961143189277,-2.41814933081598
-2.4843697221625822,0.1458475414747482,-3.4611362571339788,-0.1118883614371701,4.034857813495628,1.7152308336366673,-2.004192996539332,-3.6839736174070015,-6.563996427298574,-4.961051029865359,-6.704252581792343,-4.36689520029526,-4.282304391145008,-5.661468760075807
-4.259207150030101,-4.192277277833987,-8.095016685273661,-4.2340422800951885,2.9323662697530284,1.2679952068961595,-3.398592197393154,-6.7172815477118535,-12.653546480606506,-3.9890971040266594,-14.506869636307002,-10.31411790991702,-6.933673212003024,-7.700132855936899
-3.779136160628082,-4.639437478179473,-8.883978803109795,-4.473491919867161,2.374457074921436,1.5788063426704184,-3.786052430607945,-6.834730050292093,-13.506713018054114,-2.421675310913077,-15.387913470981736,-11.56673582472336,-7.6669587693141565,-5.59954433683458
-0.390768791573573,0.0960562044768899,-4.190205446599077,0.5659661812105311,2.4472664758581666,2.401727887044956,-2.64104865303989,-2.910628892407584,-7.952887337764589,0.4583512904568927,-7.216375034471,-6.292789002294726,-5.855550794451094,0.1908616276892586
0.5979645803707537,0.8619563064107365,-1.851033771801962,3.2891830560929614,1.426181395677384,2.954680255036891,-1.8179399711475968,-1.0581027765373645,-4.464029117014146,0.9463416243824376,-5.274493729495837,-3.730965246234531,-5.992722060285741,3.100747986494081
0.8425571824854566,-1.0619734132425616,-0.6550936479107075,4.924459665901593,1.0979089605305654,2.655728706161767,-0.9494454563774932,-0.4337497178734805,-1.3978007623988629,-1.2798354622741004,-7.861671544839543,-2.3759544416143825,-7.70500351918416,5.435766068325456
1.0139530097730145,-2.2940478568225413,-0.2710093314729758,6.255917869498365,1.2653370087721874,1.7039020490511805,0.0686577725643902,-0.0920472061245107,0.1613034675679688,-1.9654748944633933,-6.985920905803235,-1.2766695652944835,-6.55696500743933,5.379000390353714
0.1239206360509857,-3.447395915679101,-2.0986660474536665,5.996807037415969,1.549432361652706,0.9247074078324432,0.9601598381741816,-1.119040139812862,-1.2861969676204896,-1.863391253585744,-5.046947127109243,-1.9860425789303484,-3.1116561749496032,1.3790326947128495
2.730687150198259,0.0685851871033499,-1.1434421763758562,8.056040397969984,2.9118653916429644,1.006131209197065,2.681460407239285,0.9502739885726864,2.137332310364484,1.1799683009928592,4.881898544876074,1.369585693303751,3.774353225429437,2.7060871668392044
6.031412363366457,5.565683814029819,2.4591174589018734,12.378724641184496,4.454670746013604,1.8566510896907855,5.21962553199104,6.260315554425703,10.15863642858282,8.136545623720735,24.466817114583165,8.845359656744192,15.159994441113684,4.5888209177709065
5.7939304330958805,6.792339261340814,3.6101623155306695,12.70212644583694,5.033801407695518,2.7137313205440137,6.786595583915881,8.834347068417472,14.184251895407543,10.852323239883784,29.68136319554857,11.471803655084416,19.421469376448048,4.540798951796402
2.5147025206477878,3.524216606117608,3.0453268957120354,9.388485726142598,4.788053508214118,2.907597061854865,7.446735872839592,9.34306804018156,15.316349391283977,9.612275568334963,20.83691755761,9.93463618282876,16.26136768834422,4.483747667821501
-2.989234749367607,-1.4692570435450008,0.8849465898655366,5.598067589739491,4.326666150772971,2.5348070069869166,8.252309005925342,8.330641926774476,14.203885760880882,7.803043173406484,9.722506084702346,6.545836244928512,12.598559742189558,-1.3990985530536588
-8.557769539818679,-5.676486973102154,-3.876698817456625,0.1020638895281727,3.363035743021054,2.370512175847381,8.845768924271471,4.564363645040537,9.11720386676727,3.6913360365432624,-8.939247885172412,-0.5810459108921776,5.76109107431168,-7.540327387157235
-8.570424596131053,-5.686465715386886,-3.867791502163571,-0.5280958705994204,3.1097888972093504,3.089003275118259,8.530262099142668,3.0837742858379458,7.662617804144883,3.287623498840955,-14.369132359045963,-1.708133030849676,4.324500459529781,-8.866822800047668
-2.488259725835124,-1.4427871050731778,1.1644869615621132,4.587026994704839,4.155296792017625,4.546615475348752,7.328508271180132,3.888167153594303,9.869461426156208,7.185878528882003,-4.114253182905686,3.771602121216616,9.576268323421877,-6.932070969195237
3.0099807058056345,1.5707327770653987,6.048145775059018,7.319458791293542,4.879933486443358,5.835999591659515,4.272226309916456,3.128799387452021,9.74124628214305,9.07585863724156,1.878019657268565,6.993949066719834,12.314455423449074,-1.7283940570142555
8.044266359271045,2.4243876760677785,12.41828222634799,9.122455858539588,6.012409424391898,6.07393726227626,-0.9373712189671406,1.767184351552808,8.733272515686359,10.254423811457308,8.544141557234806,10.039699494218484,14.610732518735292,1.3481056646177416
8.373904960598516,1.3979724346221043,13.23409847974719,8.857465827205221,6.124876894422783,5.1704134145035,-3.613938930121377,-0.1226231217900969,6.804943007877295,8.737935727636296,11.230245096903518,9.29608070707143,15.379746375730711,0.5717284923236907
2.506921327245325,-0.8045848312813693,7.263093209263095,4.994779808446563,3.5496472479078696,3.848221832330296,-3.716298376457176,-3.065128712698268,3.100007229134917,3.317671667917712,6.78562374371751,3.117394033630579,13.16723587591016,-0.561499299455696
-0.3617644755158259,-0.6399375516278999,2.730845450355891,3.994575783313312,0.8555793771121002,2.9171974254699933,-2.385383254225782,-3.641402780846063,1.7700262413940815,-0.8155451833676604,6.064337949636445,0.910438261961884,13.5090465777494,-1.6017419404832731
-3.22075762847645,0.8155950534469345,-2.120296725795408,5.396583978323125,-2.754925519924618,2.5245072723663498,1.586732849825841,-1.73365317975691,2.809525378365912,-4.314012002371826,7.307232355908475,1.7863562306055416,15.93617815567473,2.065886596059124
-4.769263167480452,1.6436160658421075,-4.242453860147403,4.841624505939903,-5.993163494287718,2.101318431820971,3.3287094917801245,0.0691157010718449,3.70608674190948,-5.071076327573144,6.806796029967608,2.652727666938132,16.183243414684323,7.267077592253843
-2.2342755982193285,1.357405453027314,-2.07183366920335,3.3617276308313278,-6.2020561632147,1.0296215004406406,2.709646316019392,2.5032819466553624,5.324083760183194,-1.8402772071684663,6.0802916931775846,5.249420115030111,15.030925253346696,7.341311850920121
-3.6848102857654,-0.8479690092604006,-2.394859085621569,0.2636482235500806,-6.662116336954496,-0.650573276368732,1.4205282584832102,3.095204450324081,5.671775896144589,0.9657234010893344,5.427134491173887,4.529115268686111,11.512502523835977,5.316073587901727
-4.6527648951978655,-3.0739556535738086,-4.243388773682269,-5.180318317444488,-7.081651795028006,-2.193253925667221,-1.7512390538377138,1.2888415233377133,4.331554424749845,4.165027703993293,4.621737598963192,0.0555495046737758,4.754698967036125,-1.2947802971914637
-2.62932882426076,-3.238873512658777,-3.3766015629673123,-5.727510857155348,-5.7503283672579535,-2.801810553714631,-3.1949938606510138,0.5372095923254384,2.978549852701672,5.206774051619635,3.959962231508563,-0.8700054881733638,1.1558882571744855,-7.765567666344931
-1.040777254934993,-1.526045719329672,-0.6390753381355968,-1.19461043941444,-4.88695007352079,-2.354312211525155,-2.761969966923181,0.2180385939412394,1.0276189286048136,3.113535854509225,3.4974528935043137,0.9182384482552371,0.6411248570440977,-6.656541120810303
3.0598318009501924,0.8634392749914663,3.868623400524377,3.3296118014243,-3.4781192612839344,-1.5138082555979508,-2.257784125481197,0.8667746753482503,-0.8409367728210052,1.1519778621879415,1.5605906406057288,3.659331447651236,0.6374981370016487,-2.761408294230581
6.803719614264159,2.945653906614486,10.88953597232404,9.425711122886169,0.1250042200764185,-1.1393752173113114,-0.8255836220310108,3.1274370846558326,-2.4397608319794277,-1.577600373910591,-1.9184750030722704,8.725895359965591,2.593510134316783,3.233329920133402
6.143066919176611,3.442414845983595,12.842096536260671,11.317474738529668,1.611859491016319,-1.571821213294612,-1.3664857038225275,2.519155164339064,-4.50809387672213,-3.763276382801188,-3.276209691121378,8.556839311604966,1.9615145320308165,7.329028470828533
3.0662182478585964,2.233908092451628,9.302620976829314,7.891625548675452,1.0926727281803406,-2.4459230167432797,-4.190472677133043,-0.9302941188753558,-6.851103382672907,-4.911034018508051,-2.641502253543724,2.624005626012444,-1.626210886917148,4.398663204274138
-0.4199668080697871,0.8506568722395494,6.028456747121162,6.290670415947257,1.6789697988740886,-3.138397587908713,-6.278346145019028,-3.8358147386477977,-8.840174197334433,-5.845072890131346,-3.02876267961249,-2.441631528352001,-5.205415116172226,-0.8166451660980231
-4.347544415988976,-0.7704566769477633,1.2763408952314794,5.0659775941360445,0.2066282281092567,-3.3488251006217524,-8.271159783529802,-7.061445863479199,-10.498395245778628,-6.041558563837988,-3.79641541644104,-8.318287309954188,-9.890761761726557,-5.780589986714149
-5.679621198449674,-2.043421555273448,0.2737049850989514,4.883632826195796,-0.9102994059909808,-3.238373952366544,-6.782185844644376,-6.617711125406118,-10.416221664265509,-6.016785283878497,-5.329730379685675,-8.403195797544617,-12.142513916903432,-7.389360217485192
-3.824833860759396,-1.982246951042579,4.161177933245283,6.939938811770456,0.2498659384834867,-3.0626878695243533,-0.995100682690248,-1.6351636555259317,-8.276298413860623,-5.733793182409042,-8.154632896256919,-1.1366117767961996,-11.416795558239006,-3.128701005072456
-1.170535255549806,-0.627414992786542,7.79218485125957,7.549231147762936,-0.3486648860690963,-2.7822798496737,4.0656676553069975,1.8398386740991732,-6.065910541090684,-5.781769861193927,-8.281587208057049,5.47234038580594,-10.680541469495076,1.9375873515369628
3.226645458053132,1.7120862939220247,12.674854463903102,7.134786473612149,-0.6541240019920647,-2.1282813040125745,9.26980959588406,4.761051006041821,-3.4139670985760757,-6.321127501626024,-5.678543410545316,13.265276091586037,-8.986497257782634,6.280374365428384
6.059323732108538,3.105272073719887,14.595181594258664,6.163796850240915,-0.1237258935889708,-1.056954841947146,11.174232094897189,6.152170675157054,-1.753481958376415,-5.574576097265817,-3.0407579029515466,16.92572809125605,-7.127213220579399,7.380047957047174
4.652084658158696,1.9520773319192688,12.587191041851996,3.946093094783277,-0.9863247230513013,-0.0492718984784801,8.547561541938604,4.799231102952543,-1.5636149445342131,-3.614370587522962,0.4684331507257983,14.780101874083618,-5.451922715767426,2.988709305033453
1.5413863193358297,-1.5696510614333634,9.816791058126247,1.2245569378059444,-1.463551342150488,0.1638462054097686,7.62274952801083,4.891865309687905,-1.2127686551303511,-1.602823352788482,3.209434310471267,13.477146768715471,-2.477492615710469,-1.9382766717596356
-3.063456946013733,-6.159828384836354,4.945279238515784,-2.1673438086074386,-1.4783215698791383,-0.7495647826336125,7.412477645492015,5.938743345616894,-1.1915085555009324,0.790787009866932,4.735476861808941,11.338915993863912,1.5706357125396988,-7.570031534936135
-5.785573552434107,-7.712222055163819,1.9519001270956091,-3.779544787105551,-1.6650249000386037,-2.3404494078264837,5.697220056509861,5.233487736117987,-1.3498694605273092,1.4764914143024357,6.411396346633795,8.881427321424642,3.072141702267692,-10.078747471731262
-3.277388285830731,-4.219599981470849,1.327084847044889,-3.278030650520525,-1.069915353126381,-3.678837718302688,3.378584531163706,3.3376412472397634,-1.516195074897398,0.0981615461613252,7.701064453412611,6.990360911016046,1.926106996879396,-5.953180153631269
0.0884573324051728,0.8093530632400823,0.2982766546786832,-3.0266146449590967,0.1447920573415654,-4.0838704261240935,-1.185977995243637,1.4509372073791629,-0.4631582408032363,0.4262884943827913,8.75473238491717,4.050554758797101,0.8562381707375625,-0.1803682682627607
2.840810927525454,6.039347601596615,-0.0846642617409596,-2.3979482119901805,1.4852538335335947,-3.624811975932573,-8.31983720335763,-0.7652449917701823,2.0530073788045526,2.0743476112080668,9.644700368776263,0.4685692029806264,-0.941389293878641,7.39130324717351
3.755632683856276,7.795971907975837,-1.3338115169649714,-2.253064266143861,1.9725860482262656,-2.98629169932682,-11.90338232895508,-2.787953685860764,2.010252206890859,1.9103218063770533,7.923823172009809,-2.998556749480369,-2.3587994408885686,10.75741170042405
0.7857852576805682,4.168310408827834,-3.761830270175383,-2.971034050067908,2.077786321521514,-2.8988891856456576,-11.910788826794334,-4.393848495509966,-0.513940877940634,0.4335086961745689,3.398966587014656,-6.45371702526449,-2.98045260938516,6.108042051342467
-2.029139079367085,1.0451576143619992,-5.109812051714021,-1.6694768281191228,2.19328373816904,-3.6511470646196855,-12.887597108720415,-8.034879226008618,-5.479913763753463,-3.3675329749249023,0.1341283178928024,-10.651622764861566,-4.267100309465177,1.5534893189729204
-3.140519338165837,-1.1706919884556637,-5.699766289667462,1.5192339412173668,1.408472834633661,-4.982804732948985,-13.583841223390062,-13.704815845496404,-13.957311928079228,-10.209194833234625,-2.246203699402136,-15.497411812220886,-5.858036380238348,-2.87951551687266
-2.678102117238659,-2.071634721339268,-5.456913586095071,2.463553417411771,1.2082726085424618,-6.2633739950694185,-13.02142914970672,-16.08706747758615,-17.098666208910135,-13.07579374405204,-4.301283955998622,-17.162004120793537,-6.883904193311535,-4.172156972046761
-0.5162443900494439,-0.6491841390510278,-3.937436344104847,1.4544677157821495,0.6840229407261342,-6.7455538811494815,-11.661693982331649,-15.308911862030907,-14.588649890574064,-11.914756454549943,-5.170820265160395,-15.413771071745046,-7.44046681565667,0.2145883533526638
0.7360884325950457,-0.6582508723641007,-3.848694918421364,-0.9779863915427284,-1.081392971549248,-5.85295331022111,-8.08513085393741,-14.217729008562374,-11.982435818732696,-11.207960158505996,-10.91015086012342,-14.509227177539316,-10.07089782452367,0.8720498127840067
0.8036615465864174,-1.8313328199448469,-5.21005735988804,-5.779252709804744,-2.1321859453763805,-3.5325269058669204,-2.076657846147251,-11.6863525978885,-7.237390602938914,-9.450150060496323,-21.82618384695087,-13.67507421790317,-14.83093495501094,-0.9967768035342304
0.5371902983990335,-1.965137894145058,-5.178150060496923,-7.048513542788088,-2.6279202861974023,-0.4933970290975535,2.9787538013097903,-8.419264925861585,-4.312807910398595,-7.947367554068441,-24.90201079285332,-12.81639416872459,-16.675822377492462,-2.4362663416390142
0.5667748616826456,-1.0396512557085458,-4.210982938727016,-4.555421239971691,-1.9928071477837637,2.029373504602397,7.23263623764614,-4.65133455176577,-3.996271379870148,-7.231352369148198,-20.6331963107635,-12.666679041356703,-15.83644901330733,-4.5023768141129015
2.212185616858771,0.6739392638869971,-0.9136186513385172,-2.184829102634548,-0.0538222247526322,3.076407100010062,13.232885177365215,1.657483901171556,-1.4182828184711511,-4.220127941438032,-12.170760780835796,-9.008451620600088,-12.64671707533398,-2.473907340275185
4.681323194447144,3.1142530213675697,5.393652426820272,1.4078421592427093,1.9679573353632849,2.812789605018285,20.387795489009918,10.437298662479783,2.455644817985309,0.8028592136314899,3.518509473812645,-1.7637167453762552,-5.859001368629677,0.9190016232586424
5.149419846688562,3.7610369887558712,6.307381216849582,1.4153882929167485,2.851387388093153,2.6035336299310643,23.03203771041037,14.328466519565628,4.932530119931424,3.5799818768230085,9.10330900480397,1.960113053863096,-2.3710801055500337,1.9698785114164916
2.6373468775309608,2.136288377501937,1.72078888183733,-2.970165460619081,1.9464262977813127,4.004231735793759,20.96725723443293,13.095495941950524,6.515328430974091,4.352097228455114,3.6222434577972593,2.6261990795588552,-2.285749153816838,1.6722800933563038
-1.0161055396355974,0.4295410302217283,-4.087746268114153,-6.4321894759985545,0.6340018471098808,7.3489089385538335,18.21035291271658,12.795719235824947,8.288173217064353,5.287835945222104,-0.6149312689206172,3.395464701452707,-1.8262174122816128,-0.591126448485074
-5.502011705021859,-1.8528636833384915,-13.066623162980878,-10.171951643216106,-1.158938759936918,11.154108610783211,13.443984680460202,11.848990318908362,9.84907895119558,5.539481774985176,-7.615452168698387,2.8657098162778696,-2.5414219628162638,-1.449763060007344
-7.31766505029289,-3.045920149036523,-16.69726003171564,-11.405442300983877,-2.526247008847531,12.998437474569272,8.924961384854814,10.032314242661217,9.605059877147037,5.267147713315337,-10.14271607671971,2.0249709223391013,-3.1202778844551005,-0.1016493422327179
-4.688788990988573,-2.5008120002155687,-14.017882170783322,-9.075822443733854,-2.2100487364293917,11.287100869352336,5.25281877366092,8.111203611183665,7.490372683531735,4.6237248389685135,-6.325747559560484,1.0839158077256124,-3.255692658269621,1.2892864161695363
-2.37818473077735,-2.8501831684971046,-12.4950779265735,-8.18473787141897,-2.1291058928207507,6.485475664182616,-2.585075907042628,2.6608343749431387,3.505335395561283,2.8266034909901347,-5.479570888788257,-2.599591746584937,-3.2714879418187253,3.3338105085728755
0.2590515414006462,-3.273395025775208,-10.04702123230328,-7.917953542110816,-2.140284859561405,0.7975782087138867,-14.18977693116577,-6.370008070965943,-2.853213762496975,-0.1116183193894151,-5.648678676039558,-8.964484439669214,-2.729033441900448,3.4913468628150746
2.0713364275602166,-2.748598596624654,-8.512716308903268,-8.053760095672573,-1.839655954683999,-3.440949194352413,-20.218116319934417,-10.161434450382664,-5.096645239022005,-0.8988336511626492,-5.800923943972672,-11.683748938874045,-2.443736768400504,1.7682566589584456
1.1008697765119595,-1.986473082481491,-8.946014779665132,-9.460476106213273,-2.4887394566946432,-5.32687753244349,-20.86050097195396,-8.761065669139512,-2.846979424000865,0.59833075200832,-7.243768317582616,-10.803358203517094,-2.3261456478186955,0.5929309714417348
0.870284670595433,0.4602432615436094,-8.025036698948188,-9.731468967091166,-3.1661125009277,-5.678919667354492,-21.176822204373565,-9.01869773651436,-2.221311301230519,0.5682077120754173,-7.86947251780934,-10.169077707946837,-4.946714670659755,-1.3129837434557752
0.6716099908251236,4.114906849512299,-6.429411820569906,-9.01455455876978,-3.317656165242103,-5.948738252922624,-19.155187556492347,-9.192850477369047,-1.8352655222144252,-0.3806855671470838,-7.82705852188327,-8.423951721198828,-10.727743744719431,-3.094081428662023
0.2029760949302918,5.435478893633188,-5.981162609455111,-9.620259384101008,-3.518665275935101,-6.801277374176664,-17.9535595826613,-9.824237521579114,-2.0565572956558755,-0.7977738840731989,-8.765270242205629,-8.46434589647531,-13.073314778832517,-3.1514935252187684
1.152992006309464,4.587962681831892,-6.371355650664282,-11.235029312602206,-3.14948404832884,-7.603212738050004,-18.178793002529712,-11.900462825396414,-3.833379441212159,-1.2506248336121062,-10.407233732846736,-10.896228280708366,-12.262854576487127,-2.2387659269339246
2.816690802101131,3.67765305789166,-5.613888652264837,-12.635043278029224,-2.3571658111951947,-7.178331366490909,-15.045319077112376,-9.365319535872716,-1.2878439474860583,1.1753793758419502,-11.116404582180108,-10.786446577974104,-8.70405858786392,-0.4393440338325952
5.633914263470799,2.406767568578954,-3.8709035553285616,-14.17094752089757,-1.6542678843711918,-5.059419683338547,-9.20066612570472,-2.2303856088196645,5.604734008580493,6.891761888135124,-11.036136375535865,-8.723520045834542,-0.7659756943008624,2.314106324757612
7.484820730452558,1.726163966967441,-3.316340522246686,-14.157808406361152,-1.0594671313354107,-2.0738273093541864,-3.9950037375113143,2.5933271313868893,9.616885133631726,9.155958306020928,-9.020793602982046,-6.912451497618239,2.70513848969647,3.85602475399213
5.902855785199976,2.2155246964673303,-3.6946610698917577,-12.264184858523626,-0.9829223988736242,0.2634812498249346,1.1730867749265037,6.0426167029937865,11.625268364506606,8.300780023785617,-4.562041330647963,-4.558820992334387,1.6016027128486623,3.317455416154524
1.1722240766861414,0.1509786649060116,-6.419106378771892,-11.8565768456491,-0.9665815785172044,1.0113899571159664,7.116053715742201,7.967863444232202,10.795428135923528,5.960679806469287,-1.8281590052367855,-4.634730948223954,-0.1893682583348068,1.5089954491884892
-6.668381875257833,-3.962228701427094,-12.107162035151958,-12.635580610361195,-0.8801979249070042,0.6305304239688638,13.290234803186442,6.947255043141423,5.513588921777529,0.619760933524661,-0.6432474366096533,-7.639114774340928,-4.737505362229123,-0.8649968750166415
-11.86680070113977,-6.263564404041062,-13.478225425151582,-12.869813490390124,-0.7403085870220676,0.6791941927356646,16.03908700647531,7.417995314181666,3.329265101490276,-0.9397720886112366,1.2144102325080497,-7.141122940825952,-4.210953323025279,-2.5529075567910557
-10.517806350385596,-6.842301839151346,-10.520057787100528,-13.140151391417891,0.3290547748381928,2.6175526062860897,14.931916742344525,9.026995049754506,3.9052151540804383,1.5897754134209614,2.92701941545355,-3.561207815172768,2.102322157787312,-3.086802943665639
-6.293444224960152,-5.79458330010351,-6.370893280395508,-11.352098352104315,1.546933787471224,6.637599795930051,14.36825463214361,11.493019299170305,5.041392047745344,3.680890961319964,7.829607781321675,2.691853611900161,8.395330162365486,-3.032863736548663
-0.3059805939095776,-3.1914846870154148,0.66874394823455,-7.12152439787995,2.5927430340926567,11.361742277467933,13.503782408445751,15.766018577864932,8.364184130228535,6.8773131642339695,16.430845504578414,13.118603861006894,16.579916648585343,-4.1178915024217
3.9742495929893296,-0.8258853772578132,4.329712481876535,-3.150419427851071,3.871038147014347,14.592824164067466,12.358731888875388,15.95162739723384,8.86847423465919,7.785229969949566,19.766603735716952,16.80034111125069,19.219089655426437,-4.557283528001763
2.4996007180478044,0.0526943601253253,4.055536834133982,1.0634576139104357,4.077426396357349,14.611193308915476,11.66893523694409,11.889723308303363,6.333516804374784,5.678877068974966,18.10294458061816,13.334897003800757,15.040262835616922,-3.502862587734078
0.998241384876532,1.4588434879471497,4.586130616781488,5.078305216903598,3.98516627341503,11.23146179408542,6.4051803962763465,6.699932976384481,4.088926769880624,4.675425274026719,14.364879437151451,9.533063945220462,12.021891989970648,-0.9453782230191328
1.9372796409965145,4.084958488022783,4.41020973409844,8.394218421480483,4.3715500212955725,6.0137109011204615,-3.5636864890259705,-0.9990183825326036,1.021228119647944,3.9029825784454015,6.512078278661553,2.870275571183263,8.259531351641673,4.730984726962926
1.9622381228493009,4.362984712761968,4.9924874343350565,11.126508134105691,4.080859196285009,1.4830538082730556,-8.101414005924074,-4.112625743638921,0.6063499806646535,3.5931474405119586,3.875421425130138,1.424631224875258,7.532044345630975,7.708534668036365
2.718627109648607,3.4288930141601246,6.926857484326919,12.90100498979679,4.501941069468905,-0.2656839403613418,-7.617493818359737,-1.830003602255691,3.4916094141417986,4.394940405892158,7.0850760033127695,6.481309253063692,11.323522989527914,6.104498967960964
4.506516043643952,4.433412095343686,8.48789967552134,15.322830632453782,5.271351798361331,1.1825601931851288,-5.693153100387752,-0.9399474218023643,6.3925087918450645,5.106060899092033,11.055832309678886,9.317688200921454,13.1419389417112,4.791915014055087
3.4657161928765663,4.608123075064307,10.178408846210568,18.35317767184251,4.956241267650538,4.248457877236668,-0.0909875647933821,0.2493769595775573,10.264752650428044,5.997822933122433,18.149320668912647,11.92059375684695,14.13874089599309,2.0439232051614487
1.763042713724393,4.194787458674918,10.91038995094749,19.49907634707987,4.866550264818999,6.297314010064572,1.2266055012343198,-0.7709742277291104,9.31165125701704,5.32487046917446,18.996008270989904,12.410845975717889,14.525416464835748,-0.0729961966794871
0.6883738808624176,3.04803148735132,10.401547087328314,18.915191147659872,3.4655542303689444,5.342269361596991,-2.308103886573704,-5.1628961578155845,2.5893142945688497,2.7546173711706583,12.579779993789858,9.338539629083336,13.226169480001753,0.6383389168614445
-3.3450131612200424,-2.1667544848367304,9.14543037642028,16.811270137096148,0.7403602690422924,1.4062848368544714,-5.2472927330849135,-9.42290254971874,-6.225419400398903,-1.8821225235564096,2.352845792641552,7.13708241768013,11.872288829222164,-1.820937047559107
-6.97710977408327,-8.231677742486575,6.749528845848886,12.595463144787493,-1.3188186080133,-3.452778900939302,-9.486409953934723,-14.479566387355469,-18.87579286400541,-9.269951465244263,-14.430701895298029,4.99972458348595,10.130462291191424,-5.861350453655899
-6.409319211640783,-9.842258025972995,6.943400693331159,10.697474065568713,-3.071096039753451,-6.552071646855628,-9.435523880279131,-15.09727751625126,-22.28550785839616,-10.94650820171802,-17.899391276978633,5.087934511637785,9.92155525638988,-6.416184161273241
-3.2576924775055645,-6.703762770556226,10.01264430663172,11.301705530613107,-3.0080709744931022,-6.450178122396367,-4.097010203954871,-10.336617121981485,-15.114030639413985,-6.493996100982777,-6.651487577292384,8.341998248993555,11.661660179541649,-4.55817219420037
1.5393387451377922,-1.3838542517860914,13.263884402127308,11.214134832144069,-1.5123536079569653,-3.891034026811874,1.8380829361705684,-3.1450710380048776,-6.012430447523996,-0.0679086937323098,8.883825210318562,12.28789078217168,14.59937381650122,-0.9797640661238594
7.036298974763116,4.317722068661011,17.61173766104301,11.427517079709672,-0.4064082520041178,-1.1186125957376805,9.937978123865443,8.136860045869282,8.48416690995344,10.486499041324556,33.88482563042181,17.776923393138055,19.418586960897574,4.026145957606896
7.855485932572791,6.155666955663266,18.02599363306437,10.32824380850862,0.3347817107789352,-0.1214067622963939,12.73000997952552,13.145438722875184,13.823189035798368,13.730630709695188,41.64715868538463,19.47417000280483,19.56153833508172,5.35606779070575
3.7837210337301945,3.744584842839388,13.767532991703854,7.428232043231354,-0.0593181523001077,-1.2111470583157384,9.068362352706748,10.976126904595576,8.11585298422756,8.568641105879365,29.51208681802316,16.664736386254052,14.551468070825273,2.420642814690446
-0.3832677207303957,0.6383927243679997,9.562572501677968,4.850999087289788,-1.1075291894490205,-3.0357518292070083,6.6756246369928025,8.863641479801965,3.962956829000325,4.486906939207483,17.80815403148374,13.841544886487643,9.551152760140178,0.4589472439476322
-5.3972321760621575,-1.976733848193758,4.105958658749948,2.129421663491777,-1.6980440362967717,-3.904356058419615,3.667494078217472,4.203643445372132,-2.341754040704249,-1.275222521104998,-0.147215700359053,9.600788501133406,3.010555832646432,-1.3656156641206607
-6.575471495422243,-2.1494923948714018,1.8945745836216763,2.103502937791093,-1.6891947831256835,-3.209183805427786,3.0959069569306727,3.1104098437069387,-3.4824116464936727,-2.668897858937984,-6.636393011730229,8.294510425348172,0.4588735976286769,-1.9084460469993063
-1.9995876750938368,-0.2328533943687201,3.9397360423007655,5.372847549406624,-1.0847801419492458,-1.7320674914026457,6.315620496708317,6.717384477883874,2.630824356271126,1.966760999975537,1.9376711211885815,10.798472837864017,3.008640839754086,0.2054643036522274
1.0791042533341613,1.474651131013812,4.615051328144024,8.217980880046671,-0.1285945086845215,-0.7031452323859995,7.105115839073576,9.330726897750786,7.131787623201626,4.259156902254745,6.576422182329825,11.676453916941416,2.3908505451396183,0.6799206222596218
4.045774812684171,2.094480234849539,5.120571591648896,11.373828004265732,1.0146271875254536,-0.6255372109100001,6.366774090943686,12.607496438061888,12.183110693417149,5.864876865053954,12.04239374918316,12.025568830177836,-0.1301836581760211,0.5710171956599889
4.549685023515106,1.298903555242834,3.707745394803599,11.072943881274483,0.884271287885035,-1.0097686482610513,4.550881502872241,10.602049143124288,12.020501162718402,4.315566706779581,11.535069508918628,8.683198665078812,-3.24898547775499,0.8292014850816363
0.7846849327766723,-0.2156838478707748,-0.6519864496126627,6.330085324448723,-0.622073904154323,-1.1833182390384709,0.5341625331563603,2.101142343311517,4.8911382411693785,-1.9721228421752708,1.902589185207154,0.4636763310725776,-8.380327167747168,0.626810274193473
-0.0043846752435165,-0.7842050476248945,-3.2086809629201523,4.18226323031561,-2.4301510163705053,-1.2468835768374404,-3.0568843544898305,-7.598538437945734,-3.258829157278595,-8.156186678138159,-4.985598708784442,-6.619526093125788,-10.11897891752947,0.6849257542968799
0.3002347504251318,-0.3498025667825329,-4.495718568627734,3.7680421872493857,-5.352822459493376,-2.1270914364383917,-6.424629925575768,-20.23667787992672,-14.335806450993935,-15.25801765853206,-11.395432992256586,-13.46104984274512,-8.290811649172813,0.5215443754094214
0.5667783445661522,-0.0448090253774853,-5.177531416611786,3.2825493518838638,-6.381261687226767,-4.616877710387744,-7.876935752181252,-24.44502978025524,-18.78099516579356,-17.944966190428072,-13.536392039530307,-16.80394150250741,-8.204025152877279,-0.1064563368319348
0.9386494758560926,-0.2877485318600856,-4.340551425114932,3.97891853402975,-4.926566653572861,-8.331332036893773,-6.669365812080653,-18.61448514074525,-15.109115036543145,-14.96418053781514,-9.123462473566542,-15.189547481453952,-8.853328851251508,-1.4931869243531275
-3.741132596339229,-1.4612182547925845,-5.181653614972276,1.4606598564435975,-3.5042429158967536,-11.620633835942062,-6.561731003051687,-14.790107396944206,-11.6915704555177,-11.580459332843498,-8.085060729015975,-16.553141848186183,-11.20998033022464,-3.4523876597897143
-10.410242330064833,-3.126287581946387,-7.71992428312648,-4.556378267537353,-0.3218526588159295,-12.598967841408223,-7.05072368225019,-10.182540954370507,-5.947139530495327,-6.171093897515397,-9.180014627276732,-20.006407239789564,-16.28279206412865,-5.7940369112281145
-12.500245411340368,-3.212670337400018,-7.376027529918717,-6.292612045046508,1.5149517981200034,-10.461864874604476,-6.837618739343915,-8.022964226110048,-4.150287017739184,-3.141432405419203,-10.24741904828031,-20.02365356418319,-17.266284121843995,-6.397128136182207
-8.960676012832282,-1.5795702108713616,-4.544942950018849,-4.285944624917827,1.883963308378924,-6.066621440480809,-6.522951564487872,-10.360562755393412,-7.756523801462133,-3.4398238845007763,-13.039114924123922,-17.690091103180894,-14.26174032556198,-4.240343028454154
0.6474565868412332,0.7146651402752697,0.0184696712968954,-0.7380888297335971,3.6173984614742944,-1.398207426493407,-3.5423198492075403,-6.93635568643348,-8.995182145729187,-2.5111344963335247,-10.910123692740642,-11.144539356939736,-10.6843978975321,-0.246784187083826
12.565781890802477,3.704426734171801,7.295945518925952,5.9884797511311,3.937271003538235,1.6240376752970036,2.413479377168061,1.3581153654512066,-9.539269701665496,-1.58946487580898,-3.511863797108241,0.7777642690838064,-5.079423845163594,5.608122815799847
16.669885562608062,4.673852908608103,9.428730705133267,7.980530524466512,4.661072239636213,2.1926386632998245,4.251622823038667,4.933077214306366,-8.870211620893317,-0.6406860551135427,-0.915205747567412,5.196781251600863,-3.084482098894052,8.747873329510503
11.669363508633992,2.994963821192645,5.937742970708545,4.714634660680911,4.682818945521429,0.9302407311939972,2.1106782255003678,5.07876145565106,-5.774253464442859,0.8700299829868723,-2.1730555183150613,1.9236321548725064,-5.41356374686268,7.588619854926921
4.719325410805958,1.6431226005882695,3.657149182947633,1.861331613901542,2.3624995855645645,-0.6177191085931852,-0.4721411023846119,3.5312550162382945,-4.052700288257348,2.193476096773547,-4.927038230390236,0.4139129103238025,-5.214838198664079,6.29522079065284
-1.6906719971033983,-0.3962504996275113,0.8560930565054908,-2.4404282851367904,1.148765918590624,-0.9866816491420352,-5.030698296939082,-1.5280826769843543,-3.335958064152399,3.510377798465234,-11.205459387811525,-2.029126216923955,-3.70601862405624,4.444920929358247
-3.803633139483249,-1.7190943036961426,-0.7259027924417395,-4.261937028755073,-0.4531860120556877,0.2796347646058308,-5.969579536230812,-2.8501212262965443,-3.171129225686594,2.603707252638616,-13.061597659043173,-2.8065846575780795,-3.2735316723417984,2.2871248795371004
-0.9032157923741824,-0.6812820723447578,-0.0003961135821205,-2.6923812432175147,-1.2553407240343115,2.340765766739384,-2.588258020280791,-0.1791956515029217,-4.312132920693468,-0.8373906473245327,-10.128648895438769,-0.543166594820449,-2.9668097371698234,1.0597141951044284
-0.0665775577180253,-0.4112895405608837,-2.8714459133316974,-1.775939312397695,-0.1732267938172413,3.637945768296385,-1.3567979406749455,-0.1424469998614533,-5.1299198224107325,-5.374575210167532,-9.60626363915693,-3.784432687539888,-5.527590497748039,-1.2054183054208396
-2.5026860681162115,0.1485698916811615,-8.917265158182058,-0.3920985145788619,-0.7669061360772205,3.000005797258499,-1.0413659696525026,-1.3247724008620791,-5.742648655168869,-11.651171705514027,-9.888688048678354,-12.02006088767339,-11.421914497243415,-5.06253739360001
-4.326410020438031,0.6894700504495902,-11.015957425641112,-0.5519099968349307,-0.828768784836053,0.5144986675395238,-1.5904007738834796,-2.9805215133158867,-6.806122763840514,-14.467741474693716,-11.351815563163724,-15.430484651766331,-14.230064581171511,-6.70833407224474
-5.2609196271299705,-0.892586877155896,-9.801306440738916,-2.916755585103909,-0.0844382580293474,-2.478892735665891,-4.07905125843887,-6.074576358901318,-8.032583250830147,-13.26651434345095,-15.12284712934925,-15.049685912147917,-14.283024748492563,-5.792608571343029
-6.072680261988678,-2.580502631677661,-7.600527645955531,-5.032111275315517,-0.6033641787025359,-4.269113571317426,-4.300810772917979,-6.966631448942012,-9.018815387855264,-12.233513076001309,-16.33959765894201,-12.400372611641036,-15.272544191784124,-6.287580776105593
-5.56421983761124,-4.798590891728589,-2.9958615650686933,-7.535566766488605,0.4589397806002956,-3.8648743328828914,-2.364658665791801,-5.557863418697938,-9.748739849424403,-10.051422811705804,-15.176136864727884,-5.448818125871396,-15.986587013508386,-6.359859092005162
-4.509284038959278,-5.470910604689749,-1.5411207720649622,-7.611538926859826,1.6601191097369807,-1.5207079628131943,-0.9334385711748432,-3.641821313067036,-7.50762767433061,-6.984772298924531,-13.954121203305451,-1.979999652220343,-14.821217565646013,-5.187884661943573
-2.6540263272701123,-2.3125731994270096,-3.6818584323506394,-4.675205781153393,1.9122159773526897,1.5805280546801184,0.7880630886384105,-0.3691774763010807,-1.8804436056024625,-3.4589892346135,-11.698663598569787,-2.110376457845432,-11.971706462107814,-3.1638036086098835
1.8689862822517616,0.8344415966180356,-3.201762243803165,-2.7720238673204167,3.3236685218376225,4.130793634549739,1.7671580652044898,1.8666599816662997,3.348799112489014,0.6273326462818863,-10.590227988040445,-0.3975592374608077,-6.285421951142449,2.329052244184528
7.992586192823746,4.801797125709757,-1.2090265563338487,-1.2237499958980804,4.314662044318642,5.385819315852206,1.5985191064410775,2.804766679660182,8.790174950301969,5.02832981348977,-10.95702099014758,1.560257281502219,2.7509441462279485,10.18214379716066
10.595124507663058,6.836734656106436,0.0101492181718942,-1.6397690763026018,4.427046934121294,5.380656799235222,2.1371762679265665,4.542422545839424,11.894696011860123,6.576450409189514,-9.28848660410261,3.531016315801044,6.3770749682038605,13.22571417945737
7.826113600260634,4.253788135382299,1.3130470825603322,-4.907714189495404,3.730381161995533,4.709499242439191,3.089566762526343,6.513844613923714,11.704721809089948,4.814328152462221,-5.977753747062546,6.101843185030409,4.2986167811584455,9.217497903584755
3.832196629818892,3.0928090819176512,0.4096864604886827,-6.059116900672052,1.9411198356365529,4.113163874595897,3.9347892643286535,9.714972346698293,13.048613578340994,4.879597411786675,-0.527566325980605,6.675680601454324,2.712285431995962,3.149067154081412
-0.8635785095509438,1.577784445015919,-3.1395018031972293,-5.5094239179685385,-0.1666727430756611,4.092276423433763,4.953925675660932,14.502412848634751,15.18966001000136,6.139677640181385,7.859484533163438,5.181402854430602,-0.3476807424486844,-5.211482986111842
-3.1401587420474804,-0.2985437770065081,-3.937393174622146,-5.234303256297447,-1.8838253862879428,4.671390062180101,4.719593298816919,15.85612175937495,15.954770674434902,7.087240913509739,12.279060805966427,4.305789549321075,0.3409473850671845,-9.54506325700158
-1.3794482547821696,-0.0266394449194932,-2.2825980423904704,-4.320062348026251,-2.3636924223597924,5.396178482165198,3.085440409556972,13.716332678066353,16.0115359568628,8.627631339899994,12.596790737350943,3.5827513634560693,5.920660374307046,-5.742101201780227
-0.9669708437729864,-1.485315356854469,-0.5366696246431988,-4.684708131555785,-2.4562143373173666,5.589426269554858,1.6026245713303415,11.763657761172407,14.762652476674058,8.718885463440149,11.342013766539182,3.836545882480976,8.955557676958977,-2.0984794572177847
-2.1088734242101834,-3.1187825161176184,2.3819504578725232,-6.578305530024242,-2.8684744205092536,4.757572448285316,-0.0404475938835452,8.949960731415569,11.88343542864016,7.214909414972912,6.796830422576499,5.637191521756254,10.70749061190561,1.3830475974936056
-3.022744659026967,-3.039903725649664,2.655775911713198,-6.500374059597512,-2.9965576715636413,2.9085667289207944,-0.118092876085027,7.487925787898329,10.73054170576214,6.8062580197486975,4.225100459918258,5.632513088547363,9.89004642452735,3.3753881405881905
-3.7568130377727553,-2.893830577377565,-0.1679921813322285,-4.729646911669787,-3.18214866790226,0.5692381821545922,1.798336592155602,8.038050137354457,11.327323532791532,7.154946338001385,3.892760175698781,4.012524671445876,5.055522013442502,0.9491991575545228
-3.499256118511479,-2.5233300188894363,-2.1070578193044835,-3.67162124891577,-3.342057560940489,-1.4986925772448147,2.8621362890435487,6.501219964301691,11.5549508529288,5.91463685546942,3.423039276783221,1.3143339616320724,0.876247404320764,-0.4574906723626989
-2.3097182222493267,-2.5203706028425925,-4.031715419996,-2.761663277329889,-2.7966409992213186,-2.665242413767512,3.494889813713286,3.4051752346452253,12.13604490470589,3.399667372305485,4.121693952375875,-3.213255926224735,-3.2956167180224725,-0.0325081409770828
-1.4648001737023917,-2.692080080356204,-4.533768472249367,-2.952275341297621,-2.0080108355005493,-2.6445399106080947,3.2653767752946186,1.2624326575203086,10.574442403311387,1.2762526210231957,4.434710729020714,-4.28523234563556,-4.339195673557478,0.278243410983568
-0.9467239528857916,-1.7555294131328152,-2.867483991951942,-4.707600711007178,-0.87606675031679,-1.5007849180309298,1.5902010411042784,-0.4877867728599675,6.431587788627882,-0.779071664124441,4.29183794328304,-1.6265076163689212,-1.057643171872088,1.0491691298463306
0.4547435435479738,0.0918264163123331,-2.473468319048339,-4.515911181473224,0.7485513836560302,0.4247902675568902,1.3836165828170712,-2.5730110606373118,0.686171839621764,-1.4746213598963962,3.535491921559055,0.659961923505335,2.8115892942038423,0.405118137435178
3.119300777175713,3.235927288960816,-2.9252550232380434,-2.5218835196868725,2.5733138048993585,2.5573955074377874,2.511195879158389,-4.658327927417142,-7.478710898903142,-0.379698740475207,1.733183755582273,3.75787968361625,8.41274065422987,-2.4139020998722844
5.292302624647167,5.500188382545761,-2.3174855708830138,-0.7395724196046113,3.797458483977612,4.163515486877056,2.230265423249663,-6.19427691157485,-11.207629339683267,1.1032675814081614,2.577428319854376,5.400435041815292,12.44549380680705,-3.519894530833628
5.6220631233891165,5.22498791763598,-1.1424070572609188,1.5057144763906765,3.4253955750429586,4.592597341537369,0.9731474028550356,-7.163328498772702,-10.006272305188572,3.423306784977083,6.154168065259051,4.8902157039413,14.228559355393944,-1.5398698614526418
4.910692846949351,4.86645446675605,1.4438440238029002,3.0197065802858845,2.515189771219152,3.6489539003607225,-1.5253444324231755,-6.114939839400699,-7.147966273476894,5.912045314566875,10.600012251254078,6.399135875520583,15.878422923289898,1.8993034064232213
3.080117104442789,3.9405048272667447,5.801902211510551,3.4922034681052105,1.2800791465031491,1.8067610229755608,-5.822087832989124,-2.7201477202555524,-0.80073289813653,8.382883357224065,16.788900374023516,9.376936047299935,16.350494836264332,7.369102822666386
0.7668723446026252,2.073535816917841,6.420589720257795,2.548075047815745,-0.1535027406998151,-0.0207904222154802,-7.316577983316034,-0.5080865519586023,1.8080369794457056,9.709516434941197,18.367781203593047,9.965054562454949,14.71254257957488,9.437406312285372
-0.756140221674357,0.3818780280676291,3.152573581285004,-0.332447075565728,-0.6712157644805501,-1.0826665258817982,-5.907444148182562,0.7536283312758595,0.0830545533471143,9.502607568582327,14.66199579076838,8.591615934135314,10.835679284187307,4.621814136890236
-1.2317648792494174,-1.5083310486370085,-0.920379187661408,-4.430950487713778,-1.0635924441591884,-1.2855946972550818,-5.680435929327052,0.7502635417867496,-1.428641878115697,8.700004617171349,11.122358052399967,6.01149369974729,6.4223085477338895,-0.1181718728637712
