AF3,F7,F3,FC5,T7,P7,O1,O2,P8,T8,FC6,F4,F8,AF4
-0.3899724644222122,-1.8885051798696644,-1.2049899846011565,7.99994188218815,1.771339728378185,0.5933004877370494,-1.500315962820049,2.487761810262481,0.253038189569001,2.993738404569566,4.340538111431407,-2.038421398394143,1.2096079337811316,0.4125858393242109
-0.9319366949434222,-2.4845714469572364,-4.22060861954245,6.734742617461627,1.943568774636224,-0.407805962037731,-0.8682350750148613,-0.2900804564207178,-2.726831545185597,1.250696021939607,4.742959559840092,-2.3101598026896064,-1.0595261968034986,-1.1638137998064635
-2.170924533132584,-2.749313120584643,-8.063306442240412,5.809318907653079,1.5717655799225712,-0.623042017599829,-0.8363723300580534,-3.348965678105671,-4.431119792098556,1.5063782419363747,3.167140088928932,-2.652086716660898,-5.750773900562604,-3.5339229587396
-2.9055247657827965,-2.8520604394552995,-9.625713498439158,4.539130263351737,1.5566975894906847,0.0354943687528219,-0.5748634606137302,-5.3829132446335,-4.619376586549862,2.35970448341574,0.1533938591089594,-2.8482491005380504,-7.203859505521744,-4.046263285774308
-2.7982764679850853,-2.4986278149030854,-10.212023883892035,2.6854471722528643,0.9835644750566546,1.0106021948672606,-0.8537680875464039,-5.441013879550908,-3.6289514664550353,2.153172135539449,-2.367641320973817,-2.8477686591948035,-5.557338251021284,-1.94282578121783
-2.354326967600365,-2.463015122668736,-9.97610283912672,0.7989574731728908,0.1514651456608849,1.633274941439879,-1.356136294733017,-3.502801433526088,-2.1075054242310785,0.3793789136701093,-2.642687173855478,-2.067037249611411,-2.9623452664437844,0.2087988056331174
-1.1380180388458432,-2.712461373868514,-7.75894350249332,-0.4440944111489671,-0.794403892791582,1.531436301538207,-1.7760785524972678,-0.6459539542964876,-0.8120981038713069,-2.0301129211449904,-0.657531954437161,-0.3563005247555382,1.857449127855037,3.2574849707992164
-0.2415059437541707,-3.033712010253521,-6.687130990634059,-1.0803086074692203,-1.4671166530702555,0.6955027846853454,-1.6787091059234307,1.461619276879787,-0.382622266035554,-3.593709599511328,1.6729626261938506,0.0993497680400338,2.9033314493321947,4.041024738037236
0.3449727807542467,-3.589888381818142,-6.164794319053858,-1.8745940677154067,-2.0200675440308404,-0.645291380236273,-1.3442870654184285,1.6242709138373923,-1.0231286021785877,-3.4787129158229675,1.880950542115784,-0.6734113731026671,-0.324495312976258,2.032123225657031
-0.0236439705681028,-3.7711406866506674,-4.062754128013516,-3.4861542015191844,-2.6968815418406247,-2.104878478346336,-1.217616221642256,0.0442443482993439,-2.303884797825333,-2.096667547969787,-1.1878989476143715,-2.2508838886600486,-3.084203766672138,-0.4236872052633889
-1.6947516229102808,-3.546354542371952,-2.649587449066171,-5.716744564976693,-2.9379925158024176,-3.166738000167584,-0.4856002760091622,-1.7316264573200328,-3.385665732762845,-0.807054778912061,-6.43758272061541,-5.18078605175952,-6.798101475281459,-4.234406624429489
-2.233329748243704,-3.450685838013382,-0.5728766965167926,-7.65743720233678,-3.265064045629413,-3.32831609441962,-0.336730415859191,-2.0200184272786714,-3.622066885667948,-1.0413235772733174,-11.192442777419387,-6.211380285016068,-7.773711148453796,-5.732143762874365
-1.7675118169477118,-3.3577705509254123,1.6093729698184858,-8.556292358792234,-3.180984026666375,-2.4295382141139044,-1.1733371812411597,-0.4878506296543037,-3.0491050692185127,-3.368717803844902,-12.989516777821905,-5.20016752521974,-5.133941224595994,-4.42300105834398
-0.1514617516916118,-3.3956553137011243,2.3827805362609977,-8.4993315625062,-2.473830562272053,-0.928738887854024,-1.5746663327612471,1.389216638971277,-2.281527008540252,-6.981259086912019,-11.24846440439984,-4.040171269132029,-3.822671154066338,-4.174321749746399
3.224369138638146,-3.654256547302492,4.343258238006851,-8.280526799050904,-1.930008541225383,0.2306995689882569,-2.598058962537633,1.4383159327046542,-1.8927774723771336,-9.956961392061372,-7.674656856584193,-1.957288434048275,-2.8773645993423216,-4.114552174698025
3.714171469583709,-3.91921660136296,4.798690679700735,-8.708006041022372,-1.0685324859654617,0.2347855096173816,-3.302393758423421,-1.359019176362381,-1.8948132468974563,-10.353655242231184,-5.094670056510608,-1.1806817937627525,-2.641637002759489,-4.562065755283273
1.2224381007618064,-4.249888094951783,2.86366046293882,-10.055213764829888,-0.5651687890561748,-0.915536462430282,-2.3681465903044563,-5.828771795754051,-1.8401401377420823,-7.592326118589881,-5.487651837996168,-2.023189685319006,-3.949466879305784,-6.115538320799411
-2.431448235464292,-5.520053223544989,1.6621314790968036,-12.026889037657384,-0.3277167613818454,-2.253524269660488,-1.6540683089506318,-9.295519178581912,-1.4101302677779586,-3.096076481763248,-8.570510629981527,-2.684408612253063,-4.126863824287298,-6.359022278498081
-8.390890690251219,-7.797460817267112,-1.8768166114330855,-14.02436660442754,0.6021786361057668,-2.482816173970946,-0.6170473574913418,-9.48055290916784,-0.8295991172843742,0.5623489814117875,-11.966228041937711,-3.747638564803229,-3.4264237483963016,-5.434572270319827
-11.147579484506158,-9.483481849386292,-5.611544063466302,-15.379273766894698,-0.0432453558696831,-0.9959842364305588,0.2463205856034987,-6.124051163143804,-0.645133233155434,1.5787073868139032,-12.870738743524155,-3.851164243953364,-2.8482333900626826,-5.044209006910599
-10.28028475421934,-10.700238307046517,-6.42669866492918,-15.556063125946707,-1.864911547415701,1.520563761057474,-0.5501879764562237,-1.144862688413923,-1.1020086059493224,0.3612412074128315,-10.018533197247391,-2.696451014326812,-1.9269761578268365,-4.793439488967041
-10.286395335242544,-10.748876621661076,-9.08368720141064,-14.487496318438389,-3.485152066242181,3.441517091330752,-1.2637613310050984,2.6725753545260886,-1.7975209698264507,-0.8752756181214636,-4.50983097708604,-2.1532121960147497,-0.7281488115055459,-4.418879943997946
-9.894811741720591,-9.181437581310997,-11.940541797770624,-12.884757713495787,-7.075376368420576,3.332545081757985,-2.09417382372651,3.444187060648005,-1.99570854325566,-0.1521817493758135,1.0538735161915156,-1.8881861232638395,0.714513138498304,-4.152779584806812
-9.146725177616906,-7.000605288024292,-12.316988212385867,-12.025813344096832,-8.161858131789275,1.0363279241145165,-3.029404478382009,1.2283308137609763,-1.2868026830951749,2.4194297535698297,4.37698602162277,-2.1532586848412114,1.4627928856992862,-3.184990432851143
-8.564625385812663,-3.8635262542457305,-13.912355374233968,-12.817811540377988,-5.651662045903208,-2.121049912654371,-2.7854931162681247,-2.2007512660661632,0.0787129897319118,4.763059139308325,4.826711236578149,-3.295448923202454,1.403895252771732,-1.472494261867419
-5.05588375575299,-0.5813618932275336,-14.99144540644146,-14.759648691435132,-4.003835329637862,-4.19325657963077,-2.625753889720059,-4.558953853850312,1.495655199328212,4.882045707904695,3.4500794789896645,-2.8669819516442385,0.2839754997452992,-0.8283124124092002
1.4467423095453746,2.697051599073065,-13.469840922642623,-15.87852827533959,0.3018265438208156,-3.917716874194753,-2.693138326804791,-4.4295862742703775,2.585114462653337,2.853828881524919,1.895932567494356,-0.8692042944050002,-2.252368344503514,-1.1977733881837505
5.02054791761374,4.908318942738633,-11.046481571205986,-14.058848691593823,3.5323969996961058,-1.4854253224098102,-2.191931056622159,-1.9989567878083108,3.415309443181627,0.7851767905859788,1.246869490419158,0.3817533903096061,-2.471806505732075,-0.716127050164355
5.938426802192272,5.646146627631142,-4.548435879638683,-8.852157384012003,2.8982198676405586,1.7626456730662312,-1.887739332147536,1.2378617141664563,4.147511287686029,0.7380220545719567,1.5926749283687514,1.317934617997109,-0.269211071199308,0.3327485583001554
5.528405286705814,6.730913279564561,5.7670816994900544,-2.173516480775333,4.208904867008085,4.372444737934529,-1.6243955805568886,3.5549706203921687,4.5533544907864325,2.672316573004309,2.402625018936533,0.7923343333883002,3.0115359914910567,3.177833431236379
2.423199385081827,7.812891366127756,17.063674188334318,2.90668627997718,4.442547889515232,5.634109951833011,-0.68590737174228,4.110754456511586,4.035335279384071,4.4500818554182615,3.1478244502700363,-1.7169836361959383,8.323794285455174,8.309739643016314
1.4090382172193772,8.04953797879339,23.39952751170794,4.388691006168983,3.2932131998484384,5.60893370390454,-0.0468121118444602,3.329552634078709,2.252070405547784,3.882884596849863,3.638055061231171,-2.0068247198039213,10.714530469483458,10.362572317075784
2.58414550695638,7.647023035182467,21.683879841662243,2.7255358108531027,3.421401391012541,4.532145860489777,0.1706797535123003,2.324338752137692,-0.2655551962398021,0.7927682905856273,3.966234044116618,-0.2443561920557356,9.845214479401184,9.395783988486842
3.315413883767025,6.352274433771278,17.464647354610246,0.2169422283244557,1.88924949225067,2.4055197469291443,0.8374118701822982,1.8882669557908685,-2.248279782623285,-2.880908910224548,4.291550378935426,1.5526316535127398,8.87483669728285,7.973898614363892
4.668602869074774,4.00420943434841,9.462554982960269,-0.9601428268512108,-0.7480812500369856,-0.6913599287677243,1.2190405816055994,1.9281622101442508,-2.623491792407094,-4.891257512399534,4.686069999483834,4.237080221632798,6.588844472765191,4.910965535710228
5.240379147404627,3.3549137366143507,5.807961730857564,-0.3029492484482716,-1.73340597319,-3.954419227793551,1.4403678333859862,1.801730341217194,-1.4433643220191923,-4.536467974409106,5.0824492115107205,5.068255624289669,5.798103066245181,4.231520759132017
4.7594450769637975,4.534230340359623,9.492655734473558,1.134419043859339,-1.7053458533890438,-5.80771952631369,2.23458152304741,1.1789565656227978,0.1245352688594039,-2.836623135106265,5.279441006276784,3.6763557010407766,6.970507730102312,6.396116573309381
5.29870633396433,5.867052065041923,10.888898629011765,2.1355172934338498,-1.9258451427978367,-4.893298512231468,2.8582275347425976,0.5369126868918102,0.8325222260106102,-1.1418318105355638,5.02394646396624,3.8319738103493903,7.102775393704782,6.988698267944667
6.571859832469277,8.020209555086279,14.98069822109758,2.471318161961108,-1.203286722163142,-1.3939999732502883,3.316081490623896,0.7393416667230213,0.4766871871197509,0.2103912378995573,4.203143403752733,4.98212661301767,6.885869718661127,6.892658972876147
7.266993905307725,8.22473583287956,15.891081958803516,2.7286102163599253,-0.8248807363357438,2.613342100652062,3.761472796325784,2.065755762848198,0.011657343694992,1.8549513635803123,3.0388801047938614,5.652362637272776,6.479399219280468,6.4803820014817575
7.655241815600337,6.111643356646174,10.56799370826424,3.220529354971802,-2.457838396511242,4.388905727539338,3.5936807902527725,3.669474231121228,0.5034602233409942,4.228200609954513,2.0507747469876563,6.417058022929432,5.47226722823089,5.075467937560926
6.493481873290654,3.372620453951975,8.08955388802727,3.342891101327212,-3.4897567528437663,2.5293778490239447,3.0510996274567845,4.116352460720407,1.9271783079843203,6.648434996836841,1.6900252434720642,5.68387659374223,5.043583274552625,4.506356755504888
3.426923886380642,-0.7753235361505733,2.2181474247284365,2.2067821632742834,-4.342671405944914,-1.89317692132164,2.449779781687367,2.6299058099207286,3.024958858820753,7.637526473699097,1.9037142789092627,3.1771344028230586,5.156845030503787,4.720656970077795
3.311778742954879,-1.2779382250995277,0.1013872096481249,-0.0701687126899628,-5.12036497197791,-6.045933026776481,2.3408697589092,-0.079826375370601,2.447462270902861,6.150340679584929,2.087417700378694,2.7289626086977377,5.031653185379629,4.756225118663464
6.109038739687373,2.3963959014610507,6.151537808926316,-1.8646177140562368,-2.893514604743666,-7.356526900055201,2.795287747849124,-2.236386742551474,0.1404154444280152,2.55306048671639,1.614822767034468,4.155972679047832,4.878968944409076,4.966339217148795
9.65102044188056,6.53795272365997,9.935958463815949,-1.1001813112254697,0.2417502409961192,-5.235703098732245,3.395213795289389,-2.382669401586924,-2.364553519945304,-1.4612136031893783,0.5551138752472866,5.399999840321822,4.696950985258838,5.268153233762676
15.039343715364536,12.450974325143711,18.61527260320041,2.9513393764951275,3.2256386272212643,-1.2313791344131744,4.423051783528237,-0.5449409520267352,-3.124401282190121,-3.8673861413230384,-0.1248483873743566,7.207735149419867,4.3849630546013145,5.58210802280863
16.959188101065564,15.184309745794886,23.36459939442524,8.792642670218015,6.354945369085828,2.3160730177608,4.331239805270672,1.8337182551289573,-1.4398094275837252,-3.449971134106306,0.7851803912966773,7.792068276879242,4.654882991126248,5.7302959278739936
14.881441445553502,13.955184880683484,17.238486916246075,13.679945863590746,7.28029595285869,3.913493810079899,3.1480208997115637,3.095025381175475,1.4756769843824316,-0.4238153090558683,3.674447324136708,6.808676148096434,5.531776576133383,5.642022450980587
14.195207249743923,14.237120759396548,14.149091667178864,15.692936256591452,7.394366089439071,3.622255925782653,2.1215443826609013,2.6221679034523646,3.4396997682180483,3.692526467308028,7.564214991810445,6.728674722777037,6.055547564510764,5.696800492924529
13.712039990414226,14.817104863538024,6.526253882436194,15.09050186409472,8.213088503060034,2.539954272199168,-0.0102201377821744,1.1085292129351103,3.075712230743747,6.830209857913189,10.650692397573124,7.142683489084415,6.336887726429702,5.839769764242374
12.427233978790394,14.0925738939399,-1.3190295643030634,13.771161289819451,7.955913470062453,1.741317787138371,-1.1822829900030638,-0.2386521395559526,0.9099707089545036,7.423969237974234,11.574565714498055,6.548032392195253,5.867678157216669,5.7632641759353085
11.048136831024312,12.707356244870809,-0.6059905529173784,13.37759757453367,6.787597297730511,1.5972849275391034,-0.9569805243922324,-0.7135791636893813,-1.1229468062581098,5.277820526052864,10.378988910667244,5.234457098916159,4.390368575313081,5.507617335975583
7.125836470164737,9.141880634078708,-4.540235478225756,13.801231834838532,5.564597193978224,1.8489848728462728,-1.498891533255166,-0.4549021693554813,-1.3073174144458708,1.7193335751476906,8.344543179613341,3.7612182699720313,3.5614022731390933,4.660491020708302
0.4749613043472457,3.1012368875995397,-8.482960990056533,13.43511772320391,2.714209600380094,2.1038100945739338,-1.0122659992595853,0.0044779000097641,0.487312303272672,-1.1709422147821795,6.840136615777766,1.910442957389528,3.266834848798716,3.1135498769497043
-3.0886687720164328,-0.6267964541467297,-9.130043963188651,10.890379875123696,0.3423643911394263,2.178335155607307,-0.611721823062831,0.3522015218226784,2.801086735432847,-1.8665767297425333,6.162763365671175,0.8281747801905839,2.141624017118789,1.4779577367520291
-3.7271046604550855,-2.114584574780175,-15.506623134674763,6.558060160682814,0.322427638870049,2.044822681886963,-0.994708887474268,0.6335936605475325,3.834647646358384,-0.3960131122865604,5.335484988067378,0.6784497411416958,0.4334526979003312,-0.3590672261426182
-4.642051136093752,-3.8482139097507497,-20.485024617001727,2.564631450575689,-0.3454183167285386,1.618083159785499,-0.262986553315595,0.9039826183359452,2.838506227391136,1.6808868257475211,3.0171695067716517,-0.7325333701068412,-1.9463937727819995,-1.7797259485458632
-4.6313077498002375,-4.794320056854985,-22.653050724483748,1.1431821704054386,-0.6995557302299377,0.7434924790069033,0.2073231229592598,0.9373997560645648,0.5455074313134531,2.356611031835925,-1.2265162670572352,-3.225317746061995,-5.254242391840599,-2.6181587383872054
-5.134414397141346,-5.122094118674161,-25.788239494087613,2.848421685894678,0.466306575294799,-0.5577322336861954,0.603242769451662,0.4190410622886986,-1.5337755628854666,0.6066986532726446,-6.302476968734823,-4.035383727226723,-6.196683495544118,-3.196915446820124
-6.520176857833323,-4.960850769316425,-21.363121677123075,6.139265394927051,1.0584587036007462,-1.8937272126940885,1.4141116622459484,-0.5711034482175847,-2.2283203328500747,-2.813303581009251,-10.10313962058646,-3.384157140611204,-4.594425184680719,-3.2863512399867028
-6.166032894618514,-4.14973189494872,-12.888841341231172,8.621192627437807,2.3221971389169687,-2.657579931420571,1.7413036635118455,-1.394890246987842,-1.365002907222845,-5.781839991288166,-10.795859332035748,-1.7197411633917736,-3.563723747302592,-4.033693696700522
-4.361208907703234,-2.7458956297803625,-5.343306432027868,8.837044488975408,5.390548125027019,-2.4579489361690605,2.433274489750597,-1.3481247121083584,0.3463831687392655,-6.212051232964313,-8.012311483108505,1.5698075041200483,-2.4102982432325573,-5.508976247484764
-4.283577257693014,-2.7025769486823865,0.6082436903258158,7.135395167843456,6.38479925932294,-1.4252147294683937,2.6019196557508337,-0.4147517644447589,1.8942851029673025,-3.5330377866664264,-3.159855768205972,1.843167097875756,-2.980120680167623,-6.160788961977554
-5.705915357405889,-4.214214312619415,-2.019545648550567,5.0407937411353885,5.730644233299057,-0.0923802755971792,1.844706207103811,0.5141292383735845,2.525884428121429,0.7620399946720795,1.3461514974696345,-1.1643731368586088,-5.933824523453603,-6.180889041403967
-7.537115952190271,-5.55285527017494,-8.279519526384673,3.826096433104283,6.011517630219386,1.0239883664705758,1.248591538793687,0.3341018110891127,2.020220689573648,3.947213644558644,3.4608304593878643,-4.146322125537195,-7.358252085019266,-5.718536549434038
-10.440723057935363,-7.202505336001061,-14.139237561230225,3.539264109797273,4.343307072196624,1.7276116789428215,-0.254823836328011,-1.1957773706151045,0.6746076595376564,3.805660704143918,2.6496675669508534,-8.188145162670818,-7.713690055129873,-4.466146295037719
-11.070413830121428,-8.034908021709988,-16.784585436066706,3.201816095553568,2.6873896070934675,2.0716466633846267,-1.7005211701778695,-3.0226413608779694,-0.9021068689786772,0.1546743098653848,0.0701128669736022,-9.558369688496263,-7.5235397891892495,-4.376068617710986
-9.14342258218328,-7.733821210705272,-11.681061088038174,1.84984476541959,2.5657504867980974,2.0711702004304016,-2.489019543132636,-3.553503176071729,-2.1006397872741047,-4.900908748701852,-2.3133847682503017,-7.575913830257124,-6.036019598474156,-5.524559301057628
-7.416731505727302,-6.562105632271885,-4.787762891512655,-0.5496371026438567,0.5143514478896687,1.576657551949694,-4.187955572140538,-2.034854521308546,-2.605898409233589,-8.244202947508768,-3.061297953329614,-5.854432660815494,-5.082617589168868,-5.866269107982221
-5.103941948201132,-4.071977342155985,2.985603442332844,-3.053257797497338,-1.5878833290709369,0.4748304441988864,-5.741000478840463,0.6628909308182642,-2.5151279425731445,-7.77117191540853,-2.1027033904745736,-3.3798165289069435,-4.591196208265662,-5.7681033754101145
-3.7147815578916976,-2.5270598417669285,7.668184849234397,-4.516567107406388,-2.0564724698512222,-1.0118450322735555,-6.017664657994527,2.626156499119133,-2.1946243484740933,-3.8095185903628703,-0.5437155715759445,-1.4763523064849842,-4.153605064129772,-4.890896626000448
-3.7171151234025,-1.9642124666105192,6.52138984086639,-4.484172430580514,-2.9657092702732024,-2.2952336195282896,-5.639978615020516,2.410223109289064,-1.9727106938009056,1.1055044672142174,0.2999175088164065,-0.6851218518299516,-4.16627179575325,-2.838302019278908
-2.223458172591972,-1.8028886979040293,5.928375625211287,-3.472631478044633,-3.400376857080699,-2.7699934191582543,-4.349486297795327,0.2018605650865481,-1.901697283002818,4.028768696773653,-0.1683945332280529,0.8637741912711132,-4.621166768991302,-2.1798685605548243
0.4089040015211881,-2.619235351454411,3.379372831776668,-2.478204342444656,-2.5398010829692157,-2.262436030905974,-1.921514050738568,-2.3530880749173093,-1.7601565958659933,3.7116059007561546,-1.5926011639290325,2.7290853987962147,-5.625658622152401,-2.875695985058861
1.4043234284269177,-3.0466009172033868,1.1490622415862082,-2.1761002933676536,-2.8629432737934755,-1.1767785527412968,-0.6532833779460515,-3.476263079800418,-1.2621485533385624,1.3983244793745655,-3.128674823826856,3.109209094498741,-7.301162314461731,-3.5266418142949054
1.0624243549531434,-3.1116250027228918,1.623411643503116,-2.48068512817008,-3.2001744990952883,-0.1898258625276412,-0.0009570015593961,-2.591382484224709,-0.2826643112537681,-0.3670693806248835,-4.101385622629323,2.067101172945243,-9.737392650102317,-4.669065277406051
-0.3338303534882516,-4.102330593285654,-0.8516720668422664,-2.7858756414738366,-2.293338356322702,0.2684879932636193,1.417614297712827,-0.5896936800455421,1.060621162158867,0.0388361454668313,-4.379050552781962,1.296148083703241,-11.447624614736684,-3.645102578611628
-3.380087235654631,-5.809324550288738,-3.413990745014266,-2.6260856196365125,-2.3334479056802877,0.3312477060644312,1.9662361789193443,1.0677367378817737,2.4737131951897027,1.992401596628099,-4.355595772646524,0.4804871485904731,-12.36901915479604,-0.0924549068407191
-6.031825219491396,-8.291478765469606,-4.861004999409565,-2.1712839076996038,-2.3942559115868622,0.554146922697214,2.8866149648689974,1.53472712016449,3.5933947669639394,3.383152687970877,-4.678762561040912,-1.2213345697589164,-13.367292299327428,-0.2261387096837618
-8.325095127084026,-11.798248323577711,-8.20281018790725,-2.1558082027683554,-2.318144748842519,1.4260796478820763,3.820876594131805,1.0518496503923416,4.066266347834187,2.732644549772985,-5.866188798682714,-3.5977864046961514,-14.082464788194228,-3.757759917151785
-12.181041509042055,-14.565317386952104,-10.965545245656656,-3.3507567901097985,-3.4665957114462627,2.907907981703289,3.3479291555473094,0.4453836553320087,3.630355816778277,0.6081776556051892,-7.941813903513221,-8.14851513050398,-15.943887474444434,-9.598298990647976
-17.27140187487908,-16.56025008759939,-13.083140559397693,-6.0621578009711214,-4.334968965423307,4.358735154296099,3.418712508947064,0.2625295366919999,2.238448900615623,-1.0808878969814373,-10.325816617296653,-15.157994078594609,-19.133524091064583,-19.199290485670844
-20.507104512202247,-17.867856456471525,-14.596469811879592,-10.033390815733071,-4.880629100396786,4.9189733500355,2.702547735869613,0.366690401099504,0.1532761974126089,-1.2048916857823002,-12.19518890165986,-18.62397437906499,-20.13738950138055,-22.78238520513253
-21.923959460709536,-17.994535844272406,-12.716039472408552,-14.68451878468997,-6.233848278549652,4.082259590319069,0.4544407258645486,0.2636306848780236,-2.1247640963634358,-0.7674887750015245,-13.162383434038516,-18.50215372647233,-19.08227427263976,-19.849948624373933
-23.29259333761799,-19.9834592458096,-8.675989061159564,-19.322324802445607,-7.394945694237143,2.0502165047204244,-1.3902868112879303,-0.2907130330263783,-4.117234005806139,-2.01233479343081,-13.668572101636457,-18.49572840868425,-18.343819132788507,-18.30527601211747
-23.933371002017555,-23.888665174296666,-3.6569083057577374,-23.13359649149873,-8.649168238032356,-0.3746873128118437,-4.592911062851744,-1.0441011827835212,-5.609146493555215,-6.064820795875036,-14.554347864863928,-17.288648673449824,-17.26073533558625,-15.999689470062105
-22.90000491335392,-24.614164186378133,0.0667503029768706,-25.20434413272511,-10.265254561473265,-2.273705385542748,-6.293479730969882,-1.5462387583768449,-6.614457957900747,-11.425511071135231,-16.02402262893913,-15.938862017712546,-15.23579134982682,-14.661710263433438
-20.206198866108224,-22.49785873647967,2.1128547526209185,-24.902074092497628,-10.75548783211918,-3.137149738227897,-3.897551528704137,-1.596276662860717,-7.071333198655964,-14.87067848819386,-16.992260330987,-14.842258510190884,-12.503117393848648,-15.439639640454098
-14.752120119375208,-17.691813555947647,4.360301099682796,-22.484832638362526,-11.05935277353962,-3.0859707140977264,-1.4852266893041108,-1.3540998167704077,-6.616409638639382,-14.011630223952515,-15.672907039297549,-10.46915065008664,-6.515102606798231,-11.96416740424881
-6.135457248338363,-8.97625873896876,5.846163527852238,-19.26320516146168,-11.687322936466318,-2.673641367577208,2.5137047678984463,-1.0674843839382646,-4.802637091705677,-9.207677734676489,-11.148849768290855,-2.918476560226112,3.055033602201949,-4.621022848545006
-1.1206217598361774,-3.6262895981144734,7.698066606614424,-16.80903314712969,-10.6839595740569,-2.4404534329311645,5.247142475414482,-0.7987045128979062,-1.6934361292782647,-3.190487947349545,-4.564548362084249,1.475391876182142,8.886129376231178,-0.4824486929271322
0.133698544867696,-1.7533010081496625,7.8012056109833,-15.642803557620285,-9.053690517224588,-2.5478589516255425,3.1739010275150554,-0.4750715617998828,1.7269428338658468,1.1117488901346562,1.3150542008973378,2.976718070979774,11.115415040061848,1.2388736135151384
1.4441078810697452,0.8105017545390546,5.418600223325902,-14.60978492679795,-7.168490159076535,-2.7398050004479053,1.4916736806342776,-0.1456577600989881,3.8833420224235935,2.568027953472524,4.064651687682004,3.112685718319212,12.866101407356798,2.295135010834718
1.2324464224741432,2.444316266086161,3.5232721967742444,-11.763462327561747,-3.33878952800141,-2.6283900160489777,-1.0666630309122516,-0.0565198592164183,3.632015686013096,2.1152141354138587,3.5245880220218884,0.4083743955872393,12.497654523439657,1.3125520842700815
3.4622353538144983,5.785019307643113,2.279731224980703,-6.167495370099787,-0.5899642851054718,-2.055008262605609,-3.3448479590723177,-0.3910307163332707,1.2290046625259627,1.4869468115235431,2.0119006330275946,0.2798016789990848,14.264081698320105,3.2009777306052114
8.705525622712347,11.34455496907328,3.48508274340447,1.0151170300562011,1.371082605935749,-1.2316560958239453,-2.53889697711963,-0.9739654013440776,-1.6122023422464284,1.81921198991906,2.514162139536136,2.884141281438191,18.55071218596355,8.210395246474729
12.572325504169145,16.381967540093417,6.760450006601677,7.253268379507542,4.783538566569051,-0.5595818006317934,-2.6371762136744823,-1.3426949859127646,-2.782404483428614,3.2461079659564938,6.276351028164196,5.924434510741339,21.6670264141938,12.204761294169986
15.977131509090231,21.57281267037133,9.455425238532706,10.599207122331972,7.004966480061862,-0.3018346440780632,-2.6613926622594506,-1.1850816453684487,-1.2628031580148755,5.351814219401078,11.73197057756817,10.706514947448694,24.57170559719973,16.21609605287283
17.271284888218915,22.936731940588093,10.269423013927938,11.07449592647894,8.453413091701847,-0.3999122432918724,-2.374615675134539,-0.6859332730399217,2.068666886116695,7.583573021238202,15.641522887389694,12.701834486164262,24.47085165759984,18.022807902334165
15.600542399622366,19.703378876343063,9.485464455049245,10.28763343990608,8.994321894557956,-0.575007807494849,-3.456024327628706,-0.3625086395046821,4.9733889024621405,9.17539734304853,15.522870176996072,11.551415188524857,20.605317568371948,16.83518556169217
15.63744364408544,16.055276940530185,7.811707729536939,9.823938620487198,7.408895160259959,-0.5884249494285569,-3.74220580955288,-0.5081879952540973,5.41265588373598,9.064524879716105,11.479897966506748,9.976020960002854,15.460119978128647,15.59853354753681
16.95496696213014,10.89723343958473,5.153882532988654,10.044852874133028,5.395195804994491,-0.4155949395926086,-3.8800939258112894,-0.8166445743653554,3.022176508983684,6.462490085049801,6.094154555817994,6.839711638005901,8.117831979675499,13.589411570139266
18.43695978729949,9.055862897254078,4.717628896457186,10.31626090166327,4.125958868981655,-0.2062795589406576,-3.567524723416915,-0.6173462491117974,-0.6041909645232337,1.8555469786452647,2.588722443750413,6.817302131959126,5.669777488409392,13.366285210978733
20.99744253709025,11.54209796607915,5.571413196709338,10.136044703159982,3.629239043170864,-0.1144526670485177,-1.030159494574864,0.464949896917922,-3.0709609032616925,-2.686340534313409,2.713533396060768,10.489415787855826,8.985349601017852,15.570423847194297
20.991475519619662,12.240665194595428,5.406198736460555,9.82956018897204,3.3159011087012686,-0.1673641794295548,1.8199908191512253,2.0743432426256305,-2.9240379141299115,-4.674555495931308,5.843765477504853,12.804465058496488,12.86247694550425,18.395071896487103
18.23218904069917,12.403301415202364,7.223231117795915,10.157145771739096,2.787117803009924,-0.2602692095107954,5.34301995613115,3.3752802524111587,-0.6457988059043629,-3.148004125669864,9.755573244035446,14.83376404024018,19.210130358354437,22.7049680343241
17.2210995580387,12.215395469746152,8.126549381297806,11.422055123343092,2.038627831292333,-0.2459613233291406,7.7267201399981476,3.78949091356526,1.849700057883112,0.3710455716328056,12.32996328590344,15.227487084705384,21.42130508308775,23.92796747200735
17.333758176355392,10.739665510797064,7.710439812211968,13.105948264802564,1.464016890682739,-0.0485500133440268,6.402241153831163,3.5183674949067267,2.758090654595563,3.0186710918434017,12.897918965490405,13.066249461483592,18.484267687563747,21.608919663671145
17.129506452567448,9.665123377719894,9.34291786299151,14.3482579971041,1.0536419141406996,0.2484785053220264,4.521723091095975,3.315531661403256,1.6749062099451777,2.9786240934741244,12.337586504798496,12.778029808168062,15.399520903808789,17.51496633962648
17.359050659694635,8.740684057431375,9.872552590165087,14.652240607144698,0.8080170711984577,0.3931769396813109,1.7552497802051568,3.681442295226077,-0.350101769134298,0.9808170282958456,12.001836506945438,13.964587769505773,10.337741418316394,10.324629637837676
15.527330576847682,7.999369236638306,9.526198330398945,14.0741851074837,1.118144571287224,0.0941300092740675,0.1257076817210466,4.24865489577202,-1.8467638978798817,-0.458111675577797,12.421333336173234,14.115420904256874,8.283814028423292,6.984166927956218
11.372509897855942,7.732426251489015,9.622559999780822,12.847288675416776,1.372186069451521,-0.7342654784730769,2.000540908124301,4.028094885501872,-2.0019446458096013,0.6977822261882807,12.892793117779988,13.945788607776448,10.064795427201089,7.930046743893718
8.873848046252416,7.82946566853952,8.318149356626472,11.037032615839236,1.7267601847057494,-1.780745124900605,3.793141111458093,2.4079020868346674,-0.8974683649147579,4.317631796219004,12.337576799787996,12.36410789447213,11.904116215789283,8.127982178476538
7.625682957237691,8.442953322166895,6.718930512555028,8.702558340969105,2.8612862042625724,-2.420064238073124,6.198088856189526,0.0129451533717457,1.0211267048926231,8.37963721834032,10.66385271930875,8.94285042025843,15.200030981701,9.197991514310258
7.027290909542098,8.499060365243079,6.413522646418874,6.352906398776952,3.3305549835694324,-2.1059232320015013,7.133320529645235,-1.494370900987633,3.459664521626877,10.695608755895655,9.260235443734246,7.330375794280899,14.870535448286583,8.364391462520096
7.890550718997063,7.9566194715330685,6.863414057126838,5.039091102534869,3.2727826295322764,-0.8129956641326146,5.1480560074776704,-0.7080344546344151,6.213991329940171,10.429175345687526,9.902195411373327,7.384837549903333,10.167829876938924,4.872201506133105
7.059729060051746,8.907347511127075,7.521263236574557,5.730625297495436,3.801198267351435,0.8494910749514304,3.5812043027999354,2.1698385297043643,8.771905350489298,8.293516989573384,12.876795542035325,7.014417224535051,6.7337554184924935,4.313176104265041
4.485737940628812,11.248620553915025,8.816512315679535,8.392192732460089,3.61337394053332,2.0040669377288083,0.6568561024597208,5.194508913017216,10.247306664178254,5.677582179338778,16.130059275031684,6.927458616829943,3.360161449937293,6.127580892774589
2.2563714557947976,11.157078035273289,8.532050555323263,11.614944259009448,3.27769084638365,2.1065525391683195,-1.1874805278534604,6.078731282017621,9.90571218947138,3.6806248113858047,16.545603276191052,5.069195582178345,1.4019192171471295,5.937099079734802
-0.2900468292850918,8.765971316972136,5.763840042880799,13.290745354907884,3.4646115327986533,1.3259607152716557,-0.7672070893392495,4.054250191347485,7.808954671315874,2.6924610345787485,12.496665111218448,1.0383472851354978,1.858905393341837,4.506903523724758
-1.961423002595935,4.365431830810093,2.8419607010203056,11.938462783990047,2.8829126492164194,0.4096341944869621,-1.6124627388005048,0.582244992770903,4.90953894945477,2.47108182293681,5.424480368588917,-1.6277208426709957,-0.7366364028963053,0.7116079226890838
-2.428569213123075,-3.0167526431992355,-1.3085326102069748,7.690107021849649,2.1942845505318136,0.1393814599868932,-1.2508343600767062,-1.780751371602527,2.465596837238394,2.4320762285473805,-1.1083296012432342,-3.3380280108276468,-6.052462490606903,-6.383118624611511
-4.186887702946287,-6.657396474833449,-4.8144705947387685,2.1808884421179755,2.3616184822884043,0.7905473796079008,-1.3383270793801825,-1.4434887101203842,1.2950547400549794,2.0356977908614766,-4.171326733172954,-4.5926827485100095,-9.261379907284418,-10.220147118458591
-7.001261415970673,-6.331377115373525,-5.862414324091144,-2.5437158127089248,2.534594029813825,1.9904964723872356,-3.19253472148028,0.9806609534625466,1.4452272388057494,1.1998441070739003,-3.633146702863037,-4.701834225638011,-11.166027556674692,-10.938160045659366
-10.249979202207694,-6.160027653295981,-7.645514800159711,-5.250598627281093,2.7647131171603982,3.059638123102985,-3.912293320273841,3.267278797317253,2.350804128944546,0.4518506078700852,-1.9234345164735416,-6.762903851902341,-10.96219544302787,-11.324343522241213
-14.420357574768476,-4.596453587345432,-9.060605976428432,-6.01798643316765,3.6815564098621647,3.5466679103131327,-5.39762597625438,3.3979425758087918,3.137490459540544,0.505074825778614,-1.8266050375481624,-10.860482250171316,-7.654429084371128,-9.946842762423335
-15.762534650477594,-4.726466476698185,-8.972793244143995,-5.813469626916287,3.17321268116938,3.5199678661140226,-6.567877865667673,0.99984233304815,2.8410647869617875,1.4255650535675954,-4.436829271236746,-13.765328101558913,-9.174744724139504,-10.854983824357443
-13.983112489935168,-7.132097148737574,-9.036180011255032,-5.634259309502525,1.1651305401669372,3.3846034712582664,-6.737133630803499,-2.7002663842112824,0.6739373958309116,2.138225398827778,-8.952351101690223,-16.031118381010206,-15.583007282379612,-14.437777185973063
-11.829016750298033,-8.794116576742375,-7.954955608640791,-5.872200557005417,-0.6471735970456844,3.4134592281163805,-7.607113008785831,-6.104648550038796,-3.505278011510168,0.9579861753061714,-14.019080687276034,-17.52608884965592,-23.22969549931573,-17.711824082936793
-8.385355528349029,-10.528841776561098,-5.1998253690144765,-6.241473728225813,-3.8065469053111656,3.4570846260649475,-7.569262082326465,-8.400348909168024,-8.775898991948257,-3.047084814162446,-18.938834118631803,-17.649785746516088,-33.954308742610095,-21.662828228793742
-7.286614062994681,-10.92573514014331,-5.342241257301188,-6.170145276356909,-4.898446929650282,3.141317023729968,-7.044585834223348,-9.7002261075765,-13.340238861062527,-8.976060032917431,-23.550481488558795,-17.809195391065284,-37.0337304117724,-22.583296857088985
-9.142765350322115,-9.484349330909756,-7.97525142339284,-5.318654379440186,-2.2985598898277355,2.369169208415567,-5.36172451116155,-10.340998880152211,-15.483397019151273,-14.387035804368807,-27.261689521243948,-17.79516069814908,-31.39154516288011,-19.83414031299382
-10.026921147923655,-7.330223165030586,-10.351799396588648,-3.8876281671652215,0.1652497760019279,1.5834528613191683,-1.9787274927928944,-10.264166543223036,-14.689093860324189,-16.926001705623108,-28.686749880250023,-16.56839508007157,-24.839589826010723,-17.110427756241222
-10.861012428528008,-3.935351170920435,-15.347038529674684,-2.5203545070052997,4.648116149790944,1.430802333754034,1.3313077043733197,-9.132267578597569,-11.941426347128628,-16.013944886235546,-26.61383910226144,-14.27000403492317,-14.642291488137,-13.43252209055416
-10.301505730146957,-1.871861079221626,-17.221200196376294,-1.8426604393032504,7.23793072468646,2.080193577758209,3.81739462715532,-6.943986292014064,-8.863374176246912,-13.15528823042692,-21.41412501324369,-11.254420556143018,-8.708994135437738,-10.337630818779123
-7.661558907105956,-1.3963248968931767,-14.639328535527124,-1.956546690615188,5.31122597888231,2.884045660121946,4.227957281840739,-4.371417592171484,-6.430550455021147,-10.59115252805288,-15.281187831966475,-7.337218252253725,-8.43717510308942,-8.433200336661685
-5.164712368090996,-0.4410192150760894,-13.290434204372389,-2.314202762002449,4.153910084958571,2.81712406755664,3.401511994343517,-2.3717020992199176,-4.447430560158246,-9.469028619245003,-10.710725115947051,-2.7668302226039563,-5.476147141530551,-3.568151144254235
-2.313341161459231,0.3627592228250457,-8.921744199212828,-2.156483803023483,1.2831789909997071,1.3725117349689684,2.5728186661856083,-1.4237007761547988,-2.245182816605939,-9.099095194190957,-8.440502518269563,2.430363628127399,-1.85798556449615,3.951861603812488
-0.0501409140165967,1.0284781309393638,-5.743504061820691,-1.2057984491035023,-0.9977512243444208,-0.9198014829369688,1.8740844963021537,-1.1563334065293998,0.1763145289699754,-7.85981186415494,-6.831542133148902,4.742497729408978,0.3580737081590857,7.388432277772185
1.219035440429964,1.7661553165405206,-5.675619234645563,0.0024732206930568,-0.6360110316895649,-2.886140392577162,1.7821687599676208,-0.7502647062042218,1.813944214680638,-4.853828384868054,-3.47909313648336,3.7317848666937214,2.08116067708301,7.011054101006362
2.28741681570463,1.2545289593500784,-2.949891020140564,0.5212307729627481,-1.9086785452833304,-3.6785902318135673,1.5561760808488905,0.2785274044148105,1.568326294320907,-0.8299930522055163,2.2830683352600145,2.433833201460468,2.0178453826574256,4.0717885965839535
2.763422854498988,-0.5478791487611967,-1.746128064878275,-0.1617322895878636,-2.553462270810011,-3.413852580712078,0.649895215187983,1.6675421831090311,-0.4877909886716285,2.3735976748190915,8.331223288365779,-0.0757007007186445,-0.1180761897251416,-3.0525562535508737
2.2475039216670134,-1.7471181927738015,-1.85650421931918,-1.5894127140252898,-3.4156402760232623,-2.902243992606653,-0.1641706095118651,2.720042850563013,-2.8182755391692496,3.312999174047487,11.29334801994732,-1.0717786578286566,-1.0440957579224328,-6.220482235233243
0.6792207836506786,-2.533161571388617,-2.559112637619521,-2.6719108092238404,-5.059415412608469,-2.795280723997406,-0.7096697183361727,2.966518429953372,-3.537093833047693,2.095130248393051,9.427058069353205,0.0309725589328915,-0.9068630164377188,-5.155838016399805
-1.0248360569847912,-2.8444284443263035,-6.291098135962057,-2.688644014065133,-5.336573243390068,-3.0329529090160694,-1.2693419999504012,2.5120788242615166,-1.95773722227894,0.3211019929861685,4.252594788924927,-0.2438932786186247,-1.1774620744051494,-4.383223675171668
-2.9349715433553536,-2.253137182309879,-10.385948035492731,-2.0914479304500877,-6.5112610862537705,-3.100427612490993,-1.610888301891029,1.8123055019118688,0.8666990844813824,-0.0820979146494877,-0.5726853159472753,-1.1978593823958634,-1.1826019638636214,-1.999924708019145
-4.115282353829383,-1.8993893018621144,-10.963139090870502,-2.3101053483579648,-6.62173121967121,-2.721084205747051,-1.5696668703513037,1.2346663432935865,3.1195309900900376,1.75038524325943,-2.14998750282189,-1.150752142431006,-0.3326950615683288,-0.707934070176036
-4.254992567989082,-1.6480100467946934,-7.076485817909372,-4.575868255482575,-5.472357720603226,-2.179852552149285,-0.7933067237648808,0.9009088977443334,3.784068038390977,5.001673763609045,-0.4482575889906428,-0.4802760737442029,1.3972144577048318,-0.9577036962048484
-5.110612567635713,-1.9266321024421813,-1.0723485430069009,-8.683844830893406,-5.337559895868898,-1.9453039488617208,0.4955699574071944,0.8720592026346772,3.343874972457918,7.741944405802378,2.1134399521858462,0.7373078897623618,1.996123892557502,-0.9251556365638344
-6.426189623128539,-3.002566621081064,6.975065499352929,-12.798830923233162,-3.2314432088183134,-2.083126282294952,2.177974191142044,1.303444620785804,3.0447906666144533,8.26919678030757,3.005705460990004,2.7825488762240504,1.4677604683429608,-1.3504625620304211
-6.165127214416478,-3.184392905289042,10.923903967049435,-14.615318168890273,-1.1872449331258037,-2.17514005924599,3.827622821829469,2.2895207467924656,3.5305240138417737,6.246836759570073,1.646084691905248,3.921650638139267,1.1313423367809972,-1.288566646317547
-4.450636147818577,-2.56430047312279,8.949784280974047,-13.02103262105306,-0.3994720935272929,-1.8290223747234824,4.527978371914212,3.58489150667873,4.207244284895285,2.803952215841651,-0.4946008853840489,4.097373779514008,0.5613725819909843,-0.572974070372574
-2.815137790228597,-1.4281381973022178,7.019890495281673,-8.9152236547556,2.299159706292629,-1.1377336403991445,5.081021194162203,4.613700851432537,3.918364478679539,-0.4230094541471736,-1.4777766068812817,3.950964323819981,1.6211832752532458,-0.0037076815180699
-0.9031190630354656,0.6046377472773583,2.199653600150649,-4.519228698557274,4.487386078970621,-0.5060481429261792,5.950395887202274,4.851510842151953,2.215730406149685,-2.4689480422967733,-0.5359682427284334,3.041948394918773,4.6304177752966185,0.6631051061054857
-0.5558609510824589,0.8842453752794017,0.290079472309212,-1.8115710920166637,4.474250626022297,-0.0674419888279764,5.616501348444516,4.196562784312118,-0.0461095745728385,-3.46422858600107,1.557140327643424,2.350413060963371,5.338098132348241,0.997797237073618
-2.196001107159296,-0.7295132540253602,3.113080330726961,-1.418683621086391,3.744346543487623,0.515478812260703,4.070626838797407,2.9396470023967005,-1.3896842972726802,-4.069728951579492,3.3423784136319767,1.9034108309124464,3.992498469216132,0.8782949855948313
-2.1245321291164254,-2.5474885859594263,3.55908730861558,-2.733782023997641,1.6762804565464269,1.4998660046850958,2.3436128264782936,1.421662719778709,-1.0375462951791334,-4.600413527986078,3.766536211336199,1.7945825403430529,1.4592772632727793,1.454157771146165
-0.7023130724438239,-5.202156117207265,6.529001005458655,-4.814899943405859,-2.215910043424849,2.383890212960438,-0.8481030072732141,-0.170611176078502,0.3727898579802868,-4.693801944600409,2.7106461070551937,2.303879051783248,-3.2095595968341,2.6646841738326232
-0.4811598595297804,-6.292739075681433,7.818967006120413,-7.003612201424584,-3.8776288504748986,2.0674967000277853,-2.7274851715279507,-1.6359666364879857,1.3730439302582909,-3.726145110429336,0.9069164986029,2.313853373306933,-4.350584818476617,3.290376186317114
-0.9105434125437478,-5.465088547069356,5.611821816210891,-8.788235801926472,-3.3123022525077075,-0.0398384267080906,-1.3253279289054585,-2.5179525567208287,1.0313516399776894,-1.4488445117858078,-0.4261770608529112,1.8966829535791585,-1.6670840701341745,3.488195712651509
-2.6607186045678417,-4.640759940822859,6.166110003125201,-9.464955769205387,-3.838137042874696,-3.056533471451978,-0.4081214385051929,-2.2556887804703223,-0.160306187309839,1.740381709562861,-0.0938876485069677,2.4701109993868577,1.8243575865250956,3.5141163338458004
-6.219675598211978,-3.1706698144351986,4.322440649582598,-8.386941053467423,-2.741923077190921,-5.019353615377924,1.5896597934401906,-0.7368903369329836,-0.7321011829878614,4.969192612722274,2.379431846045879,3.920403897390567,7.528781474231049,3.1388577586563837
-6.166946890504378,-2.0596083372554044,2.462073994778644,-5.743750567666105,-1.777880600131931,-4.535687316869005,3.343528090723213,1.3010379552510225,0.3417106633218587,7.214785409003461,6.116201603412282,4.68709422726598,9.468526786155683,3.5955522239303823
-2.385752495534325,-1.5639641837852962,2.39171265315746,-2.907179426468716,-3.0694207825192925,-2.173490754919396,1.3112874914411154,2.5660484180316523,2.5321625978454314,7.621135851686542,8.954605300520948,4.946025662747156,6.996431963081041,4.959442871167624
0.8438507399193373,-1.073896436887836,-0.4712175593659667,-1.5963103088914783,-2.5419276003564786,-0.0997264699229951,-0.1034025940805207,2.1115621190648497,4.02846351493211,5.889341365278529,8.632582034925644,2.1455518777127365,4.29273628303122,5.704457369359551
4.64718342223277,-0.925082490532191,-2.1860064715182195,-2.364309583556752,-1.9417632508775928,-0.1227157874326287,-1.356565737031465,0.12989377825728,3.2569329607852424,2.668997066492084,4.534372799442117,-4.319992696453445,-0.1948887976405924,6.052065477500585
6.059675296744233,-0.4847976063793036,-1.8327630327678728,-3.848350642253667,-2.2790715522842238,-1.9430280725911988,-3.393217633143556,-2.0605414799636623,0.3627424256844573,-0.4854130605331317,-1.3881074466849253,-6.822211547153285,-1.887236192571771,6.034718511491628
4.221794436906306,0.2800476808243608,-0.1893639569904637,-3.714995934804268,0.1093626645258784,-3.349947550793786,-2.219723470993921,-2.8892698134558934,-2.673260992836692,-1.9355649821064291,-5.5966039204306455,-5.629582263709132,-0.054533647769204,5.357106843174681
5.02062241396202,1.9759052518516853,3.931234797239101,-0.6471248866692196,2.5875617002042337,-2.27628696770223,-0.7363812685578031,-1.6351369997368472,-3.4755928746920333,-1.1577030857892725,-5.434526185076544,-0.9715277820845156,1.8786323939458371,5.554138334146826
7.791410798863708,4.846257178813253,8.951185975880648,4.373231907271336,4.277685204462082,1.183144810699357,-0.3949167359150612,1.053801879755424,-1.132040722203918,0.7332794988811706,-1.2297315172664405,9.088916015840676,5.190115800286033,6.634676377040392
8.5204100866508,5.257354643244111,11.985602542919118,8.690367883664042,6.274464124687843,4.695986223619718,0.7524284739402844,3.595034627037741,3.047017619413652,1.8339201168017905,3.785820185185511,11.976648400888072,6.177344965527028,6.124980248706392
8.028525016348473,3.145810989747495,12.295338145236032,10.01158865856572,4.482322287082384,5.652799601026557,-0.4939266030276728,4.539464290581634,6.478931013173616,1.1195238527547309,5.853786853195801,7.425252936194976,4.260177701395502,4.192797989937077
5.407470479244592,0.0956228256688472,12.07849978325645,8.112860952083532,0.8607362930128336,3.3789524490106704,-3.088438008780291,3.502130860979124,7.188472200019371,-0.5686896557222401,3.51285735342275,1.275514385049391,1.585049824572623,0.8524248700512327
-0.1254358473527749,-4.775240102630815,11.17852541339228,4.8234833307061855,-2.069090913659381,-0.3587729959749115,-4.343799799186661,1.300570228854439,5.133781427980351,-1.2401495243278466,-1.4227693831330726,-9.464488589371758,-2.9386387285038755,-4.493054414289397
-1.81597407577138,-6.024882130385918,9.012206053545674,2.45860347748678,-4.590968781926588,-2.8847774043842804,-5.49199366371306,-0.7434523545568679,2.0285815426790945,0.3923295159658475,-5.457990358075384,-12.608964627320637,-3.4828084509957664,-6.51088589849776
0.3674620214092909,-3.154443596749726,6.123639988527966,2.1528902366459803,-3.6907708551085743,-2.71620499799387,-4.791133583761065,-1.7390141909181929,-0.0460579541888339,3.656439012973536,-6.130266826900755,-6.9825434136983,0.5063223689958416,-4.980872159917592
1.0521234289050947,-1.696213516358608,1.6980126787356116,3.440795638320284,-1.0827394851786774,-0.4303138239103636,-2.4523676334949425,-1.6555560834118448,-0.0628829352557498,6.48956428375204,-3.563261833729144,-2.097320305863777,5.59260484120085,-2.5087054567297167
1.5631566174306522,-0.4479630003945458,-4.798879331398358,5.15922392371734,0.8669653539107376,2.2089793430004114,-0.7155017304216087,-1.004379179677196,1.5201077457882528,7.306123020964004,0.1936692800417644,5.021317877027002,13.324171788483312,2.232627160906377
0.9506954842659188,-1.808016253542376,-8.048347690903702,6.584300991293139,1.8275208771591405,3.814140552654545,1.0576130732189686,-0.2083614832255362,3.409326335120225,6.358570866620244,3.088629394050782,7.998807385232294,16.293271680360576,4.4191810975793135
-1.634123544367028,-6.867727573232837,-6.901268873953574,7.710487463868236,0.8298938094136867,4.198906401638051,2.390577028485604,0.6917453256686326,4.479110112719295,5.309158901431688,4.425482804005387,5.259209751837664,13.681190083673382,3.589878750977296
-1.14623992044518,-9.209034969123447,-5.318629623618406,8.624897014865521,-0.9986305281594277,3.992580544017966,3.3727827913330968,1.7983544800588835,4.356093490645103,5.535120205925718,4.749162892537699,3.7812856526759178,11.016637391446286,2.209082021170381
2.243802833147294,-9.411745086441922,-0.8609443494010858,8.910115799536207,-2.913609048199706,3.75030157231153,5.164436625644976,2.989178270918599,3.3887773591856414,6.927851250215415,4.894529623291189,1.731826147047669,6.393348007246106,-1.025725909868734
3.6965984835957086,-9.2952432357844,0.6013997178994059,7.91346356830661,-3.660462276700651,3.5244258838323583,5.910529426572658,3.9153004485358105,2.3148909082097844,8.324037510733094,5.375674485189104,1.0316824001415896,5.200111606507464,-2.0921083048922102
3.994032652997577,-7.625909240232908,-2.541479718797433,5.669603459457385,-3.6080391250585846,3.1460920547577187,5.645734785914243,4.3636576094233845,1.9223240513127824,8.911630759770002,6.481273266405927,2.7197230992453707,8.41884219369672,-0.6482739566471408
2.992864209961268,-8.195593357937883,-4.220240151510806,3.383875290670109,-4.03370053234547,2.673414868193968,5.186186824184026,4.495906948130877,2.694135596528118,8.945997764864119,8.450558066186794,5.583508570953513,11.933588645330053,2.368350587171474
-0.2421535759267311,-11.228459202781652,-8.41356354059566,2.694071358280672,-3.5910858065122047,2.411136650313483,3.198704779653939,4.598030882716385,4.388937745621215,9.000642131553402,11.148451109121083,10.54566487803116,17.305843776608008,8.125534066878284
-0.9073077423867648,-9.517416164362274,-9.715253422229004,4.211348473760355,-3.221079315232185,2.509869913256402,1.8529907354014865,4.58463560367303,5.836526037206447,8.749742658576743,13.575335547062048,11.51057942652922,17.91983406851988,9.75063012645454
0.9542069245668344,-3.4562357052503927,-7.509259149691167,6.77813998738718,-3.040824156594903,2.6617998848623365,0.3771586654142602,3.8812043927019,5.407139312035553,6.898539160099678,14.073193874015033,8.084439097316853,12.874833752844475,6.954797659294871
1.80256279271128,3.850063174550762,-7.671450497567333,8.369123005926179,-1.2120908020937615,2.293584056748175,-2.4992278966184225,1.956857997917651,2.151763383671546,2.576282917919036,11.449316013899796,1.8543213895057515,5.933651513601991,3.3104732264850982
2.5543157700301284,13.870269618740526,-4.2849678476603685,7.962196073821678,0.4795663026926189,1.110147551710721,-4.558032535720001,-0.959624791663181,-3.1786807828198373,-3.269596116657218,6.114060569111241,-8.909831661430479,-4.815568043893744,-2.855040506955503
2.431805334199878,17.321132068473744,-3.1688194673173085,6.602125452163796,0.86836495192627,-0.5285344247964527,-5.982472962398719,-3.759994040369669,-8.24364811234847,-8.143225676660938,0.0688439919499881,-12.898655800308298,-10.261584225420956,-4.925487225742273
0.8819857550405431,13.19500812706509,-4.7881916460443446,6.494921178797403,1.9840937205036933,-1.7635494108488086,-4.797613697499038,-5.181990094471107,-10.540798221902602,-9.911207240536562,-4.405108908103943,-9.507337008223905,-9.542037382956767,-2.1842174512011154
1.9911254527389168,11.820492795622364,-2.648952379967362,8.832662665820614,2.5174768747471754,-1.8252980909089391,-1.4892096637017485,-4.778467331397729,-9.141651037839114,-8.5734738275574,-6.262078091393064,-5.825218499258299,-9.293854192215576,-1.4770080108637829
5.688254681186429,11.147458739988297,-4.058165073342281,12.365661869759316,1.934068866185327,-0.6079883908047314,1.742391719947709,-3.248593325922938,-5.345628117267829,-6.201423661440354,-6.147924810038658,0.858285002879909,-7.238448592039629,-1.3193026605415614
6.997307827821519,11.110060963205449,-5.018950270058286,14.156769014929392,3.165948412365668,1.1871806272038086,3.8252561762585673,-1.854016857071768,-1.7473734396956324,-5.165967494563587,-5.571023981305537,2.2980828858807603,-7.423270097744109,-2.10461010165471
6.487334888846823,13.385517742895283,-3.9103281037725983,11.968900877608776,2.9318732039610294,2.4506567471560974,2.200047350500162,-1.4993097576959666,-0.5139591074091197,-6.352555718572155,-5.680084871298528,-2.7709765005698435,-10.788927842179422,-4.915629619930544
2.999741613059132,11.207253324875415,-6.730497438388631,6.215016693492874,1.0147835341783469,2.3583779819783146,-0.6915444259594067,-2.279470556794088,-2.1700846174459443,-8.839095405928871,-6.663164505772613,-6.40577236881428,-12.349126344797034,-5.222186696650711
-4.660402438983383,4.722555823783314,-7.607595859321783,-0.2316601771233735,1.1304612478217757,0.9141019999492456,-3.4247400318044354,-3.709017707920689,-5.56072975012232,-10.966896573949176,-7.984106686534689,-10.700267163310045,-13.158526553634529,-3.2176649507437545
-7.358382995894063,2.9210163017123087,-6.456377555097948,-4.1829778747398345,0.0466117163718445,-1.038838932084456,-5.445977984855837,-5.162838227796263,-8.699245653420364,-11.60576623032817,-8.935781204151791,-11.67216360159148,-13.001214326845448,-2.169542736199157
-5.134540691752935,4.989484567504647,-4.98055194525763,-4.399936177886213,-0.4145198445226328,-2.386729504814109,-4.224809034674251,-6.038747327074367,-9.82061473453438,-10.668648901713658,-8.990065719251163,-7.934095321321549,-11.099911468828417,-1.30246324065738
-1.4590601648155197,7.693559171983007,-0.7081496321447616,-2.1631931886725955,1.778256546154639,-2.525584411895368,-2.4270950410089256,-5.724251875753575,-8.197529276002037,-8.87739857123988,-7.901224253394671,-4.915891556663208,-9.0679341183667,-0.7894747014886982
5.797330853481388,12.767024078775794,3.983307812068509,0.1095679794254635,1.8954354395939923,-1.7795781193425917,-1.036263726321788,-3.8159068805460894,-4.536240759845935,-7.24526007026109,-5.7828568957151765,-1.363542404123935,-6.615935670436175,-1.1323703146127062
8.49561201366752,13.741229106869689,6.069784192843697,0.8386920232512107,2.10627047952472,-1.1188202078032088,0.1841855824855054,-0.662492844148181,-0.7425488013823909,-6.515479355692781,-3.182606836586196,0.737941228780178,-4.897490964238176,-0.6323066272405697
6.0363565597234015,9.9937645445296,5.106558507656402,0.1901035493097076,3.742556833890221,-1.3834193778022603,-0.9142060497909476,2.3664237236851147,1.093282480560477,-6.6176186657560505,-0.9379598738954388,0.438915902824035,-4.283475406895976,0.586477350065769
4.381252500521315,7.987499421321382,3.208976691865938,-0.6221753025420824,3.618221025035909,-2.64279875236882,-2.562784025352225,3.515929955577212,0.1082472268402803,-6.474745421950836,0.2757417232058277,1.7310727765373652,-3.1597422855893296,1.1939216507466837
1.61510765899925,6.296460535267365,0.2364681998701634,-0.7463203044470692,4.537259772510611,-4.215602449482489,-3.679221887268617,1.952164390254949,-2.535447752458301,-4.641321695979693,0.407253824332475,3.98409124776128,-1.882206924810192,1.4361066517791186
1.250767854452525,5.475327520759137,-0.8744741911400111,-0.4504169245414182,6.23141741195303,-5.303861761242677,-4.903228254909199,-1.381681451985143,-4.340699004530137,-0.6343506806213055,0.0666201269194317,6.016644184558594,-0.6796742683118275,1.579618367233437
4.203601695989092,6.553640316833037,2.8191335522445145,-0.6505711401182852,5.6619579508502085,-5.652446697117625,-4.981888582862701,-4.311996338357481,-3.384137706606606,4.135494549758153,0.0399980382408742,8.424568692511002,0.6574020894090775,1.41313466752753
5.292181803821464,5.938937579728523,6.737010255772213,-1.841898224956684,5.45786760428526,-5.637206842254286,-4.57585152431431,-5.09146481097213,0.0377233106851067,6.994050342405451,0.678782000686498,9.209273596034482,1.1546669380624004,1.7715549725784878
5.403322356225287,3.938745828932551,11.31727668404179,-3.554156772834264,5.546881968064317,-5.727916443456137,-4.724833055284667,-3.752733336643775,3.5088981421287766,6.048755061008762,1.6840326482819945,8.144231283220103,0.7507338769087122,2.706452604602297
4.6674930131893655,2.477309756732112,14.930586271275695,-4.82323914495622,4.218131314665245,-5.868740981913932,-3.9817562911322537,-1.934559040756893,4.400867406385448,1.9608177705975736,2.4394629716109426,7.54239574114787,0.5409836186650165,2.93428208590382
2.191399324452988,0.9669149609376309,13.759530441350456,-5.1212132244313935,3.450509108871477,-5.405341423301037,-2.38377443524076,-1.345602324195493,2.031182053359922,-2.3089178439585494,2.558986991813887,6.978979782923,0.3392577543450429,2.577005158056728
1.4486445469638292,0.0017901378801392,12.390867818275112,-4.779440174174789,2.8259849913302104,-3.679837864169292,-0.6053251455538722,-2.2729121994528105,-1.7580517894574736,-3.782270524674943,2.1697589644974338,7.143456938079722,0.7279707393457189,2.17888937670075
2.3647175387173625,-0.137742841765483,10.794286955451062,-4.534377695450651,0.8083691016326153,-0.7731004631436136,2.359885825696083,-3.444636558152598,-4.072121314151427,-1.8221750006654869,1.7485692770934609,8.503433466464136,1.9655874866016707,1.507551485132063
2.755309310007461,-0.7514037179117303,8.776005174750658,-4.747909037332195,-0.1549594145744929,2.3056023132223897,4.556877038446782,-3.265196579406336,-3.2032074142029408,1.5499242854230897,1.7237910407034729,8.350085870782918,2.069096925158572,1.0807712796845248
3.287161440472964,-1.673311632243326,9.314515040753571,-5.138094856393549,0.0794385576224168,4.227800412706964,5.5035791689344045,-1.2276701755934134,0.2134719042757833,3.617040530585576,2.194587994033747,6.845301596935704,1.1367369161625822,0.9777142139782284
2.6873266473954707,-2.151605176986993,9.363751020470762,-5.247513816359344,-0.3166819025701883,4.305038545003288,6.828447691136681,1.7273419453161294,3.933549604342549,3.3357181849258364,2.928311455505541,5.197716199153775,-0.6359840005052573,0.2540656342341554
0.5884028176062764,-2.3662693778345347,8.411921550218532,-5.083039527582792,0.3425108680710667,3.0184136022283266,7.378865145857208,4.084617734374025,5.909184266607038,1.9424110317446532,3.5315633273440032,2.8851132538503683,-3.71772562510641,-1.00755401408806
-1.4223189591313816,-3.111514086155384,7.522792360663851,-5.222544588474832,1.0194747100020438,1.658623504136676,7.696797556519116,4.96588122619969,5.598872037352246,1.394101316290496,3.613541093911446,1.469517691527639,-4.724070736778399,-1.859422521827797
-3.717689232510576,-4.353035217861355,4.55728070379124,-6.290027288729154,0.5065371273571182,1.334322097378787,7.277566525234287,4.632283672476135,3.879324075462773,2.294026568160646,2.887386681544747,1.1606274857815706,-3.51454325361536,-2.418329241544184
-7.020074764894287,-7.0394090783768295,0.8657994355240706,-8.345106964027245,0.7782442433626294,2.133065131931625,5.715406496044242,3.9953115623665054,1.9700277454982864,3.3256607024238587,1.2865099065804515,-1.7237828015060954,-3.5034075555605857,-3.2506051058906262
-11.18777047283024,-11.479951467427592,-2.5611098120641174,-10.75947455182562,1.0764826054341483,3.116755140950505,4.03700627561655,3.7254069277991215,0.5055591997004019,2.64915171686162,-0.8815834225855745,-7.028638684934679,-4.033413341612331,-4.211292457375908
-13.689531765962824,-13.938435648524468,-5.77165942981106,-12.634909851608354,0.1468580378518507,3.156869666802329,1.751445915410793,3.764235583851801,-0.5243039844964188,-0.1870638135063798,-2.897655013403014,-10.237166383945894,-5.064312982939951,-4.627095820860127
-14.403939908752967,-14.47142024912358,-6.875875268490983,-13.357988834348683,-1.3360409732945937,1.902017940904093,0.7938415437604487,3.543780071167954,-1.2349213591203974,-3.677849104806123,-3.9183688145141815,-11.820088624563418,-7.16915531421658,-4.510399246194366
-13.330182347364484,-13.382554624198598,-7.030843314917287,-12.893641980260274,-3.3385835657271703,0.0451893956081992,0.2964346670829054,2.5760509807097707,-1.4927612683528833,-5.617392712544058,-3.555284054841727,-10.724642814255365,-6.512718867045646,-3.275301772537004
-9.681797821617195,-9.70068839952687,-7.323967948076881,-11.72857184391986,-6.377082260393576,-1.3258993375588108,-1.6470002592195496,0.8726300829427847,-1.137447357548837,-4.916890421187604,-2.33062770085826,-5.8357833076712,-2.9855347309815885,-0.6728728069692403
-7.506740851448612,-7.233043095787292,-6.613594171080882,-10.583624191274197,-7.443300660373063,-1.6689157786926971,-1.7633440225067116,-1.0583355851538934,-0.3985545385677183,-2.286905866423301,-1.4876752260393078,-4.155304371787734,-0.8362944261472252,0.3981363928460565
-6.767315232833642,-5.905469435828163,-5.417724612759304,-10.01926265612772,-5.755109676275778,-1.3168500211523133,-1.8940574170648488,-2.5134331759765143,0.1207878969598492,0.6997364525875819,-2.0786564694497827,-5.494069313061894,0.6104339342539147,-0.0547601240666798
-6.800950887385665,-4.444536639805118,-4.209530116646874,-10.058195328998082,-3.993646732415197,-0.9121439056404628,-3.2733832894575263,-2.947365167395495,-0.0156671568890305,3.0667509687372307,-3.9801568687718,-6.57860189692872,0.8579972532424557,-0.6275322210849292
-8.618176107310086,-3.7010278087070514,-1.3444019447173403,-10.049519174017115,-0.551497246291144,-0.5902072403791958,-1.9536801350838693,-2.233298011535129,-0.5967329320133475,4.929028040260617,-5.781751011669356,-8.878447050976616,-0.9472273394720429,-1.9737068614519395
-9.019650680131884,-2.708507728596788,-0.2486089353828665,-8.995444332639464,1.6656568350529763,0.1564169858741398,-1.903542150582336,-0.7625411771657888,-0.9299678081834812,6.667151750598858,-5.880296234787644,-9.000688250116623,-0.9132733962738664,-2.4973843240477507
-8.064658440146191,-1.4918214193404111,-3.548897573982771,-6.2606950706062445,0.7336304773029868,1.7323542353678854,-3.2745150852905027,0.6969588093968158,-0.5380700619675414,7.866409777511698,-3.969228018856449,-6.506536386410314,0.7652575062411908,-2.0125175905983177
-6.253799689463582,-0.7659666854659157,-6.724467387898572,-2.175364597569959,0.729342715084562,3.63345080252558,-2.148487391711514,1.4041472246924902,0.3438873524132101,7.350259664006817,-1.5328245734511328,-5.838335227446801,1.5245471296501028,-2.5971168255365424
-2.82072970066467,-0.3865327367381566,-11.518812580986634,2.019636172271065,-0.1885175047765839,4.5878322833827045,-2.838118488562116,1.1063731673261388,1.007423658051742,4.433717185927433,-0.6935198274182856,-6.31817321235723,2.043056339154789,-3.9410026447767694
-1.1909641214861866,-0.4436064455620985,-14.71590152741601,4.952379609179528,-1.203723558149433,3.687060948916873,-3.1980288158407992,0.1976626054887406,0.987227941416938,0.1110700897468169,-2.307676109686634,-6.258032670702571,1.6921109594929504,-4.655373115676376
-1.4232880069575768,-1.0659664491167715,-10.760696749069798,6.04859206424594,-0.3571541055043008,1.4083025704650187,-0.6410509669994474,-0.6061335060714721,0.4952924761083914,-3.221199130377949,-5.079847988272299,-6.324467112771636,0.0652428927730131,-4.995184179618198
-1.1289368894154923,-0.8447564868835555,-6.449730615277764,5.85428876489287,-0.6426932329196734,-0.6194583593179132,0.4642330386108015,-0.8214207867715378,0.1539747580502944,-3.52775780574599,-6.649792913873148,-3.557153920364597,0.8431097263681882,-4.252883450987734
-1.0219704625137165,0.2729447384825678,-1.311498459375119,5.49991568557839,-1.0273304465189983,-1.0270817551371645,2.5738024837508897,-0.4925592695198375,0.3767211665212322,-0.8727111212356071,-5.733507017253988,2.47353024774787,4.027462998480811,-2.096897087385921
0.0448400596703107,1.3186489728937911,3.980899806400034,5.797169541972238,-0.7459600427974272,0.0529872268520605,5.172005565940683,0.0024434726738213,1.0671369435944769,2.5119080985984006,-3.290051677148952,5.603486383853356,6.257473015402315,-0.8274982949838268
2.450235578613753,2.6124430961815643,4.028880045450128,6.745811442268181,-1.1263078174986014,1.1928728608337682,4.6369787301439525,0.3784818357288273,1.8738089708574428,4.0045006249864485,-1.5384599936588543,6.24366892665512,8.202797002215824,-0.3054430834377127
3.075232155760994,2.866561065853652,3.898696499856072,7.796658648807018,-1.03839581136516,1.1658202399721276,4.463466775657402,0.655353645313868,2.609613822129436,2.69584931032728,-1.7351946997556524,5.569256611505368,8.101548111827825,0.1680821756228572
2.1040175294405947,1.8615527201931057,4.813656054984454,8.491879476999301,-0.6428970480534674,0.2254628593502445,4.419664414195826,1.0063213771691544,3.338301460153968,-0.0263865740116422,-2.8903515669015576,2.224874861743152,5.210876875950773,0.1139070626253124
1.4879224853390454,0.8107403489373054,2.8960450756341163,8.794355990039119,-1.292586860546237,-0.1709718004489744,2.926133147210112,1.4905055445727982,4.097878244823011,-1.876551489447266,-2.73770032299835,1.2684791199409644,3.542311975229037,0.2119608252961277
0.67466152822508,-0.6329441859835604,-0.5649447759629386,8.819657977485086,-2.070293143126655,1.0418441333409376,2.312590383717272,1.9716688779395175,4.66444609196639,-1.7290913126226748,-0.0795701365130696,2.7964957037695903,2.6212746855507625,0.4615298891779357
0.9770846096891443,-2.862449042630985,-4.4639460059127725,8.381263519650265,-3.0560410093012784,3.2459341871844973,1.6037852901828835,2.242991492779097,4.681280070812523,-0.4603664644922816,3.765692408573706,3.012221381887446,1.4630547838749322,-0.0063465865210186
2.771619058367233,-5.78563752347211,-11.6986570094638,7.003966149808562,-4.904853645050376,4.5260333720406205,-0.6599374588517892,2.159991613624797,4.029328185361743,0.1276867645054977,5.895664182797816,2.937450947873625,0.7876338134195999,-1.1126806559224771
3.607548148463831,-7.261783456211825,-15.09974644782427,4.541755393372409,-5.514088905351158,3.435546817836805,-2.283585927539861,1.6714080498698358,3.0350996673567536,-0.7984475992713591,4.388564002567026,2.4592853347389765,0.2008585226093571,-1.6002021524762544
3.7904632083899306,-7.144269760784951,-9.96684898727354,1.76079383284943,-5.844805711101769,0.4288858165257068,-3.1576276304316484,0.8292137789472278,2.273294023602581,-2.246705462787869,0.1907766457482296,1.0874334031604562,-0.225486378302245,-1.5384298889751762
3.924290139266106,-5.723959263953233,-4.999392738778642,0.0953702649326651,-6.702043374602285,-2.47149701066936,-4.931780626729016,-0.1444985095978026,2.111919994286289,-2.42364933336286,-3.4245010758527386,1.6183568635850445,0.5909234901751239,-0.436145391197568
3.574793396032664,-2.341954349906412,3.153187930195445,0.5562747140896693,-6.204524364260461,-3.480311530480659,-6.171209404904583,-0.8409130973655863,2.3811660748145727,-0.642172020956659,-3.432717191056934,4.07557836069818,2.7249010060000147,2.074158064763063
3.632870483862783,-0.4773942842159947,8.886272767160511,2.7494138026589834,-5.8693827708809545,-2.587685365010943,-5.962612151032668,-0.8581520264416298,2.4527297089946103,1.7987842290930995,0.5008032080695362,4.869566432778511,3.5231671769326107,3.0789700860788964
4.126164590957721,-0.1875121068021886,3.281178392707972,5.048211274277577,-4.561431143805793,-1.368274746368073,-5.5660962016811135,-0.1460395694551515,1.7058545088929336,2.7200800359659425,5.7345503450375,4.406773484558238,3.0624332209640324,2.622704485451806
3.83360167025848,0.1056714473635997,-2.007700203563324,5.909811173654349,-1.362644440580571,-1.3168100871586024,-4.334943712330111,0.8121693587684362,0.0524072566445497,1.1523336180510455,8.680420949593838,2.520269183322428,1.8589271849020967,1.1214562688381624
2.8753922043677598,-0.4144701031436784,-8.384544666079748,5.137619284454911,1.3379108655498058,-2.404092857688396,-1.5281316744113609,1.2395332870816542,-1.8949611397869823,-1.6320316931801455,7.426093829882527,-1.5819423025468462,-0.731891922518768,-2.157634904654705
2.383712379974563,-0.233568262433357,-13.117348201372833,3.8690721975735816,3.302737789850724,-3.2646314441463167,-0.0186000364569593,0.6273338292139758,-3.1965773624916025,-3.201639125779331,2.9086439217519846,-2.539217162974813,-1.6925948605804109,-2.535953564088365
2.202131604703327,0.7788661369207193,-7.631181557456952,3.3372299244681187,3.591970106560813,-2.735318346352573,0.7786897896647054,-0.808035480198769,-3.248444195191319,-2.138370803590452,-2.040289591593164,-0.2796441157182155,-0.9317439040006248,0.168958368058448
2.12671627517419,0.990391866512922,-1.3696806926761624,3.7138818495883497,2.4516880832119354,-1.104010823800544,2.8267059145112805,-2.164826626258925,-2.1928608087346904,0.7997026301766175,-4.748679402591406,1.8195520887021543,-0.5248902367323951,3.32163210698018
2.37062935225314,0.6949736104903964,5.501871422388004,4.21094217701702,1.3725958263030087,0.2157437416325871,3.790419729810513,-2.4195334451133705,-0.7227404759250442,3.573480704566204,-4.226231943392446,4.920252883385577,0.1839269043931571,8.034598323927984
2.127163376862782,0.1484558477745348,10.22555589487569,4.202017241661972,0.7635050240931528,0.1917845170034606,4.258784509704836,-1.1411236085506609,0.516815984905822,4.78341371044537,-1.2992198398522934,5.321063564464993,0.2149794870175354,9.445570653304172
1.3704094049338198,-0.9074508099538364,8.169169063559231,3.987738646370847,0.9277754455871444,-0.7611337968055736,4.763168206250994,1.1493269075378727,1.3420670753332349,4.654575648219264,2.2903525690128266,2.3588546171414344,-0.7369359294813602,6.9571032612935015
1.5610827203875852,-0.6839147253949832,6.190465424564687,4.265137098181423,1.193389081353564,-1.2823188801563423,3.561357554675884,3.252591160939076,1.8893771067762728,4.263429138081492,4.93054627902848,0.8667939919047712,-0.5573981388100688,5.262669787196132
2.618094335193448,0.9412272609049644,2.602626822876537,4.907452254827367,1.0978322930412756,-0.5726807577101276,1.9878043585251115,4.038161850302117,2.162622409994796,4.075263008506642,5.757243337794701,-0.0215037983490965,0.5522956664400522,3.1907937976690657
3.017006386245369,1.8037561735615055,0.1538339400609417,4.572630374755189,0.9874075368984028,0.721918725267134,1.3023395190033664,3.152710659841002,1.8427660403801236,3.454595641670341,4.80848033219873,-1.6678746616023803,0.8093576148331121,1.7540459116429512
2.9635412308742763,2.2408865177426778,-0.0139880848212119,1.8424039657963045,0.957393953030784,1.2075584071201677,0.1511334181921005,1.1909291982316574,0.6114603613302769,1.584050306466061,2.85801183794635,-3.3802850905109474,0.4950298568824329,1.67866171255761
1.8518561252956305,1.6961782481460237,-3.189501372787684,-3.120857767473927,1.0069377509386828,0.2763716603443136,-1.147445786884692,-0.7753516052418199,-1.3711407829900215,-1.3422300646501313,0.9813317223748276,-6.707802711192912,-0.2622308102970738,-0.1937663936211788
-0.694772817137077,-0.2972727349091186,-5.192593594637903,-8.151424429727772,1.2847784408158247,-1.1706358553928755,-2.081550797653508,-1.9310590537330583,-3.392991519039045,-3.988392431805488,-0.0381976716173326,-11.83735524707937,-1.798551894779261,-3.543765462227651
-1.2677801198359606,-0.0127678357329146,-6.404144303085223,-10.538528770678706,1.369167296336769,-1.622153836720262,-3.4670068805475687,-2.1792026614586284,-4.655741611397993,-4.93459850929202,-0.1257393893211755,-12.731809152634328,-1.7902037980935923,-4.744335191233553
0.1082065893882019,2.5262962231426584,-7.770152395680505,-9.160431709446147,1.240954724421672,-0.582871063143946,-3.6738557673440257,-2.068704936846256,-4.8543689147049385,-3.861355178817039,0.1958194975586682,-9.27940892132142,-0.1407066401794897,-4.093207136640392
1.7388328452728157,4.5732487439740535,-5.972349884353653,-5.372949304860642,1.2547539919685102,0.7496186254281323,-2.9363878102456726,-2.3436581428405443,-4.348125057321648,-1.822069334709365,0.3735828539618566,-5.767298096798212,0.6093369988291699,-2.860499193748367
4.375226073891542,6.856765648272211,-4.2986026941242494,-1.8591303717632053,1.087939041482973,0.5089105706273536,-2.690394841405347,-3.447680085399581,-3.811209438283712,-0.5049721446964455,0.322617690713308,-0.8867822283373403,0.8903361332166574,-0.3138292932179383
5.346006186549416,8.078605153294705,-2.127514728861103,-0.4865092754680873,1.5862059798351835,-2.042555187635392,-1.9999310424196908,-5.209771107070091,-3.70259989168229,-1.1348509533550963,0.3921444130437823,1.8395354063880325,1.0269516542882893,0.8366882518344595
4.327798580456669,7.748561149057445,4.164005598752488,-1.0162616442793642,2.930962365251442,-5.62728338817297,-1.8535562592204788,-6.804987150772835,-3.968633213496743,-3.679227866726981,0.9070917832723956,1.5970472494913812,0.5892787420478406,0.3595362056031932
4.524795756745204,9.80209121738858,11.053369185834176,-1.6298487461157125,4.302102672656718,-7.808383352033019,-2.378920860875417,-7.072343556962373,-4.140142141513451,-6.698671281577379,1.8162824653954777,3.789248161121058,1.9706248968847384,0.9535695138141304
5.366979678055521,14.033753828749289,19.52116052134668,-0.640566268588735,6.410993884366871,-6.843577993541167,-1.8918528722600207,-5.209460056519493,-3.708122523210177,-7.978140696728724,2.7764179361835417,7.579010830228791,5.2830905954258,2.037407921360208
5.115415846773809,14.782392187921143,25.09133939438373,2.106477141127135,7.476245361524892,-2.97841110952162,-1.473113221658282,-1.546211295060818,-2.531631820831912,-5.8532283707626185,3.4611670394533967,8.968334643634817,6.0646036018664455,2.5902594777962165
4.150668199469613,12.43039782672431,21.29681738069109,5.169284157475966,6.756028579883385,1.7973294680578995,-1.2502091947360912,2.2462165415307176,-1.0273059880390392,-0.6133820901119016,3.694116909388857,8.547738633126786,4.5719213627072754,2.922486637964984
1.3303085645602666,7.70526619449134,15.760436945177196,6.622834397002386,6.123586679321641,5.194146605461576,-0.133032105390637,4.001606290189507,0.0209894683229627,5.1225067791468994,3.3622651780760577,6.706389230313536,1.6972416356666225,2.478585881490239
-3.760608152776339,-0.6987677008301223,7.722016579200728,5.388716503676816,4.454982120344248,6.07460095958195,0.5655887788850729,2.627034419327547,-0.0181779050619681,7.795136809009659,2.429425942900494,2.6602479880652807,-3.5686682840200703,1.0650723215539075
-4.692281541434571,-3.2991287314782545,2.694228605177485,1.8919830470842776,3.695825566237038,4.919355770131826,1.424589135504975,-0.7874063753002964,-1.095728677225086,5.43312769858797,1.1935728454729109,2.0203827188656915,-5.262070630897622,1.1211887378419991
-1.3427536608760535,0.3573416194461701,7.993900186760394,-2.1964184170848373,4.805310956876566,3.200433524672452,3.633334801326922,-3.431543190214345,-2.366429755322443,-0.5681689087816082,0.4367873844363643,5.053602731496115,-3.0824253092094347,2.645986379931305
2.687753593972041,3.751519422081842,13.020397383323845,-4.812191308326174,5.300360949092373,2.308027938382004,5.6716655215148535,-2.7288480134461714,-2.6637751349358645,-6.078991728709724,1.0342565066126852,7.363844671536746,-1.0692830055871363,4.709962175411196
8.884206008791761,9.072862403693122,19.463781545331443,-4.475359921128419,6.642065620098487,2.788640889146535,8.055725948869773,1.666715453602471,-1.2866282312803463,-7.096272170600056,3.18079967055559,10.18994510548309,2.160775002260694,7.892781462245438
10.584029211125744,9.93074590937258,23.21160660508637,-1.030201128612827,6.492465145532032,4.234409005514934,9.153477384907026,7.493322604420612,1.460430953161172,-2.7085158571104917,6.0059179781242165,11.231828507819078,3.1891089112053423,9.497642247370912
6.943259672852524,5.1067895937134695,17.170636497712355,4.133362443174258,3.802517846156372,5.677896727754888,6.75942201161249,11.500850200059528,4.3779362694013,4.20046760596496,8.143043022637741,9.737436502493711,1.3326221937999656,9.31657285437248
4.226697926438897,1.5822690211268562,11.625914797486727,8.59045678425999,1.5660294959555232,6.144960816685455,3.5567504262960097,11.748218094449156,6.074525039274239,9.092114556808015,8.852215458564036,9.17408791897691,0.4330170171926096,8.605046004103794
0.7957367839943496,-2.312464792734838,4.333832165454993,10.062458766593489,-2.360519834134099,5.102363868336116,-0.9240260512015276,8.714274822184104,5.798525023747809,9.052542212530168,8.589813476907134,8.881029229788693,-0.3999629391175311,6.643253028957135
-1.8352646701622235,-4.808022186146937,-3.071088004265425,7.70946094583061,-4.930003225057838,2.691257339063066,-4.153029934012893,4.479262740102401,3.8711496988370255,4.675903814711619,8.361963031621986,7.494280738621389,-1.1046575461944144,4.669827082162228
-2.7250537832395603,-4.770687266086777,-4.298377977702913,2.666060778396991,-4.570379293905142,-0.3036632214296304,-3.543865788010719,0.9446886108765096,1.4717104232133806,-0.7217912580038099,8.455386630137738,5.435400985380992,-1.1353831264622158,2.7446208656856705
-5.034060297767998,-5.818083665792972,-7.266042615773439,-2.68648480559736,-5.369208326101244,-2.779342289707889,-3.1182497455846843,-1.254889026341468,-0.07051234647267,-3.670463564549815,7.904018706205324,1.796815409037193,-2.052387707686692,0.8705330419842713
-8.20100634071184,-7.25605683016387,-10.913356978246,-6.276840011374155,-4.607087042477002,-3.85132153185876,-1.9561369050395183,-2.4133494442743157,-0.0361252370002773,-2.797388044491626,5.407920102138231,-3.6877774198707134,-3.72869023553591,-0.6033850997431592
-9.412284573417123,-7.408294070885774,-12.973184163704843,-7.55447016369405,-3.534277189227601,-3.328946334834733,-0.8026618130287747,-2.752340679702339,1.3231371934703038,0.739661345272502,0.8976057992496429,-7.797597521725065,-4.894779396770249,-2.967985737894541
-8.902117856432307,-6.669794923967343,-17.551416304851873,-7.425327313145598,-4.044615069796313,-1.7949200568078485,-1.464001192588119,-2.049885392225251,3.0102189972105844,4.503827952270644,-3.913228982946297,-10.588402325357178,-5.760476439047446,-6.1534957572379945
-8.978432087320376,-5.520727314707822,-21.787552309095645,-7.093242419042622,-2.713430542653689,-0.1948467621325047,-1.0956030699675805,-0.2763049111109108,3.913879971746649,6.426997143045504,-6.81972869288392,-12.807422006021232,-6.080032474793634,-10.404723412675397
-9.196672395253325,-3.733265343208783,-24.317594171796117,-6.9515384969376415,-1.2291562220583774,0.7677754643713826,-0.3974157639728891,1.6649562604452357,3.433470857254973,5.710413564168431,-7.24703310995071,-13.671433179822548,-5.585582223238557,-16.05340483557259
-9.836017414709191,-3.5467260264551737,-26.712281712767997,-6.528793037534685,-1.053176004239056,0.965119438168954,-0.2996953561551591,2.205519810793837,1.7344765819089774,2.7847452107045,-7.121193586363378,-14.422768463975036,-6.178343692381349,-17.695530985129725
-11.330349983900694,-5.214639140037,-27.490022575476445,-5.385837432975052,-0.7958910877260837,0.6971865093064293,-0.1809253120227071,0.3844230224010463,-0.4577100829672753,-1.1918527160284142,-9.34937557746291,-14.954943717171547,-7.841901049350061,-15.02957601972529
-11.370911541807848,-6.105313895675379,-26.56600594432338,-3.910959967185248,-1.1262658631820024,0.3041376038699717,-0.5563547980653082,-3.098642112136856,-2.3365349314484414,-4.884267282371396,-15.019465917718096,-16.073696288125678,-10.61645977498946,-12.69834796464851
-10.025441599532131,-6.710638478552995,-25.054160734527606,-3.131092872071328,-2.226325689504161,-0.0460352677870439,-1.2119361422739312,-6.223550407095063,-3.449466562621525,-7.306861562600032,-21.87034089373501,-18.113968945592667,-15.0182132354007,-9.505930850642264
-8.39665882215578,-6.344567788474744,-20.71218991219997,-3.726330134159358,-2.510131849219994,-0.2629473584312602,-1.3215734795840464,-7.218516309166393,-3.838744715036461,-8.257614578913845,-25.675457891957837,-17.07150120030163,-15.063770055877182,-7.245078799884119
-6.008510057130942,-4.489879756664057,-12.328237349604557,-5.267296385565516,-2.4283475238122185,-0.198398064544035,-0.9114287761169252,-5.946062467995937,-3.8373770233383553,-8.341062686647364,-23.57334574001727,-12.946458225645568,-10.442184944101228,-6.7077828846572976
-2.637043888709208,-3.3760978460802917,-1.5455566440699329,-6.452620703918388,-2.8171147231579807,0.2451480611400711,-0.369475550814337,-3.8420861553495302,-3.702148119736954,-8.35614610861338,-16.47863885848323,-7.142653937230931,-4.453009650145091,-2.5994537382137723
1.6996119114672097,-2.767751148226111,12.453454544235738,-6.11607409811954,-2.842228449894152,0.8653400908762912,0.3753180613645528,-2.5405804181462117,-3.393110626566928,-8.430654155745476,-8.400108405380717,1.3040512434986895,4.397475487176807,4.724912596166993
4.920644090291835,-1.731548338926319,21.78006214127293,-4.062386401054049,-2.856427960974889,1.1686414857767584,0.8503172000451029,-2.52460811385868,-2.702578517699729,-7.743303273500494,-3.2394664148532843,5.789925326257189,8.52796452299561,8.226543340344486
6.886302172654757,-0.6392415187201499,23.590422290630453,-1.0476736628698775,-2.785869394834505,0.8048815366039168,1.1526690435750753,-2.98626959684077,-1.6129686817167368,-5.273729763615673,-1.8838465562442896,5.791009043694925,7.098022349484623,8.428408418692788
8.371547169196766,1.7526277314671026,24.764211126547035,1.9166375295283071,-2.3351411067222414,0.0339463785294658,1.652084939684976,-2.8181746446768496,-0.4987715589700485,-0.986030192088533,-2.0365865337723665,7.992955644986209,7.365745003323354,7.59616331651828
8.79145075827127,5.632867588590741,21.701323905645545,4.198433679510574,-1.917565461149373,-0.3696476475562118,1.9586810844334963,-1.6423571475108822,0.1165281690391779,3.7226650532418297,-0.6725896353561573,10.975547006077644,7.539261219142861,4.268919480019614
9.1360299103359,6.810470994612864,18.618877006795994,5.616062984199328,-1.3175371545545274,0.1449358211858271,2.1701113234707576,0.0383284451271919,0.0845577839839304,6.869070664502987,3.2572736364714068,13.181091128771858,8.29435389263102,3.5039209177247668
9.384715118382918,5.293717110336297,16.299306417117478,6.113792243304008,-1.1278234191767742,1.200467736310257,2.025428937670765,1.4728275789049938,-0.0914420798621122,7.3456410854457665,8.176470115735759,15.492052868205048,10.67756378519621,5.64863081229321
8.654407809275144,2.384239785765006,8.858364235000142,5.578363628846804,-0.9874531247752804,1.6324279708263667,1.436465520578758,2.2956377807221973,0.4057871495958078,5.718540762603979,11.514111475185835,14.687211338459132,10.687090580213546,6.029247112547352
7.0935039578229775,-2.9471390148027736,0.5190280159343531,4.0665269655358856,-0.3744840425165695,0.5169325335554404,0.8157984222825265,2.6238262807780828,1.9910779757879933,3.725696208410348,11.904359638718333,10.435670772902435,8.615189689123266,5.715404751676954
5.62732840760928,-4.650244209564191,-5.933086746870778,2.157548450569827,-0.7387727662386634,-1.8323114304748245,0.3151024943363886,2.7807629292269134,4.244441539162871,3.011658888152482,10.113767954925637,8.786845378307694,7.979356527988748,5.620135624926331
4.186898070884235,-2.3235008646437074,-7.513278778340188,0.9099250663616728,-0.9884912880651846,-3.937868113057572,0.1877997849316268,3.0932838506610985,6.187943671284042,4.16102072409856,8.248960415436969,9.31097218302508,8.233028824822963,5.151348996630018
3.435449483206915,0.3157385191177784,-6.293331660137106,1.251374529907455,-0.9151414490695852,-4.383552561791735,0.1450174462772589,3.866277255024993,7.004859832678374,6.591521348044182,8.155494961769215,10.16086819595571,8.632060082860592,5.467148138814487
3.6685049442163336,4.765029032879913,-5.195982088250776,3.229706711553078,-2.147037350958958,-3.115962540035234,0.0128181064274412,5.262766370998069,6.522030825688013,9.054083316000613,10.18449170873954,12.584355860510485,9.789061114593666,6.654573193249203
3.256508705518741,5.624431906914411,-2.8943096982955816,5.805279987044568,-2.164984499193046,-1.5687197891002498,-0.1594219312638692,6.978573421458552,5.082364610136214,10.210594617632603,12.936778010245916,11.847264295536403,9.4541575812833,5.642706647971969
2.3832950579043115,2.167108364349386,-3.063420543033873,7.474958387695523,-1.7923132454884378,-1.4098734298329845,-0.7125880555549133,8.07366918272043,3.0931688052161235,9.081592357751951,14.006480032065731,7.635633675672615,7.511108509599506,2.4629806651898067
-0.5304071147453516,-1.4748202319734915,-3.590251247273266,7.298601853429993,-2.484023444656005,-3.0228134197436702,-1.354646554421703,7.399519967821682,0.8076676445237467,5.457338204401786,11.408739417478367,2.4687610944776543,4.862066908902879,-1.739636357730712
-5.986187773999302,-6.737635125663796,-0.194640028349928,5.510164488020376,-1.605250720715484,-5.122017431342254,-1.869924388425465,4.485588833331928,-1.497302427559713,0.2232731676512038,5.049386053894121,-4.844749693151746,0.9301573607639662,-7.687475850909152
-7.462323616928691,-7.721890608859557,1.4699959397106332,3.235797007523324,-0.8385328075886154,-5.864107447860548,-2.2991658546574936,0.1301948794738692,-3.327192063896433,-4.754716604356005,-2.715085496961993,-8.021744521399638,-1.0108088649926523,-9.999985653588247
-5.008498247372121,-3.512908266505664,2.6706019182790914,1.6201328475983807,0.2203286632811157,-4.42845537540687,-2.2261186579521968,-3.941579063984648,-4.162574198908768,-7.439820317403178,-8.144914523633286,-6.4021677641954815,-0.7049453573318571,-8.212427880982418
-0.9274826717189972,0.6254112494814905,6.5529826123092665,1.1366805554329638,3.134117663141353,-1.6405718031457326,-1.8677796941715283,-6.158522421360384,-3.9177481675069146,-6.8009107914379925,-8.462866127316406,-5.411642517589102,0.6633852436304043,-5.984136762003133
6.32316495193876,6.263032502227083,7.853972748955204,1.5805474032324156,5.4191928627099495,0.843574050786426,-1.5154131808225515,-6.039237566252499,-3.1222661924676665,-3.532019726859289,-3.922216974565551,-3.523085026045987,4.0107537153189226,-1.949433297194104
7.4475511219657,7.563231680504994,7.551768775496846,2.5185514434208613,6.733206636339559,1.933766920305679,-1.5795297140907212,-4.275295301552273,-2.513654714357731,0.3129457785452132,2.096209957877217,-3.9521728693622062,4.277340433252209,-0.784365851927529
1.7197862695007622,3.384940516474409,5.815916413385464,3.5780380668852843,6.700378199140917,1.783166500829232,-2.3758521371848547,-2.074232899473621,-2.3841555557519385,2.5796575498643115,5.282125245919833,-7.651756365653639,1.1443594163277542,-3.197282084991272
-3.063172627755405,0.0595625056203261,0.6576092779067837,4.298896638812039,5.077293982592748,1.2708849935385975,-3.367878836757315,-0.4433289346046116,-2.354404308810196,2.2523418338745707,3.358066436033777,-8.750362496756788,-2.7463738787845733,-4.772114054715476
-9.051506248610714,-3.978347154853523,-5.37163452826723,3.929088579270005,3.2698650712072226,0.9934914509073812,-4.6490228077872064,0.0954092904425252,-1.8370048688434508,-0.1979889120649147,-2.43333492500507,-8.019582441049588,-8.683055968181057,-6.708214488150803
-12.588785143373295,-6.979057017398127,-9.876557568146517,1.7125732736441144,0.8653556764663083,0.8156588538704916,-5.427760464904422,-0.5596529730670774,-0.7312304369640152,-3.4670391603812014,-8.434981323130593,-9.697642301399858,-12.629876450025424,-9.53179423132044
-12.36947537635582,-7.930329316010808,-12.245501558953135,-2.363184236424445,-2.6289346030778376,0.2920676846715224,-5.2362670499036135,-2.1832379306826653,0.3555175747067274,-6.406515685371984,-11.36862835203442,-13.056353520839032,-14.179137274611785,-12.773884638477844
-14.674386544244973,-10.199227596376314,-14.454095992980143,-7.097280175751285,-6.52198391827901,-0.6705357325696113,-5.1784787461482935,-4.273320511552814,0.5658405790569958,-8.557380461627442,-10.660646757793211,-18.196877962833376,-16.037913189122857,-17.18910488168329
-18.47784184209196,-13.135815117952408,-16.766706163773797,-10.586705107824852,-11.821577771075674,-1.6846361911145618,-4.74386215325505,-6.234821870844536,-0.5455801420280189,-9.97826212024207,-8.615363759922795,-25.939631964790653,-17.178585929311442,-22.790557126009556
-19.303181352384986,-13.520634121135044,-17.513439070970364,-11.54204064316905,-14.234782256344506,-2.3403379635717982,-3.821969086478013,-7.706444424594501,-2.756694038640012,-10.75631600167463,-8.446938286417318,-27.232563396156447,-17.589525807505066,-23.9560962550914
-17.807829677952206,-11.55031171362133,-17.72325307304042,-10.332876490106814,-10.961452236284115,-2.6096777093685883,-3.117792325991726,-8.707310123963145,-5.4270301579965885,-10.753615670841013,-11.727384470361478,-21.60674454863338,-17.424668852965677,-20.304774858174067
-15.383978581521845,-9.769382796106298,-17.28531900961466,-8.738719933906028,-6.746659574132417,-2.676652550514504,-1.8448868988884493,-9.337840959487568,-7.825827496324118,-9.78540915772602,-17.118465542223426,-16.339624664665028,-16.450731703475668,-16.474918093132583
-11.245941031132665,-7.618190002973712,-14.21401101380751,-8.466050258295043,0.3069693318829628,-2.4272537034754205,0.0461400847066235,-9.290552633803468,-9.186192433857814,-7.96863637485818,-21.238833152550413,-9.409344856539755,-14.680961544180544,-11.14895610185046
-8.909001180462505,-5.856205334117793,-12.0669607335788,-9.65124028565624,5.2946822489770975,-1.3157151855086262,1.142120786006581,-7.796012132397324,-8.665816063902012,-5.836127007064575,-20.997622320438325,-5.286871224217002,-12.75064414716529,-6.871020862184086
-8.707968391478053,-4.965797313650039,-11.303489778724508,-10.69562157964594,3.962759447402875,1.0564510918622183,1.9298019760272571,-4.288424500040842,-5.66228726263387,-4.053103390204129,-15.748711797309284,-5.300741357430869,-10.674315892124474,-4.436148761389404
-6.31515469365213,-1.6162151374549365,-8.11825979633514,-9.664113882501455,3.661537573983229,4.162392575104258,2.9989272896278134,0.7385822102170589,-0.5048079592478167,-2.938180895735456,-7.785792797935205,-1.5704613140919064,-8.537708785023357,0.1443196475202206
-2.426780721227638,4.0728032340973455,-5.659872481996791,-6.071956851575852,2.1978763770119127,6.464258142603148,3.3271636187011864,5.608241144896073,5.146346787554382,-2.1778604414383445,-0.844957432353949,4.795258124313168,-6.536894528518637,6.173887867692611
1.2097243062152452,7.703496408235382,-3.0534547429057795,-1.4547142524881336,1.136648931400935,6.353405714562431,3.903700150399824,8.421901626569278,8.924484537760106,-1.0049558590904812,2.360248760397182,8.968468749327377,-4.732669849571316,10.990121084056549
5.216951444289088,9.667776560182812,3.0625330171932714,1.8720632339212244,3.649225067205449,3.4643122043556307,4.74325250691459,8.405410993517432,9.27637912543766,1.223701047006129,1.8717098815924815,11.9711094429771,-3.2678554906947856,15.004922323260166
8.65706586766878,11.050927428229016,8.671942133138705,2.8286133760759924,4.787950697425711,-0.7570069126969674,4.75984537590134,6.464989809577622,6.72074934567955,4.436271381190853,0.2792928600061692,13.611310435332562,0.3490523849747313,20.23033468602149
11.266027524506748,10.948063875404769,14.52537802453006,2.536494362894341,6.0748140223582165,-3.823459289832085,5.002019066007093,4.424326729062656,3.6208802009711913,7.703000207285253,0.7302277008829066,13.045790756618972,6.266965476881389,26.328903918766567
13.591699576832688,11.162519905724327,19.57241369552686,3.2620561356905817,6.766464379040661,-3.846014779333775,4.9569015415872455,3.598234041048308,2.427618801032871,9.727841330099585,4.611289916309499,13.63189576512049,10.273261022518396,28.59983616689707
15.305239421107231,11.686535141565589,18.698173620330124,6.197232413741634,5.744568479066516,-0.8596982234943198,4.097092091741193,3.9393729205817607,3.7714934127580406,9.688772939611956,10.612621416488878,15.22739570522719,12.712140414844548,26.9506098321352
17.22390076121264,11.454790983473828,15.984757914756958,10.105717416951382,5.394326276458181,3.142759024629271,3.37033175645432,4.420006988188952,6.046680480679541,7.820571943206961,15.81924230055276,15.905198859080828,13.47454419970167,21.97942795575055
19.385913692856025,10.817841568618563,12.489664003019843,12.194470331997817,3.777934300209539,5.517265485732004,2.075417155846783,4.156103225827224,6.869791846990786,5.265834602818966,17.891944407181434,16.289563316367822,11.569773573752316,12.359893982733276
19.750437261715497,10.557347809272231,9.716204038431796,10.559623073410696,3.4690532830356267,4.714100273455252,0.992060657888205,3.1673243439639904,5.123365900982655,3.2662151722592583,16.588741160635074,15.687600001330642,11.383642752907653,7.746113740981687
18.343513847570165,10.654270143885316,11.26974817713462,6.029928482687112,4.858720731725188,1.2607788109803124,0.9788707332860104,2.1436321149077315,1.7943890194593235,2.3165537200443183,13.546957068516164,13.836478260104183,12.787778357672954,8.538991785219796
15.531527398492582,10.481447020399871,12.833846521955806,1.6799698278167483,4.871669834943163,-2.679744416378817,0.7208074956067766,1.616265305358752,-1.0305850585060483,1.9757731730393573,10.785070524946129,10.34402191216053,13.750227272288422,8.993348589040789
10.795865389342348,10.19903032389986,14.10049360217793,0.3669195206466753,6.791442114600414,-4.838526578949839,0.7697206440661984,1.4593479069690076,-1.9635050523093296,1.4909090419343087,9.36665449982636,4.854160104004263,15.174303218843177,11.39570866220279
8.870743468805063,10.149475186287606,14.471132210324567,2.4482183346997246,6.9842545405190055,-4.352837887128317,1.3555615675287975,1.194728077661857,-1.2463422771401156,0.6572742950830772,9.232238146287806,2.620546702413004,15.473132436857696,11.562523142805018
10.051734574218138,10.282428627764222,11.999962896638396,5.660927804476614,3.545859852277703,-2.176233746011853,1.758101642867067,0.6708084539805697,-0.1357866034402306,0.0767944708744678,9.905714618088028,3.858681167778164,14.422218813725111,8.772819599187759
9.713110602422962,9.191264786679447,10.21970253822637,7.16662424369212,1.640122218665938,-0.1343134195769337,2.6938360793745915,0.3082017693099317,0.4237283991108214,0.5107731032524399,11.018740228473485,5.674044753919926,12.840996525880824,5.191592298964253
8.852519371229041,6.8059859030189855,7.955279774978771,5.863695623179744,-2.457095577756135,0.5849345303487041,4.219854022539532,0.6180431661721784,0.4650130889430528,1.9389204518660532,12.10860039299611,9.350114335560407,10.28183442857349,-0.438797118970767
6.619914178780661,3.150145887638076,4.7894332333499445,2.9756527129439974,-5.763436958714178,0.2846341109791837,4.0908647013792,1.5191120371169546,0.4929665170726593,3.3302167638765425,12.22176524472313,8.344155945530424,7.273860411910991,-4.169168009810465
2.2117804687015856,-2.210958824797137,3.985212708562597,0.6107133949159689,-3.8018810879939138,0.2931932819286231,2.244595795594908,2.214013285254524,0.5664656884360184,3.492905844726629,10.1812837996425,1.912044440157806,3.8359569647996574,-5.7356721525634
-0.3044111415972923,-5.726062899296269,2.031120768650548,-0.2158060772607228,-3.184001791501724,1.6397013051790026,0.1425264229424543,1.802370009529284,0.0655381339548597,2.225302600622854,5.556211607234999,-3.2006278771691075,0.6513874517066292,-5.224212810504456
-1.1610070453496957,-7.274162582664843,-0.9776920524158924,-0.3152441083916812,-1.5768758701329966,4.056914708920573,-3.491661477147888,0.0506925833188915,-1.6001433707455988,0.5381467244719005,-0.6123726532844103,-8.501663520500076,-2.070795632497914,-1.4423273097921916
-1.7585021113360262,-7.702426802773046,-1.0680720339969902,-1.3442884016811405,0.916926357285583,6.180609060789308,-5.665718306671158,-2.3953740980166742,-4.140545357483148,-0.4031764911599822,-6.223205145963476,-9.43380505206276,-3.5128542475003406,0.0832682070548885
-1.268644757202906,-6.052073851644658,-3.601939210798357,-4.180307177181689,-1.4476738213542326,6.723600356004312,-5.214495472476112,-4.492480517921123,-6.343803830235714,-0.5526641406974875,-9.453237870600972,-4.528419686172061,-3.2787030319609296,-0.5481776254118645
-1.7234082892325753,-6.716460905190009,-7.053370917462518,-8.12537532280247,-3.2811325755016254,5.535427907853915,-5.633463651471966,-5.474369708875614,-6.951650706498981,-1.0168191043260606,-9.864085956255252,-1.747364072636417,-4.97120102286412,-1.643052963968518
-3.263424050439724,-9.833242078628526,-6.9339227196323066,-11.489082623804023,-3.9795466833877473,3.6119592562199614,-4.804295268830329,-5.166694264241869,-5.647965399417814,-2.639597844099072,-8.361354225209624,0.1374703755564025,-8.496110826771698,-4.467118750961028
-3.847110053664672,-10.21400525368774,-9.65586756914635,-12.872328684376072,-6.06915986230923,2.1305204832513454,-3.5830444572102573,-3.8619959023083936,-3.280626232209201,-4.613447942230764,-6.235005157431687,0.6033416470445722,-9.905005392970317,-5.082794723232202
-3.87687719298036,-8.592475155819715,-10.417611530921718,-12.0381073457402,-4.88465046604106,1.4732426152316975,-3.909479148395393,-2.069405564265949,-1.1779578633050818,-4.810113101307834,-4.298346388951956,-1.870744132001055,-9.730950821003276,-3.326662784344834
-2.8537576627196133,-4.45801562127951,-7.146687783492913,-9.82157158416507,-2.4574394717379686,1.1292443283119695,-2.6342766780029345,-0.375769686413264,-0.1930596977169898,-1.8246521219018064,-2.808310236799713,-2.0493917550149265,-6.5059351465955695,-1.623830115226654
-0.3892248039447247,3.2737055443171936,-7.760079140056984,-7.403533486394579,-1.7999186748483345,0.4562718919622455,-0.8908224383286588,0.6697243174712071,-0.2257087250663119,3.2173799071911877,-1.896300286027099,-0.3514462718932277,0.7299194466742085,0.9164793334552964
-0.1682278125951878,4.902872397891938,-6.513751196091244,-5.6413770952360665,-0.5042056685114809,-0.5379838497934628,-0.329002420203814,0.8087534749659824,-0.4776455780175297,7.08958579188733,-1.7769039310635293,-0.5505618554862065,3.6062387369986593,0.7451219034506792
-2.226907412184568,0.1591011395778598,-5.018256427677593,-4.850154611114689,-0.582715455941418,-1.184503975670978,1.2688173229501485,0.3413982566419662,-0.1320994988399917,7.049252615678036,-2.4573819944813664,-1.8742523642575968,2.196499534311592,-2.668478365887156
-4.74936083446476,-4.281743744666464,-7.367800384989749,-4.91561098435875,-2.482370263630769,-0.8944819588609647,2.9003152554327403,0.0538392251348369,1.055211152377666,3.306034298942976,-3.395843404160175,-3.1952282510098247,1.049002495822971,-5.3067540224786764
-8.585910329415388,-10.559917121762386,-5.963347833878352,-5.438417673977213,-3.1386577007146497,0.1007153974483827,3.600645568641632,0.6646731150326985,2.6090481074349654,-0.954289152942536,-3.679113165855384,-5.035546989114403,-1.6318890120856486,-8.0141704710937
-9.628071215695057,-11.737875768527362,-4.117837276045617,-5.812401478477476,-3.1099685101051358,0.7516304652570369,4.719719977549653,2.1656094504747045,3.683011041684523,-2.130738640237901,-2.6997487239481472,-4.8195016199542575,-1.574186255979015,-8.223319981852136
-7.429792092241925,-6.460471901049125,-2.5415823664178325,-5.374071703004049,-2.847684100156712,-0.0175377939341743,4.297814219625819,3.6773012132473184,3.672805695392661,0.8471529185671471,-0.7111611188462987,-2.2277128259342898,1.917971258125001,-5.048094905042047
-4.732224010785452,-3.12464102101818,2.7289422119330737,-3.7123851909791767,-1.4594819322398398,-2.3678623140836663,2.4641141403761555,4.072764715272029,2.686507785784684,5.700491990544954,1.2940293623908945,-1.1003092651209443,4.08419384127059,-3.0860695157623854
-0.4488375460443284,0.0273556171897102,6.545946298343728,-0.9755936286383003,-0.0237115835611793,-5.211444168615763,1.0844763890961011,2.9279512234982974,1.510061789267077,8.72240530150075,2.3001225011900672,-0.951330994873074,5.948058877691484,-1.6231857017069364
1.0342258619426392,1.486129389619936,7.813035478540756,2.1102220749069858,0.5572933726884549,-6.764327272186549,0.3873022926507957,1.0015681037182986,1.047455418626981,7.739704501576753,1.956307710344774,-1.277471892314427,5.203377648346933,-1.724887370502268
-0.8638421233080914,-0.1961674092915113,6.9396967938854655,4.611222150728366,1.5701579754804884,-5.633341625995428,1.6588267346728722,-0.2170277897623478,1.6563798419276736,3.680279184727752,0.6928097808736737,-2.813135662869381,0.8921502090386777,-4.343532362213974
-2.6961585154346994,-0.5493329956093485,3.087806408271652,5.922278448326928,2.955761397718227,-1.734428801378705,4.092178199734207,0.4022926916402767,2.935954278580361,-0.3937614310147701,-0.7300064103547292,-3.6601126924855514,-3.285985175502966,-6.308441453069784
-5.620549566712642,-0.2818808765303386,-1.703492924395713,6.1111335812088114,3.8352003903412126,3.5427689438260828,6.56256727245956,2.7316422730987853,4.138299947616581,-1.829243546542788,-1.7716408424754206,-3.878222025160385,-8.096942448917773,-8.102674123430639
-6.469912128517138,-0.0033660086614233,-4.328343042566994,5.868300701534119,4.792077166569207,8.042983202395845,7.540968282654485,5.384182081894895,4.784510049542302,-0.3718383538774397,-2.308971986612022,-3.783709460412843,-9.296217510707288,-8.369537606720998
-4.637653084705296,1.007723527732879,-4.594133355158967,6.123450048189411,5.262249525150779,10.007696280219944,6.17148648058995,6.646118972299925,4.878689930547338,1.93058369018752,-2.428587616780733,-2.944131350268972,-5.889191736631406,-6.398576774584708
-3.9557729731714497,2.496473110487219,-4.544895417553078,7.536285706934062,4.794329276381509,8.976892460741478,4.202747443159483,5.664248228220308,4.567876194377599,2.6658771690032026,-2.1331726526354187,-1.7101827619430554,-3.4994609754736468,-4.4533202099048905
-3.636887266653812,4.644430669494676,-3.9002932119937297,10.076478044863777,4.409584967022886,5.874335050000656,1.3629960810813455,2.9993667913927284,3.732684016393767,1.1043161730074331,-1.3044176917694044,0.0371425271029805,-0.9822558888760388,-2.002909326092417
-3.820818230494104,5.088685943353264,-3.638552565021669,12.888232561203264,3.7344361074208825,2.267867505658496,-0.7708568903788353,0.1275682098974258,2.085658611361876,-1.37157806112271,0.0359075544781291,0.8234878136842038,0.0512935574766415,-0.6783510294050881
-5.120761636273799,3.651189888619751,-3.211164453652566,14.604796864114022,1.9690303142816803,-0.6354325707145989,-1.6814360198464664,-1.7046303361259303,-0.2523842812447618,-2.72246872838268,1.465778042220336,0.4864084602066597,-1.4447390414961117,-0.947532816657017
-5.277667470029284,0.3534954241102593,-1.5309474987764735,14.107491828950977,-0.0007073955583174,-2.5429675175228006,-3.335302100749014,-2.3353491538323823,-2.390403759876328,-2.2138627772435058,2.261773466300788,-0.3785580230894828,-1.058699103540977,-0.9523222680448684
-4.4117674271588685,-5.5587276489794295,0.313367409935222,11.366617190611748,-2.5164067994479526,-3.858318953030455,-4.655601332789734,-2.5636881694916767,-3.1364616905189564,-1.103875826421195,1.908943124193492,-2.211189490512151,0.6673434324158258,-1.2017726178429882
-3.659466824911177,-7.603357300466739,0.9290622980928388,7.7307439964420865,-4.516952694274499,-5.002701505883422,-5.747449435328213,-3.2180655933197286,-2.063646496865722,-1.4554570405380858,0.6327406494909553,-2.5941226921682845,1.3076339554990266,-1.243080587523298
-2.600321314816164,-5.545538070764169,-1.275658632346356,5.236332944886996,-4.103472667991509,-5.9267050000328965,-6.447913796012988,-4.304769810640366,-0.1648108410459983,-4.155227227890791,-0.5901447360589245,-1.3696386329134205,1.4937206564676226,-0.8198475548307704
-1.5723913951673032,-2.8270791203553296,-4.669544132450001,5.229637956904028,-3.3482879490966644,-6.225889909974825,-6.110841145700424,-5.022611026805009,0.7157989592636085,-7.921601289395284,-0.7108461338480225,0.2807409231424436,1.171859899071518,-0.4015144124810016
-0.6952407764246157,2.116756957662786,-8.732224777109213,7.291475672962562,-2.2341066144952326,-5.678283101039611,-5.6856319647501135,-4.588339326828645,-0.6258188646306593,-10.21157829466189,0.5037001301471662,2.98376224323,-0.0092180302213837,0.2135326100930305
0.3912069180506108,3.971446942876512,-9.467223488961816,9.41641106520956,-0.847814411299791,-4.621336568117954,-5.118599246504559,-3.0512413979820394,-3.6222007367115614,-9.283361142985626,2.1735876702590105,4.064343643681569,-0.2974342300425608,1.0731955193200884
1.5802586756848296,2.1269459670615807,-4.000239329837341,9.474299429131449,-1.2251005909433728,-3.756024998666789,-4.849090432073332,-1.3259589222684411,-6.275275201787423,-5.673581682565938,2.973256722236826,3.2801491114474777,0.3011782177920926,2.177397587143032
2.4469197656351422,1.326171427495656,2.491129690222399,6.874407660189277,-1.4815984348175468,-3.5461391513192524,-4.815983888338148,-0.4486131397104316,-6.789589540768986,-1.825016252525828,2.25598700395102,2.318867796931838,0.429707621872453,2.7853099231282585
2.9821805635098646,0.289393206389906,11.539778552846808,3.0696709380404883,-0.9422367477184896,-3.808230801514696,-4.033540818958062,-0.7655166791503092,-5.086234674389488,-0.1428245179694869,0.6330012438471329,0.4938439853946572,0.4207563823085122,2.843356192222645
3.2704006523321105,0.1736175989235642,16.808706616846763,0.4332741853909567,-1.0646727101803903,-3.9245534691577006,-3.2965579405913505,-1.7324651080566298,-2.815996410506472,-1.0896330549581137,-0.5450950323479873,0.1998132518445376,0.8868743426071352,3.0595317471797574
3.190905831297218,1.6715075796790206,13.0688174447283,0.3966489400466173,-0.7125912420732523,-3.4920674303834005,-2.609599148616621,-2.3889573654749654,-1.8338809604491075,-2.9276905763397423,-0.3257786631486397,1.754293567713505,1.6995955605226831,3.2681747962244656
3.3768127145938043,2.4137024610219417,9.809626726072157,2.3615657158592,0.1439732283121587,-2.7542731813053365,-1.2960816338133736,-2.040143336999364,-2.527312014784229,-3.334267386702152,1.1506927098882045,3.0543416705266844,2.766848722685732,3.9193224508746103
3.8477327410971967,2.8173139254351764,3.738802614256155,4.23710598331968,0.1155306807618671,-2.3491333227307223,-0.2991050543393599,-0.6637708405660874,-3.542480678504944,-1.480483396832426,2.9805770724508136,4.705290373481319,4.193152622022707,5.161110187964955
3.717612931731545,2.9209780761276347,-1.4142121136853156,4.093444069556711,0.3836224440530217,-2.593747127938599,0.6862187849217024,1.120424099187801,-3.1494897645638105,1.2725753897927632,4.386146406983471,5.0080644217950745,4.040801163176016,4.91216673897226
3.078622834083735,2.333263378319214,1.4267413327367708,1.5589246911023622,1.1083742786372857,-3.035438671746789,2.1952086817000627,2.418580860227337,-0.9421325672392128,2.6817513955684262,5.203343018599696,3.557251893070193,2.138196766284902,3.1614609224922696
2.2247712969402005,1.4465103651279738,2.3629837895437094,-2.083941618324104,1.1550496451838403,-2.7766499168674272,3.457714803663037,2.5840585927927293,1.739571237492214,1.7111202800385854,5.559723401981728,2.8363366464316604,-0.0367414547390239,1.334242031088972
0.9910440745669916,0.1078906198119145,3.187007671403112,-5.013464863345234,1.591063966648267,-1.3128436100520275,4.8179416874439145,1.6497721420330436,3.053316261607677,-0.5465033977876317,5.285482378012176,2.4205823045200727,-2.968931748601104,-1.0065787890840583
0.7171134656533039,-0.1718963926000896,5.624970254160687,-6.188416021256842,2.138805852715673,0.9232155469323402,5.758689004732301,0.3698361303768251,2.3688103833213745,-1.947218956266738,3.8656798693170913,1.8926020019100067,-4.410195874866414,-1.7360436755982698
1.533539376542136,0.7676227867125598,3.5705012557607154,-5.880026002098532,1.8342034123767048,2.866322590507252,5.510653854165615,-0.282566277806211,0.8269371983465135,-1.2951086226045732,1.048244157187554,1.64574527492334,-3.998679605842436,-0.4851031918449882
2.101681101161265,2.234024456176717,1.8268623543932865,-5.20050308111621,1.6630694939650557,3.701386242081981,4.876667068768034,0.1145563586267144,0.2294493154383872,0.6436529500331005,-2.60016384428792,-0.3353350798673755,-3.699981705077864,-0.3290938737958934
2.726715804851535,4.664636479270288,2.010624168387112,-5.182150381817479,1.4503639818872398,3.4871186346389607,3.68191602504159,1.0243850503078988,1.314429282443598,1.9851221117563969,-5.896107018767879,-4.170454733255188,-2.901209751979526,-0.7976387640957672
2.888340344150864,5.289471932847774,1.0697053278503046,-6.134327637289829,0.7343212410550514,2.9541003237011125,2.554241601782201,1.3465595675137934,3.0155006277130667,1.498202458189411,-7.880666739588747,-5.801283249526732,-2.184915424972293,-0.995464523192219
2.337253623720597,3.8858283705082783,1.667261500148281,-7.603662887463429,0.1958202754922851,2.739718061633596,1.8339335707634603,0.3580077445146514,3.370601596983363,-0.4029437719890723,-8.476634083488761,-5.42611074414803,-1.796676781818825,-1.4085274948854405
1.2870069425206851,2.1795726037505743,3.741218619194615,-8.771378807625723,-0.3276808349192741,2.8531599558709217,0.751541800735132,-1.6236427345589275,1.255823263971109,-2.232824819503037,-8.328516247083144,-3.5976087457572654,-1.2293512703600176,-0.5951727819443793
-0.5146325357826418,-0.5361802575148066,4.747221000944256,-8.942402359664555,-1.3439479865671322,2.865209318206894,-0.4027941155643331,-3.485910210304411,-2.566799544787557,-2.832284970547392,-8.049055623436573,0.6480497045666164,-0.7061490102015401,1.5888067100151178
-1.688918005214529,-1.804986387917091,4.643883932657721,-7.9045805846267,-1.889886875160836,2.524124684091902,-1.8702466916990108,-4.275740017148934,-5.953636795658866,-2.2348080021405963,-7.674612524698602,1.7396192603836385,-0.9277429896665624,1.88467230629449
-2.1893061691513904,-1.3028924914088449,3.755128111789437,-6.088093200735813,-1.5311125093957592,2.067882193412572,-3.0854548172133587,-3.985182395616704,-6.977428143334976,-1.3712630227265097,-6.843819796069084,-0.5109301917855641,-1.9624823387810344,0.4216128388537971
-1.457064601410992,-0.8485528508282486,1.867363105835674,-4.462236446017727,-1.2868007899058225,1.888304950741116,-4.031557325192578,-3.4451687032178318,-5.30796949790215,-1.109008257917537,-5.425284606602077,-2.773674964125625,-2.541750591293869,-1.1965724604623906
0.9673233913658972,0.2126910607905646,-0.930107281298746,-4.091909456603503,-0.6335634725105863,1.9683750042331951,-5.451323126978012,-3.4483458382039203,-2.31437583444972,-1.5490830693740634,-3.8791354280400014,-6.332810723642661,-2.780920359692915,-3.639331401432129
1.4150703142326184,0.0331149287318608,-2.4973593508502123,-5.452802735412305,-0.1794069766812465,1.8013414780129438,-5.540075980038475,-3.947196404758088,0.1024503900036677,-2.054986671345091,-2.96477109294851,-7.252785786614808,-3.5049825957424687,-4.370215242630225
-0.0703830673578508,-1.6997557392452654,-3.492594804719987,-7.925585558166702,-1.2355676260284123,0.9636567427599374,-4.944835716483363,-4.093304067940011,0.9390730301887088,-1.8178691603920496,-3.103636944024572,-4.934748915637148,-4.511654112808451,-3.0537657245294034
-1.8209735229356,-3.3294395374396832,-5.536391315649815,-9.99609445690234,-2.4272205232407407,-0.2748324746395525,-4.689734881155202,-3.081981045384765,0.6222594940365411,-0.4871990113570206,-4.037627912847142,-3.734767616146812,-5.611177612850618,-2.02067454763152
-4.649049987595655,-5.3522542251762735,-6.658605142055382,-10.259999371243424,-3.6126261668847146,-1.0601763315189885,-2.662388121587005,-1.0019692367494883,0.284331413809312,1.4931601818924063,-5.089510184495765,-2.7138980682093097,-6.905563673466389,-0.6382439723881473
-4.955905736274201,-5.477367708800434,-7.065715249752204,-8.577886306499721,-4.296016583444343,-0.8043588913009572,-1.8650730629209276,1.128714535799638,0.5223560821426645,3.01663941493085,-5.713061563792536,-1.9504329677688417,-6.227809253890245,0.1655081676084831
-2.364147178323237,-3.301388440862537,-7.250946710503077,-6.354310203363184,-3.456237791704486,0.0698557651002715,-3.062644231178642,2.204083770818116,0.841161439823864,2.9286997732301217,-5.760217957538316,-2.112275792405993,-3.350464862661874,0.0170313526708236
-1.5875691934484266,-2.0618376797331908,-6.021315485410634,-5.467648531943354,-2.0987990313505342,0.3642761570605621,-2.961674702026867,1.9779149574161567,0.3289616752929394,0.8889066202598013,-5.249780386082014,-0.4236517770025148,-2.3802708123495,-0.2802813313683244
-1.9232132931460035,-1.2416037041793426,-4.118052594054638,-6.573188419567092,-0.3809231687541983,-0.7549812126132003,-4.225527630363175,1.2244737687378322,-1.1152789145569622,-2.0722877277895404,-4.003634025444784,3.0414382936531927,-3.006555982004349,-1.0882069584004213
-1.9113504057379116,-0.7454886721432721,-4.650073456533576,-8.270484742563667,0.5622153787636902,-2.785339574397934,-5.1834250145710765,0.9543423911986544,-2.323006855452949,-3.8912134415630426,-1.6919960330242605,4.23374623114879,-2.656702215125164,-1.53622090142403
-2.3067771848381464,-1.159098769328994,-7.30255199692257,-8.082454437014768,0.7642868240583168,-4.122766556878034,-3.412063586515138,1.4412303276284604,-1.8092288596037136,-2.765783861186506,1.6295346223649574,3.442806543183942,-2.0311649715484736,-1.5326946102548444
0.3106105757652283,1.174459311646432,-10.137357996381423,-4.617850268028121,1.3319925909510804,-3.418530618004013,-2.581220959109096,2.005184818909157,0.667976015023342,1.3640984078633949,5.048138991859474,1.750181187012214,2.661473690901426,-0.6126605375468684
6.304497705415273,6.348117111331643,-14.972754589357557,0.9276751199915054,1.187668099905471,-0.8364057589915319,-1.3244536999415628,1.7497171736844308,3.525211011446814,6.339304730401452,7.043356154343343,-1.7078434999374852,12.14849320192548,1.5517452354804435
7.714775500152537,7.57566062167644,-17.18688007112058,5.392626310975089,0.8583672079706304,1.9900202768092183,0.632977116602248,0.4959413124676075,4.518255928611552,8.952619831599094,6.472592734433476,-3.150452334575679,14.77929408861768,2.6446923360729957
4.8549433380849365,5.211258287781468,-15.24682324216753,6.04526497781066,-0.0247465645342989,3.294069073822186,0.7481994188537383,-1.0261279142306703,2.705151281123676,7.155889428222992,3.5198767228203565,-2.364133387528661,10.801618646901536,2.7495482992370963
1.032689922956629,0.5100203148211908,-13.986112498378006,2.766841699984269,-2.4378027883582147,2.583357013779221,1.0984207241091368,-1.8863768810215904,-0.6472352330732178,1.7024307152250913,-0.2766444003281378,-2.104777322505597,4.626110009477182,2.1725011552043942
-5.450675489152046,-8.097724918158091,-10.432328239113575,-1.8727592847845076,-4.914231598993314,0.8648385617836709,2.0304956936409675,-1.8009544219422366,-3.1460381588376265,-4.155241481746572,-3.0403053410394705,-1.512601260701438,-6.389223428476187,0.3575606582797744
-6.876730505822951,-11.221494963841838,-7.47810445824967,-4.72126589696552,-5.60364823368773,-0.4079477201590293,2.105318291915472,-1.265072296078074,-3.3623471551658213,-6.866366435927773,-3.805092735624669,-0.9749217630005608,-9.103755604788624,0.0274161303336185
-2.4768193404075114,-8.421303298374788,-7.331308663579062,-4.49846222521694,-4.751688538087307,-0.5881766352860041,2.264721533758665,-0.9213632334135582,-1.9500414449807408,-5.079846603191356,-2.988352018114597,-0.8050979819060938,-2.422097274018635,1.2350112036607102
-0.102416804640297,-6.313052554239718,-5.281463948257889,-2.5159598349275143,-3.0623976291090447,-0.1541944699588953,2.7241022609426087,-0.9036813368078356,-0.7743229096893174,-0.4984581088182267,-1.783759000307441,-0.4026230823460756,1.8873492817116344,2.4210545502124625
1.9653976506696829,-2.762752411641977,-3.765123764547514,-1.180664899531621,0.0322162028419337,0.0230324863838404,2.35406036433044,-0.8351301436155723,-0.9845357606109246,3.568457008648238,-1.085829046119727,0.0464115488365796,6.805489120454807,4.194021278377262
2.7220550963373458,-1.6344927169695005,-2.60101982007236,-1.7438323754674911,1.4027386680627243,-0.4125497375422924,1.7993949302365082,-0.3773510841283496,-1.948053232061852,4.732188238457297,-0.8498097120317993,0.3342604018928258,8.145395397298023,4.71357068773882
0.8756818290889207,-3.946003850082548,-0.7942304963681988,-3.2854598972240865,1.2732623429225398,-1.1005136734725056,2.0432667819792223,0.3559816905333264,-2.0146244440909413,3.0741313634159155,-0.2960559413396595,0.4875748680951141,3.922790370864316,3.701994268533893
1.1069752861837756,-4.2958847336869335,-0.539251028153797,-3.68412847404386,2.4990984603024278,-1.4982943076166748,1.7493486489509849,0.9751424009245966,-0.2266779041826794,0.6178090333534101,1.356149155004914,1.225590037344365,3.3883863774206637,2.823139806501127
2.957980846536451,-3.6952295309150167,-0.0199583522323503,-1.56291855547272,2.3190123777685097,-1.4548762734856382,1.1127266571562342,1.3145271054405612,2.7744265860220594,-0.5332473350227929,4.267706626595896,2.570656264237543,5.324377121023661,1.6012243614862685
2.871188588168334,-2.9414975371017293,0.6374449134169752,2.503052108649172,2.086489057910248,-1.2365054368024175,2.2007128748953955,1.6353587349635743,5.461309820916085,0.3600385615633286,7.883495141071762,3.1794428279775677,5.762978229513858,1.120040177800969
1.4738434505774418,-1.2238837482216085,0.7692267943147792,6.424183231533675,3.048979995176812,-1.1088335553299655,3.47553668644995,2.296187775720228,6.888504283166185,2.694211780544947,11.300424393575328,3.1295665925159866,6.106950511749427,1.6741153247942069
0.2664672926942839,0.5174068479738785,1.974016680608275,8.164474764467514,2.040687210188893,-1.034396576763129,4.5964337755354245,3.289922854010797,7.367923468642743,5.494308333075196,13.721527850991832,3.119707964024496,5.62102948670952,2.0134089307697303
-1.2585355419254978,2.3776408693632742,2.429977522181628,7.137630519347908,1.113745514664516,-0.8122958215931249,7.633507468956485,4.198344540071616,7.746597147237935,8.047262946635101,14.650552079807651,2.8899581879724057,3.859657132160176,2.459604334007297
-1.421256512520003,3.135592132803951,3.0290019068694862,4.462758662929446,1.7366596299280594,-0.4275528031678277,8.439186549746507,4.625900267460452,8.179639030843305,9.648065480231708,13.79130883887899,2.6534576937668057,2.252062247803841,1.7991816304198769
0.1118243156795929,2.493239953454408,6.636893734745294,2.069992166237739,1.1399578429108097,-0.1519733548922204,6.976648476679301,4.615530003052299,7.780918554018626,9.20076389536746,10.938607614836314,2.483625544272535,0.5493533798551589,-0.2466844267694021
-0.1860784977365389,0.4562925586252374,9.823772358911327,1.4127123099494838,0.7966071078402861,-0.2512455827738904,6.78054641926881,4.554848056083984,5.560194607821472,5.697505130312152,6.170412945944236,1.19125959783099,-4.06515056541427,-2.0448226532519285
-2.039504385808129,-3.4830927169129318,13.353057316116082,2.6615293475833823,1.6774698009394855,-0.6053786445311289,4.1964325511835385,4.649809654189312,1.677425804883569,-0.524078692732246,0.2764973180260313,-1.2562929318292564,-11.642586296517408,-3.912032125865884
-2.9683639308208307,-4.643628410781094,17.018484438202993,4.822605575671673,1.6453294586596574,-0.6448908136208047,2.2769632292882886,4.559689850509585,-2.3115328617412843,-7.106466996931431,-5.09034476349143,-2.683933847642713,-14.922629922949394,-4.512082132233442
-3.535025315716214,-2.845208546225559,15.068314070671596,6.600637397682306,3.35648783067212,0.2986686111656809,3.3729266040065675,3.6722170741811615,-4.552792587179624,-10.777185861806744,-8.03704520211835,-3.216873924815298,-13.989321710326642,-3.4424503757439493
-3.0372643854864294,0.0009099852712167,12.015959256599148,7.362158692307332,6.904967889717449,2.49346962490904,2.489598373614505,1.8202384069561504,-4.358378631086168,-9.757171771667004,-7.660187144088411,-2.948436307028067,-11.067875822074404,-3.205582820847685
-1.0146170745721994,5.091561538193758,9.687617597662106,7.504407188381492,9.451299216460704,5.519331893492108,2.4151463289738047,-0.3113526338196379,-2.71658339210353,-5.440705850439144,-4.94563326634534,-1.3505135978860174,-4.399389857278448,-3.468933679478651
-0.4823301181155223,7.315657521734146,6.320886293198818,7.957845939916979,11.123033302638914,8.38262002569195,2.9675996740612867,-1.6390014137625712,-1.426967343690194,-1.6030377755325844,-2.3714393770471816,-0.6292377785281756,-1.2674268342547252,-3.7291469307283447
-1.3168792850179043,6.301427438312323,7.788071692124793,9.22000480329234,10.674952649316776,9.97931378347016,0.6278609267530408,-1.6825181685092048,-1.6549846944787987,-1.488158484460541,-2.207341344707629,-0.7424510503805924,-2.0470970156877764,-4.42875876923089
