AF3,F7,F3,FC5,T7,P7,O1,O2,P8,T8,FC6,F4,F8,AF4
-7.780797479523877,-9.332646368321942,-22.86877311674256,-12.331932224439525,-3.405659901851997,0.0665792071522198,-13.190893062183555,-9.672802466441128,-21.525238812639344,-21.393759526813945,-34.87783428979012,-16.340824387197078,-19.241036131071727,-12.764260318760346
1.966791073937365,2.623089582700281,-9.608678437334891,5.025212503371554,7.108305313357761,11.596147857992245,4.750910303867363,8.599645803116257,-6.750249910611153,-8.02812660357272,-14.557066293986685,2.6329431024753025,2.395578063636893,6.313893973503461
17.997618815437924,22.06006504037258,9.101037100617862,32.939968867897015,15.200164660926582,32.33628463376039,35.58677312441517,39.55229172144823,14.82682115867576,13.247720303344138,17.007547308152546,34.25823680428304,25.92638030885268,37.86643622313412
22.59381127133414,27.473079394487836,23.143342904326136,40.8670981616202,15.848774408004155,37.74831093318574,44.59555301744487,48.76996415828019,31.444922490526,30.550761958753444,41.445017149523416,43.58498505339873,34.102151427330824,47.27432739210813
14.103494907306729,16.635751251023734,26.122342252291403,25.51385644759506,9.24987437990735,26.891898470629048,28.758925348703528,33.53868933120314,34.91368535221459,34.878142892657884,46.150841086660805,27.409488301760845,17.220832553125412,31.374057420479986
6.611404202088965,7.714787607465679,18.77918172912324,11.943974235115435,0.4782224781241773,14.999168595292542,13.542397465421963,18.103727019391357,25.636457467498847,25.619447767993,32.380202544399815,12.149502174071683,-3.7906023225856136,15.227886914754505
-4.169357943254998,-4.488642455088404,7.450443412527658,-7.383202111194466,-4.677636018094766,-3.614783172886666,-9.537608339280306,-5.921944848322961,11.535693814282276,10.175962295051868,12.603673196571147,-10.763851386533018,-22.242691223377967,-9.762787848234558
-7.635307463500861,-7.751471099173954,-0.7835136761996786,-13.894659117680806,-4.207236026017686,-8.340351680808043,-16.448839348138154,-14.185516861951,1.904882537631796,-1.7392971128647012,-0.0755776306723383,-18.296262886031432,-27.3742650979772,-18.749088796431923
-1.261872966566945,1.2170002398839943,-2.6929419688871405,-3.094521442784914,-0.9653933034489376,3.934492974044427,-2.5458569922489773,-2.2820527832857764,0.8542758963694368,-4.814279743185189,-1.5000966728953635,-5.694860560620806,-11.311273241070662,-7.187008225270487
0.2132178885769201,4.39746560607571,-0.2390657426962619,0.690150996875965,0.3976246858066048,8.937779223706999,3.609146797263755,2.1667472562314067,5.210347086418768,-0.999613506457699,2.4342849629985928,-0.7629980808732333,3.191781289310919,-2.568647294175525
-0.5075886959212556,5.004266582228263,1.880168979563937,2.386716070804101,-2.218329047754647,11.47039068033192,8.082129637383757,5.28091387505484,8.159448432292468,3.23992257878162,2.9972302812668232,2.420581358350022,12.725080688656034,1.4482127514342715
-1.3969495926742013,3.621410801192279,0.336380676022987,1.8269124359749755,-6.664355179207952,9.978042207924364,6.285966120446978,3.4491067635282864,5.310047558367305,2.628469671496976,-2.96808750586392,2.0286082971100683,14.423904392033762,1.550874363531578
-4.726165121132014,-2.7650293137515694,-4.286027887022623,-4.819001812240653,-8.879617224423935,0.3680022011312577,-6.596616650461675,-7.761702099824876,-1.975436364225846,-3.066632203512384,-10.91871828066996,-6.33666700164187,4.879527027500157,-6.49344918973376
-3.4089950859379177,-4.697375450245069,-8.356973612575832,-5.807012592617268,-6.88642295206944,-0.844642571686152,-11.574939706285098,-11.851532512391069,-8.526743932046855,-9.906763855190142,-13.963615368317356,-7.248116155342936,-0.8763391160928707,-7.581116366857463
2.682020129242765,-2.609265346119736,-8.51350497843546,-1.933097165882433,-2.593332569765339,5.490308701843316,-10.45044786634988,-10.382628271794358,-10.388707921832724,-13.968811879172584,-9.999299790125994,-1.8665845224813635,-2.38543128713364,-3.2098336847026023
5.466070785597073,-0.9057600594182196,-4.486774831782117,0.2715061451124128,0.2317538169689932,7.9759783948342,-8.046100571193895,-9.07364940343616,-8.14730826552513,-14.677141786027134,-3.739640732179925,1.3750718120569612,-1.4904603213620955,-1.1054816290506873
6.068960283501456,2.228867559333633,0.9068602601714524,2.8013476685077143,-0.2748548328355227,9.40270457582444,-0.7759939723922117,-4.976015735450991,-5.701496916536591,-14.34665161890959,-2.0192693926741043,5.075422828916905,0.6586943187314794,1.127930895908595
4.812472553226055,3.577561389210908,4.369473510763729,3.835627119786459,-2.292433584215434,6.886830996940502,2.4217525191884977,-4.29893886009899,-6.06173433192318,-14.89025699690345,-7.193536832163556,5.00136912816725,-3.5455727283298915,0.1018003721455294
0.1091055654392593,2.588149995570851,4.846683292652486,2.454319542439428,-2.2087203177584875,-1.5156378613507242,1.2354419234562473,-7.677163558646565,-8.395318642797012,-15.317940739384689,-14.937845040966256,-0.2215589219452474,-11.651350356147262,-5.403977573848991
-1.1271848477137478,2.459670921028571,4.021461636025403,1.8344526301672075,1.746510973185913,-5.365458176253238,0.810130281510773,-7.268112098424047,-8.995835080914398,-12.5960716255851,-18.21097096423288,-0.7792250402387244,-15.53691684192714,-5.538762809070279
1.0519835230223658,2.386866231766151,4.410522288667124,1.3589083304366047,7.701415610636392,-5.378016506567708,-0.8466601794251235,-4.234062961315535,-4.9421361048135495,-4.921949079785861,-13.328092190971656,2.4858024918270107,-12.638766781519454,-0.8255653466661701
4.310432111221476,4.168994060348009,6.988292789991835,1.887722282372116,11.859291320470378,-5.509670261029069,-0.111159507006278,1.9877660178529768,3.12968616970927,5.892122461848771,-2.6009820898446296,8.675764206059517,-1.4043254707949882,7.145823878760232
10.246222449925336,8.404672841656716,10.411117822681854,4.007039490112679,11.963553943935748,-3.7344199953931376,3.683318031901988,12.964908294982534,11.466210837705882,15.226059346656108,8.20409641488073,19.9096580516623,15.060643135651018,20.62277434932535
11.701225212856723,8.806876997745848,12.261939678023907,4.665452556056382,9.147091080470522,-4.47482370762744,3.899645345050896,16.25130630926931,16.020235061948647,18.867082341251415,14.49179490383631,22.56043050481033,23.278910403042214,24.65249716517175
8.191848159163065,5.53795906010599,11.013959780727916,4.0962284015907855,6.526077095776371,-8.174205164344828,1.1605524221522805,11.564412860481315,15.02026396435016,15.816249714533647,15.278588476958046,16.143171982364187,18.962247253590355,18.50725930193933
2.870379720935426,-0.2414219473474707,7.085751418150846,0.8976411105126622,6.085864710855809,-11.063998587669882,-2.39461329652166,5.309527320854172,9.539936976353784,8.593167577554334,12.188114712052768,8.32652547553763,8.456979476566723,9.88854997025561
-6.150548579281785,-10.056657056523354,2.383486470041189,-5.771226705381034,6.908756678552768,-14.157514664632131,-8.023091344867229,-5.437132080795071,2.382696684935084,1.2729204730510286,7.202689495933344,-4.104846893399579,-6.371703006902023,-4.920353815817308
-10.158930658165312,-13.728857268913938,-1.054297098387987,-8.70444180062793,6.294531256472099,-13.68934396805958,-8.298764714720159,-8.73362281259752,-3.421615933874455,-2.9481184575319634,1.7369452358785775,-8.710356903991814,-16.104490407621487,-11.174028620660897
-8.471741472421884,-10.746968867461314,-2.252385561583348,-8.022673518333718,2.509542210347572,-8.812254771255594,-2.545061026271549,-3.23307479934139,-5.769550575822568,-3.123953761272106,-2.841171557925378,-3.912735562548245,-12.74535217497047,-7.345870602178681
-6.138290833920789,-6.953118352820829,-1.6542166367006823,-4.81138603450037,-3.4631458138282687,-3.764548741939771,2.0117108465254288,1.71010134136088,-4.291256986639588,-0.5325896863104447,-5.034504296070027,-1.7504458769310192,-4.462589057744032,-4.496355105938488
-0.9298102615930192,0.1302330578025571,-0.5934030965145829,2.733149071005189,-8.608833456927675,2.511195110079711,7.040548825831369,9.119238901879893,-0.6771730639401863,2.3011406876832794,-4.331195107216477,0.7815519535919162,4.318057766398946,1.07531255225985
0.8365706256538584,3.314650377862776,-0.2999595223441904,5.068653795671903,-10.144762659426164,4.253944575933568,7.891637178671251,10.945539897139898,2.067185337589092,3.0256895990517165,-2.283271107346563,0.94766068346306,11.233236784165044,2.478998072889659
-1.6043405479435084,1.6566559415370636,-1.0559485237085229,1.9313740186274435,-7.360005474554901,0.3229213645116218,3.0406894011944106,5.520677829531079,1.564108146067488,0.8344142708890141,-1.6395256685060051,-3.126894178713365,8.740943151110272,-1.9186685582725065
-2.703882713440792,1.6664524769674955,-2.056332022649629,-1.5681621751160493,-1.808562465005589,-2.029179959586471,0.7891333433429945,0.8345323455125546,-2.0066771373608576,-2.9213876315266822,-3.746994823122401,-3.905169013897596,-1.2621009121376487,-4.587291498552075
-3.99825699056144,1.5719669574231254,-2.1348979373382706,-7.650232150031178,3.824816538574254,-4.275136695999329,-0.106497553825753,-5.362497214690476,-5.813266891533024,-5.524744791155859,-6.842527046537603,-2.310367708362616,-8.02163573695291,-7.4473886725816065
-3.374544183821325,1.5418092048973726,-0.8690589230584311,-9.008979201009032,7.125256560227792,-4.292152644927839,0.7134396902689856,-6.7600880992942445,-6.620735514044755,-4.867816369573886,-7.463757250724795,-0.967378545032598,-9.3372219441656,-7.345579091915766
0.0311023513224358,2.366907365624633,0.8713394621011439,-4.736124398366624,6.916640101467454,-0.7180862046923783,4.837161360232895,-1.8254316451615988,-3.614681894793283,-1.2204891655394905,-3.99846522709887,1.356728587268458,-5.105901507677021,-3.0137014507738606
0.9373796408292951,1.0542047359239453,1.5548996377333104,-2.872072742843712,3.6794047059909216,0.6092200634672433,6.2629145073265295,0.9929733367123188,0.8245405603277289,2.797210898806865,1.232322937773482,2.302458065648654,6.2324391308914,-0.1408436786493681
-0.184138548419154,-2.287466833005582,0.4030327586775315,-1.777533713010493,-0.6337322383228017,0.3939388526884453,5.322506851422919,3.3677710291334475,3.265660389913463,4.270392403598002,3.8650172828740335,1.5507575611988065,11.86486672735256,2.207603953941542
-1.653276565673056,-4.776931467282498,-1.6902563734815228,-2.212083685910188,-3.546893420868978,-0.2592616661812071,3.205637442076941,2.442238264715353,2.3413316485649127,2.430059266376692,1.810343738528516,0.4155597392568925,6.8776419056238005,1.7551859581550426
-4.471049254935738,-6.85942938187824,-2.766289180302044,-5.53441126991631,-3.546600978707592,-2.4112941093669558,-1.3878420031747076,-3.424991274508762,-0.1443210489977362,-0.7246895532968294,-2.3782528429731524,-1.7555355623536628,-1.5342758400052587,-2.7381709291654963
-3.937644448356389,-7.361650212175776,-1.5976866394957143,-4.741449746088097,-1.137799287251246,-4.0604343530067535,-4.2828602433316405,-5.386538099405262,-1.1875689724999008,-2.3025831378634667,-3.826296753506368,-2.466263509945253,-11.333530509557413,-4.206361955618792
0.3531620199845524,-5.602904100502903,0.9551323555652048,-0.0251004552057906,1.5662297843160569,-5.263203890127002,-5.441934556623107,-4.192895273774787,0.2998383516441709,-1.2456906083667656,-0.3393954999340929,-1.4775741530472213,-15.509310862290684,-3.2254067319965367
3.602733323225186,-2.079760149760953,2.484430423249808,3.9632430584778455,2.624205713796453,-5.389914308109441,-5.10717519282164,-1.9929980338390236,2.3005132702474747,0.656343740067455,4.971259855712098,-0.2373404517845758,-9.192246438416086,-1.027702612724022
6.822178741949116,3.8537976262945137,1.237242127877335,8.538867499430406,1.9170106911043208,-3.894834093009421,-2.1698417685084364,2.972199553806847,1.6415945447139193,0.5202251968856784,6.460407436510895,1.912523486623107,0.1670476251057693,3.858037475974959
8.161068377302405,8.461681378587961,-1.9621299904678,10.30826557131703,1.0776284912214908,-2.6882931385021376,-0.8478562165959825,4.318813995682705,-2.7144807569064437,-2.660325129169733,1.7620240476474756,2.165323577820563,5.58467518298232,6.061883781062734
6.6771426206220506,11.619681507072436,-4.009251741385689,8.35765140809249,1.7105934588842713,-1.4815000004511187,-1.0092690251420242,1.7551795455103274,-8.147223952652244,-6.632786071180855,-5.091858827558572,0.2120177820710937,8.445628065491345,5.497750416783538
5.962312332014468,11.337565451805332,-2.0719734190741974,6.835724970123732,3.6704482085988985,-0.1282139010039843,-0.4537844058912394,0.3294699150617279,-10.162612292948666,-7.544065451412593,-6.747153365677752,-0.9395563060156344,6.101509063701519,5.1373353052323285
5.375926377835152,6.320499315476448,3.700365870032567,4.756181444834071,5.175877883613009,1.0401316216103262,-0.0127854950028138,-1.316311532103833,-6.081202044153996,-3.31928374291701,0.6370521248953995,-1.913720846553272,1.0318825355616943,3.79757186032536
4.27290968636262,3.579604915430837,9.759467094917644,4.401999709275094,4.658441436696192,4.022316917642161,1.9901639306941,-0.7391054360493203,2.455960270774531,4.195135496957573,13.130751751377408,-2.1391038676321408,3.1178525521116294,3.10386422348589
3.186511900281166,2.533618498422856,11.607552076665575,6.568300886835156,2.415865315932919,8.889391345919746,5.877227423153297,2.9418302907179896,10.284936980668578,10.262346877852917,21.599104196968494,-1.0827740689802343,6.019605189082865,3.379076738837049
0.3981823694789196,0.7332722825144878,7.215581478769412,5.987474498941732,0.3317144619975298,10.562860878053222,5.641915179408842,1.994021722717133,12.26104152661557,10.669258394410331,19.08698981617056,-2.622390500692985,6.869582183343129,0.9745441381180338
-4.175407471375194,-0.4963465000684478,-1.3634306830017389,3.1663443336074595,-0.0350659757903413,9.10639287838363,1.2821021342339267,-3.252744544761774,6.843004990423671,4.748874382334105,6.530654831321284,-6.721452593308022,7.039785326197239,-3.89926856315582
-8.249575759681292,-4.786079768481455,-9.467225194090508,-1.9363309582975856,1.0277944851114065,6.365125861009033,-2.733192220599736,-9.59855208590881,-2.9228336242187547,-4.30409716174812,-8.15908406965859,-10.08057380370969,-1.7712012967694355,-8.084467267813222
-12.094610364662772,-12.468248991678337,-13.144112244715147,-10.477967392744516,1.832177643911784,1.1428492887221673,-7.616592072557451,-18.65620583427847,-11.589988113460192,-11.802919165687976,-16.57252038314501,-13.403407326291402,-12.656233650611284,-12.145427967749264
-11.66309324199751,-12.808243610760936,-11.691209469326584,-11.931026339854002,1.1798693836357792,-1.1053366167362666,-7.701552633671359,-19.34565694193719,-14.890469601644114,-14.53566675060704,-15.978447935391552,-12.487607276386305,-15.643961178480208,-11.524000542976298
-6.055013675240051,-5.849019969585275,-7.5946817021535455,-5.860269092077186,-0.3352382921673182,0.0207558796219679,-1.841893186259976,-10.532755190943686,-12.09811845658612,-12.13821180824062,-10.12707120793749,-6.374002802523502,-11.59117639729403,-5.176675864824663
-1.300989026742142,1.408161559937681,-4.21378182977679,-0.2162357576921018,-0.9818532934404214,-0.4444452155992525,1.2977869534939337,-2.6253910829476386,-5.737443214693643,-6.32885819508647,-4.802548842389308,-2.733585771934925,-0.7060369167373606,-2.0457172918704307
3.615366509743655,11.216450235271154,-3.2048457825181007,7.333155695213412,0.2140793577420812,-1.3073991780951049,3.0143514833966307,6.98835223377461,0.715358813070397,0.7954102296261834,-2.739849359662621,-0.6615166990643422,11.185395159051144,-1.2027446776645387
5.843509445303638,13.754679781827727,-3.621374377564748,8.96284360837107,2.337374378400904,-1.946064637711901,3.4344816610387503,10.173326343998056,5.161094861055759,7.818363063985188,-2.3247514252021397,0.3564434974963484,13.737574204116845,-0.7558348602122709
4.018100000346135,7.329510369582091,-3.1444177665671864,2.9854686833007635,3.395848461842874,-2.991301687511071,0.9311254227378324,4.712137935103457,7.56951929763989,13.853859558074156,-0.4225910173481555,-1.2201113255506555,5.920273050409245,-2.4431722920530747
4.548541690226006,5.1753127959211405,-0.2868268583774815,2.108912127394536,2.24678054631522,-0.8644814414832321,2.45249756478624,2.9920301355356003,8.883707612098926,17.87525421299932,4.021253851186243,1.0600455709699064,-2.7610399398871146,1.419409306697811
6.562370904545411,5.035048605522717,4.183040557234377,4.589362249000617,-0.2947065386579002,4.672481422124612,7.88104648916248,2.8597117094986317,9.421592259088468,18.576011821454937,9.024625938082444,7.168391960269683,-7.635383137859797,11.205344137058916
5.522822063596185,4.150927982385968,7.667518610908686,4.892065782520507,-2.22847408068004,6.263276499200974,8.875631655139296,1.6066066514459314,8.32524918112448,15.120600810478615,11.653017116635224,7.665873791800988,-6.303081462369698,13.138197524629224
2.2018653381480755,4.589287189796981,7.6785697581156676,4.942702982567132,-2.213094902061356,4.2621240727652925,6.386409112851899,1.101362064925473,4.563741142740351,8.148276828959863,10.713057469160816,3.3048771924217344,0.8436972288814526,8.090183574035342
-1.8962003234393925,0.0750714499249887,3.785347972732995,-0.5474479691033748,-0.7041703390943921,-1.063747162912086,0.6064389401427382,-2.334080417243684,-1.4953474031353924,-0.0009053262090414,7.466807792910486,-2.0890280407194326,4.496964790544775,0.2480630696271728
-7.490019447039571,-9.737153567051203,-2.0130665792202853,-12.658501023049649,0.5760042377763201,-11.53903255079633,-10.249562727849318,-8.87200262948465,-7.60207559454528,-6.3372965677771536,3.97064343093553,-10.34414873236028,2.55929923330874,-13.310117468804036
-8.85196063817989,-13.116380121928843,-6.864451650203842,-16.23704298445587,0.1681366691496437,-16.232566479271778,-14.640387890939916,-10.631472921495412,-11.02632840654412,-8.9961870014583,0.8860377466604257,-12.238801880164742,-1.0727574917219735,-17.41209220344194
-5.34451622675873,-10.718709348915803,-9.277962405195144,-11.735485295042434,-2.071308697885865,-14.968557022617382,-12.298383044418728,-7.846156689724133,-10.826777948528488,-8.442332144680549,-3.0363135705739017,-6.757946764208526,-3.028200110999676,-10.9471496235875
-5.290307930515932,-8.04507408327648,-9.974680765242972,-7.191002951957385,-5.186483318828588,-12.552908439896454,-10.391924041893118,-7.3130673728043,-8.838821773134981,-7.048814105796771,-9.232827345547284,-6.122628013949753,-1.987191263127403,-8.555878557338648
-7.6075125145453635,-2.7584700090090486,-10.548096321610176,0.515515306208772,-8.09998628076115,-6.395210229158455,-6.348307954323097,-7.660566902698203,-8.113498593780726,-7.182418531619346,-16.931178116349226,-8.507113763732642,0.3558233410147625,-6.986798567290136
-7.493301087068095,-1.4335340482122136,-11.275754313157003,2.710593800413336,-10.27855603331103,-3.4407338572612454,-3.5160032946723945,-5.617689608123861,-9.937099098543383,-9.217138770593024,-22.478433166786395,-8.175151208987481,2.234539439099088,-6.081543923136019
-6.143441332657731,-4.988620242992131,-10.450043312574165,-1.9967400377050808,-11.600301419507376,-4.268071111115669,-2.772480653778334,-1.984370907347132,-12.225743619400276,-11.1505365306174,-21.513395126850565,-6.879212619240887,1.587654238633596,-8.028426614778432
-0.2835514418804342,-5.809382018658468,-6.18225120795264,-1.312483043848969,-11.880683441411284,-3.238876713426344,1.7190176266054802,7.422736803074401,-11.112806305201058,-10.289750953041525,-12.589310745975576,1.4808214809720404,0.0096413314172002,-2.234777395692693
11.139508088878529,-5.374062132959834,1.0211236310709118,2.944014670938464,-10.786560244923155,-1.9334020965574417,9.237138071052824,23.559373634623228,-4.542465910593718,-5.676403732465162,0.8035621573697894,18.22770603217277,0.9805233748897813,11.335683717919606
13.969146826980978,-4.712295209214344,7.728290973436266,4.693670750233405,-8.291660146931177,0.0152687535099272,12.184092628221377,28.08424149758448,5.448320908207154,0.8569258634318635,11.957848416253784,23.37835210592825,2.049783182140568,16.118306289054562
8.213075663920407,-2.677781091726663,10.059827582854446,5.660498378422608,-5.12856139748671,3.299901614675854,10.964639013516004,20.792150257115328,14.021507357126456,5.99937714672339,15.485739338447337,17.262187265814152,0.7384261264274967,13.301833015626183
2.1360895804099416,-0.5886139823234421,7.022140528587171,2.67658697416576,-2.6232745517505114,5.629264698293922,7.42055163007468,11.608616823765956,17.287308586470733,7.524098338419998,11.111856986434558,8.87445680569312,0.4780995221956673,6.825590556487512
-7.332518159512914,1.716251263069174,1.4506839173125177,-5.391183783649241,-1.882279838187901,7.192939889440361,-0.1938969831714764,-3.666825569762103,15.0729109312575,5.825376553325979,3.5419450218968738,-6.22017633589149,-1.0668933993504246,-6.875576744671868
-9.802187418976969,3.12846110673818,-2.4455110692500552,-7.687016536948549,-2.9390002988748014,7.082393146017426,-4.2909458452776335,-9.453496254425993,10.358215070584688,3.1391677165243914,-1.4488357201825437,-10.72793447682836,-2.399117597290472,-10.544378712399356
-3.634152150053221,3.3084745899348174,-2.601681197147692,-4.549803819010688,-4.5888195761898105,4.7008698362412105,-4.549551139003459,-3.766311729643431,6.324281843858074,1.3630449706599492,-1.3008350068502796,-2.85792451599623,0.0998189850858439,-3.277231776530975
-1.0142034051832454,0.9456524606691952,-0.3746216589132261,-2.554383670423574,-5.175392427243783,2.1573525950685566,-4.980080121873563,-2.0693360731976007,4.021139364565032,0.6365773904580774,2.185390505093197,1.8958117305203317,0.1393872921494881,1.7405631648523223
0.5137452281969752,-4.592308759096981,1.344709188135882,0.4246878873476616,-3.881147718939373,-0.9177636262702248,-3.7623741860587616,-0.6413224171324436,2.534623879027601,-0.112973674629166,5.253932263734123,7.610805278236593,-0.8513465908495437,8.347902467772975
0.1447611944445928,-7.577803129331997,0.9546632945817776,-0.6155272933866981,-1.5874492033050038,-2.737739062826457,-4.20955575975463,-1.7651024016758547,0.7572111855189236,-1.558947849369683,5.397153927867755,7.823604247145552,-1.0267214305776946,8.847830392614123
-4.148821365341641,-8.165464990271973,-0.9526575219537384,-6.839157426471955,-0.4823411243962692,-2.764844484094411,-6.7356371555354375,-7.803298293856504,-1.4550142101712504,-3.193961019996692,2.4677986419969447,-0.0728790753816703,-1.367394120122157,0.977520701406243
-6.384167554294201,-8.40960059601194,-3.086750502388518,-10.783713824774908,-2.4074572519748614,-4.393592532867658,-11.270067118608484,-12.479069135332322,-3.679107180880621,-4.14362804732518,-2.4872635747430474,-6.163426085788485,1.1053957039208768,-3.95030728220264
-7.214892873208028,-7.030999846891459,-5.201644288071119,-13.651743566318228,-7.044466596969216,-7.182101419030601,-18.88809199116695,-16.963505778726564,-5.7821765029989685,-4.404989562126401,-8.467261736429196,-12.541309886182454,3.7678375985682906,-8.046001630924911
-7.872473534425157,-7.588353810392276,-7.915710691433857,-14.029810420626877,-11.539407651491183,-7.782476126709831,-20.778642249234423,-17.783713020601056,-7.8169752290095325,-4.840449198124966,-14.144311605480182,-14.232970068646956,3.217767389216957,-8.865114378290908
-7.270124721054041,-10.302217909511477,-10.921241285278516,-10.416844508344235,-12.31450100407728,-6.526317498129872,-16.647268230216508,-13.59668146774026,-9.110769241788464,-5.797282855875415,-16.81426387618059,-9.256706368911862,-0.516712280233351,-4.287844938004067
-4.72978707871757,-9.46436487745504,-12.013522966903231,-6.974564627684908,-7.978657307792266,-2.796209444354436,-7.677942731423812,-4.9326428429837295,-8.071402306016227,-6.054842216766524,-13.074038573228384,-2.3350913226100154,-5.637185661310073,0.5327401794121933
0.0623768742346443,-5.553235348466717,-8.664850849827129,-2.9337486654833,-0.9421934604025072,4.242476083877815,8.599518572862316,9.840882332297555,-3.585181132759764,-3.720439661354876,-1.898860049732865,8.475966580150919,-8.820966037904682,6.86438732006327
3.1048836656765157,-1.7845308845633965,-0.980117947303602,0.2457697346298039,3.971007106006264,6.993542305318343,14.81918594396752,16.158880123414775,3.1367524198424084,1.4350697750007506,12.487446995198514,12.537905603194892,-6.530897100230781,9.52930715598292
4.405194020208,2.8302372320567217,7.098123481026625,1.753147861657553,3.163833978319434,5.3091942049054754,10.283547596549814,13.366132610238516,8.439218520577212,6.652327078855329,21.618957127769747,8.629827197463479,-0.8934907298536762,7.368442318109917
1.855354893484502,1.6627093839101912,10.215153114234033,2.285531770172841,-2.739413741436607,1.2851785270626337,2.1171962219974976,5.905909736706099,8.648131413557634,7.779955763453781,18.35259645717018,1.606484533017947,2.641847769184926,1.6281279382494651
-5.866275028819916,-6.330383332715513,6.041976996749675,1.0777866530964213,-9.162576243809328,-7.041207454856215,-14.10594046553572,-10.151949902207727,3.277308674211185,2.901172314936148,3.0376791795286096,-11.62592705856621,3.722690403890234,-9.619670010818824
-7.615845319784885,-7.691584587172184,-2.214214617643788,1.4622377307370935,-11.032180547284945,-9.64855248161308,-19.13360090613768,-15.514602019366803,-3.9362478161873993,-5.260526003169977,-15.308915864561618,-15.480323715150888,1.8535037622564092,-13.143804365665352
-3.591512454650928,-3.446053945986854,-7.821760091512236,3.5039193393471044,-6.585955888981039,-6.043180087795355,-11.540416129268207,-9.22046287744903,-7.517358060057539,-10.775089319248725,-24.817388303959564,-8.810062738387913,0.3955000191297722,-8.385421182790893
4.115653525752061,6.776923925009669,-5.684281963577042,7.922190265797225,1.5695677304943223,0.2240660022857635,-2.404411796914386,-0.3879628449559564,-4.491787842138396,-9.04809314872062,-19.480710118507545,0.5590689815973178,5.27695913017973,0.5536277497315178
18.245078638433878,26.16081946670016,3.638820970240475,15.728491920341744,8.806701167843105,11.792332929393073,13.148261761182685,15.828144749759186,3.145758954540222,-0.7295528665024507,-3.6994766591232784,16.70905126216598,11.734490581300914,17.195627747187967
21.61123259117265,30.3808356103836,14.396914255297611,16.34768465976353,12.01097606890401,15.34710681866142,17.35784029899515,20.167014369564104,9.90804631366505,8.481734771536326,11.202401560872996,21.33689801312013,12.49578663752395,20.36261366611101
13.411415521864942,18.805738515122435,20.032336720397826,9.473053129384416,11.372494843877082,10.048959103201598,8.131574772981867,10.893868893133352,11.036016034727991,12.115307495632216,15.573167466073723,12.742513319886424,6.437594523418111,8.757753718632546
4.65095092899632,6.37523151342369,17.706060790625344,0.8261394766330349,9.359488459636342,3.633843654595901,0.3007233056757775,2.28044623188774,5.908201952889642,7.701565369916419,8.012900047826896,3.916499071763391,-4.7356609321946594,-3.185114991679108
-8.693746651952269,-12.415325691438376,9.526609159357587,-12.101349433605636,8.27238915891305,-7.197174993503278,-10.563272147715344,-10.377963172904115,-2.071571260081752,-1.863164964685021,-5.011006890743664,-9.724148943572889,-15.142402628927677,-20.5033020165432
-11.574250704498908,-16.778543270280835,0.2520051062270876,-14.338776000741383,8.61965976454367,-8.907997752784576,-11.635118549466776,-12.878879509555471,-8.588426864407202,-11.085219967655224,-15.138049687043136,-12.997329293604148,-14.220778406713857,-22.95113188031585
-1.683727725798308,-3.549154797974063,-5.97147765425836,-4.183621819210238,9.356115449667044,0.1463171123145065,-0.0530489894237179,-2.516888711825689,-11.47963210577928,-15.905326698493385,-17.89799758015255,-3.385446377998216,-4.2918613017248735,-7.325195635662699
4.751242985046319,3.106575565901674,-7.303592604118919,4.082197546410239,9.249069703877048,7.9820792535903164,6.8278587838288765,3.1148787270335774,-11.207745077114907,-15.502152080976662,-13.881229699228436,3.604157093799168,1.5274006420397706,3.327336411123989
11.415640060468158,8.088977227869927,-3.983538701744811,14.047032516995095,7.950897665520856,17.95226552872655,12.250181066608937,7.519244937750925,-9.048394723610944,-11.078227103155584,-5.965229823989828,11.862490389133384,3.215412298799377,13.913156439575712
12.056137047734715,8.647149418487775,2.464490900101925,15.597589405769718,6.037859132748863,20.07542627636129,12.571132757965788,6.976455325880132,-5.459913772461166,-3.879617066435869,3.3774601730644624,12.964229970710708,-0.4817797170463203,16.079715412262463
3.681473262986982,0.6540330242634483,9.562887873167284,5.808322588751312,4.336746128210485,11.947890206458242,4.5245609139565,-1.7131609438780082,-0.4397978459704319,5.067096777585577,12.10360871476662,4.023664610854213,-6.413847917383412,5.442921001814041
-1.6412681576864092,-0.6628518526521233,14.12988863641464,-1.383100811751781,3.293337028316605,5.745829007493688,1.2868294140835292,-5.609522410610143,4.878290774611282,13.607092458446484,17.296240437712566,-2.521074768384747,-0.8376301113661553,1.3220505321312983
-5.962040009992636,3.363228438780085,13.34861759184329,-8.884686647619514,2.827698279761662,-1.296248288850965,1.4779061842681092,-6.08870184098629,7.694077920330435,17.93151017444578,15.56814202388167,-9.22182925755671,9.082253796088605,1.0861252781205697
-8.3731429407569,4.664259602103373,6.534750722709089,-11.775126507409418,2.6190278996200584,-3.5433623270232992,2.375993974776181,-6.197542496326864,5.261196125044806,14.615726741309183,5.851552656850248,-12.10357020988259,13.243756799055024,-1.004022090993987
-6.700242161395975,5.734442625049775,-3.785471772280226,-7.428172692261036,2.5106127510025784,1.3149668127372371,6.462685322972524,-3.548925850161025,-2.4911691584837063,3.906692447856168,-8.200502854227736,-8.853459970820717,10.551497680441836,-1.8177293551175304
-6.025636836529546,5.199445160178273,-12.796919146616665,-4.069240407794711,2.73490119067879,4.818082539752899,8.745058654443445,-3.120751596629308,-11.99632663380283,-9.06748910967606,-19.3766530892292,-7.508272921799522,-1.7890201575471931,-6.204834079153531
-5.471835389197954,2.0140222758316177,-16.077606554829718,0.2006689389059302,3.78431276048142,8.867585350186008,9.296932629309072,-4.982606301837088,-17.936366678524283,-17.030442341748348,-21.480365613885976,-6.577612126331965,-14.75200126617187,-14.611230297356366
-2.9309539977607675,2.592053571131169,-12.240950601424704,4.5540139571098095,5.974770064228174,10.18616609261893,11.181348751340348,-2.786888123624289,-16.613642755066806,-15.416674279800269,-13.601102549820157,-3.688517410261129,-16.739016505893094,-12.87890670381929
0.9876754480513272,6.726501240580549,-3.6353801820937655,7.800318184668694,9.023273749999248,7.252108078092465,13.468155107302884,2.792418331760828,-8.191211696423158,-5.36037279213191,-0.3735844878372569,0.1034694195193465,-8.645780565311922,-1.0223767515099662
5.694880455568671,10.43469172377348,5.333925160007078,12.151645015451486,12.045937903610836,3.705609453527248,15.454105851531912,9.507651940360644,3.7443445968168994,7.605011376706839,11.865604084152713,6.682091353402671,3.269839840623386,10.691473705590363
11.414616946709378,14.941123975389964,10.932552461490804,17.01175136018871,14.061530702018985,-1.7791070074941708,17.399618508374402,18.521857770587346,14.625862689973212,17.748462351122193,19.49536766307309,16.373966981111593,13.023500920708376,25.151725730007357
12.479145385272114,14.84468400403917,11.92338677951453,16.758914148999782,14.577737454717257,-4.825935195146361,15.93374431790979,20.4361934742738,21.333945973727825,22.52657702125048,22.913072619791016,19.070963425756144,13.519023959676728,28.18482283079208
8.239375441270584,9.160197876809292,9.474368024196274,11.040666537422329,13.705598407499256,-4.788636959758529,10.61781810632006,14.28454370430758,23.05780471249256,22.68249757639406,24.255809797911446,14.399195297215297,5.49780719160434,17.096651630773774
3.5809795059668854,3.238835924197463,5.717439322419923,4.619599884826188,11.749430763278324,-3.5269921530490733,5.45352853089994,9.159086764692637,20.60264092286529,19.91130386248691,24.366512147625446,8.453630572855147,-2.486376551916703,8.837611811099531
-2.944183885902676,-4.3904321693896655,2.3946210270095394,-3.820732813483788,8.843666004279196,0.3036824462085628,-0.3317754184741374,2.859598670927849,15.326296089211151,14.980250112134968,22.110852163811337,-1.174292458873319,-8.311459370153889,-0.2302301267544364
-4.205820998437498,-5.894639671496807,0.513801517859616,-4.788765132488163,5.1795811686089,3.11602434528319,-1.2237376567146612,1.362279452272057,8.752613185066489,8.129307354836005,16.435089147282433,-3.1130855630591068,-8.867259423780752,-2.1886159491617136
1.0458002406695956,0.1504402905404057,0.7028685641356223,3.262485501454404,1.5915428997428425,4.815319076722694,4.007811520840399,6.535463250624999,2.818683562287875,0.7998511168755513,8.707098918905722,4.127928030437948,-3.4215923682632896,6.337307443328676
6.656585876659833,5.852987185115735,3.318678758128144,10.894968317342853,-0.3728772709848416,7.335956793251792,8.956801576219837,8.766501772751731,-0.1633758922553028,-3.791683121524184,2.668143276658728,11.122186694973816,1.107218174267535,12.668933470504504
14.640960795431257,13.344291582642262,7.951017254744529,20.623568297368895,0.5993368403447055,9.87778413061437,15.177985665322796,9.708044052351449,1.4986084697715514,-2.4974475026171423,1.788754645372097,20.831168246782664,4.51254278254731,19.481614753833497
17.252161797868947,15.61853675527918,13.011795753975278,23.206360072670662,4.282336057551806,10.843819096997882,16.38068612833954,9.576782942337363,7.416186283901335,4.886802994105194,6.423943349400475,23.302157911998503,5.34002998217953,21.491219164276213
13.171511493855338,11.020149728589828,16.290030779897474,16.547946372351475,8.595901239175129,10.15202311156746,11.062298049414512,6.72491569568003,14.56889082319558,14.472974676486636,13.371959771504615,16.621937767846763,2.0402897240284785,16.27559431341215
9.176152465483508,8.358076487997247,16.34132366837392,11.09461992597696,10.891795448067962,7.482527344488813,5.825841917550725,5.231904657812561,18.624119288977163,20.321420241405843,18.17899343398099,10.45094684498721,-0.0093638839532065,10.79350755681468
3.129453625229428,5.7260655952089925,13.490536451842916,4.247707963191771,9.888560128778318,2.2704813376342905,-1.200506061831926,4.7147140843923685,16.573742622213842,18.37239611686653,18.12113071574518,2.0345257106215184,-0.9335945029495704,3.0194250945676733
0.4504066129037073,4.488156509254825,9.41360260300727,1.4162074262374469,6.528694894422827,-0.9291729923466228,-4.548414767755091,3.603854824071794,8.861286860526869,9.28177133249566,13.509799220394672,-1.8729978731638663,-0.6769945630759248,-1.1801791973371978
2.3201299465497005,6.094380601120131,5.665838704015723,4.511021750966195,2.9772964698764657,-2.063313848597412,-2.9380016912518574,2.588769684821871,-0.6490094645730853,-1.976492664724096,6.779214100525596,0.4765553752520583,1.903841049853798,-0.5145357889337876
2.0833489846536253,5.181605405511967,2.630888104878786,5.179520375025914,0.7708803118698695,-2.1126661376322966,-1.9638390290810508,1.2144491154896788,-6.965404645382156,-9.351902107005,0.6784596002389804,-0.0707093127355982,1.4974220769836752,-1.0200737466509655
1.1516750295952147,2.320042904046451,-0.1203447955604581,5.050763809805687,-0.0961763939569955,0.1048702331175904,-0.0227749371349994,-0.6309606351484245,-7.008386926464304,-9.41536983205249,-2.9423591402631586,-1.6905070527690411,-0.9699354051642292,-1.0282108766664244
-0.2048900919216862,0.4485299084359636,-2.6588353390157407,3.469452895436426,-0.4306517997333374,0.9196326666768728,-0.0569887731681792,-1.2906521746583155,-1.424962064238346,-3.124976912104228,-3.4575009084052617,-3.458906038856416,-2.9014938604418945,-2.152840352275577
-2.9675061107230105,-1.2441438192810872,-4.218140135540208,-0.9597340357114112,-0.5186081285368278,0.3552073718597205,-2.9667130410846885,-0.7539046101107822,5.889564590564263,5.108913115577344,-1.4780164212460996,-6.729761038432163,-4.687561507521015,-5.243699199887246
-4.163998441357261,-2.428172271848747,-4.075690276113463,-4.659319042491632,0.1389662222877579,-0.2241747688717644,-4.074094163044801,0.1960060381943872,10.162574102062411,10.104718594857603,1.2104568453107838,-7.269547955184737,-3.386485986884015,-5.898869322547678
-3.907291147944368,-2.681002521134168,-2.7930332341449287,-8.165893721036005,1.7030270948321196,-1.6404670796294434,-4.163294881916845,1.944549755035317,8.539387608702219,8.67881295284716,2.235317599897453,-5.071354197326612,-1.2736770084066618,-4.526209865965062
-3.818704189552929,-3.9846190259168814,-2.216296233557065,-9.034273153059988,2.9085019021962264,-1.6413154287004994,-3.980485538524694,2.172557302531935,1.6736572206840457,1.175576725272446,-0.0274120818357754,-3.96987941800128,-0.0832062216916536,-3.881362778119589
-3.3402654559774136,-6.246762037225516,-3.87898746996804,-6.378666788372753,1.6285916496519768,-0.0795958178427289,-2.777875920933343,0.6417592118368205,-6.781576494355999,-8.811817815185163,-5.16452558437477,-3.2296696676773737,0.7292571846522707,-3.283899466928865
-2.624766664050973,-7.637065870148908,-7.263137891282341,-2.1890205864845496,-3.0454313338891765,-0.5071184650928996,-4.452951505867675,-1.763481215738015,-12.427411746664696,-16.32902009851533,-10.710415556216082,-3.297044180823055,0.1261161235841992,-4.923852755058771
-1.83006148972601,-8.45148529334195,-9.79056212335063,4.496799719793355,-9.253572626294035,-2.611061108035032,-9.22594486946823,-5.721369428917411,-12.687690389516357,-17.658645500906896,-13.673590488951888,-4.874707738065809,1.310665262365731,-9.430943028955774
-1.1906091915694603,-8.90584052533477,-8.873947490076574,6.179690916711673,-13.2828197891428,-5.123072645122172,-11.827491291284431,-7.913335731897332,-8.085835580557989,-12.2849489530667,-12.445756476069873,-5.138454892686467,2.780376013237145,-10.784121179421868
-0.837799444969524,-8.673046550663344,-4.3229063290861305,2.118594162797792,-12.59196544593962,-8.72453825082333,-12.900577013661833,-8.147286044271848,-1.5544985484596978,-3.0910755963584453,-7.62681699416982,-4.289828364595251,2.810712765163604,-9.306302026477836
-0.4107040115443587,-9.458277233074403,1.1046124266910855,-3.039298343593816,-8.304318509853985,-8.5235820265919,-10.857393179959866,-6.413657411900149,3.518103382351793,5.344137949812438,-1.4125546834853535,-1.479063636855343,4.47917343012835,-5.130315881359126
-0.0201901838030485,-11.324703614009344,3.639680959852068,-11.299300277308255,-4.679094760846901,-4.034831391749592,-4.43205381365524,-1.7014653065224323,5.067785902777624,9.267374670925095,3.5982770388178427,4.026890429108261,4.197220969237444,3.207350542513612
-1.433399521055969,-13.604603624307988,1.3556431523761567,-16.33990202897686,-5.747368260439618,-3.6269888903573086,-3.924619232192768,-1.0968684436205776,2.9576862199582443,7.515241776637064,5.283283568338474,3.885675984362128,2.205468122602848,2.8641752373792566
-4.800176392202842,-16.728932961524826,-4.450030911553528,-17.38357496519542,-12.001623950489815,-6.542654367696142,-9.25713664184041,-4.741136847385091,-1.5380080575578958,1.5895216485009698,2.503378963019236,-2.114026990624988,1.3334121801072296,-6.699196069723833
-8.815979307325772,-18.73782035622496,-10.442571271367864,-18.582778198478326,-20.0811548626612,-12.902966892138384,-15.776699129778638,-10.154213013957474,-6.651444456469637,-5.679394738338615,-4.42548023767494,-10.749515548140854,-1.552781742388286,-17.32855455986177
-13.93319022862813,-19.49077421660416,-13.90958774519178,-18.2390531313336,-25.659552719823363,-24.6154894173806,-25.79327812316857,-19.104222398538315,-10.88024288518674,-11.813106006441856,-13.498095888967022,-24.117869947382413,-3.117443488436003,-32.0302162576
-16.488834758372654,-19.6413445976778,-14.648643390752676,-18.45986994851121,-26.82936401717325,-27.697014830841837,-27.23025852749662,-21.145290752642783,-13.489690030093431,-15.733961487055767,-21.707095467854955,-28.001955424480894,-1.6979359897175748,-35.99671714118099
-16.004547675058397,-18.64629406877078,-14.636074783417534,-19.62344278855367,-24.988549936393163,-21.795344453209356,-18.85220757556868,-15.520887369648891,-14.749738096961522,-17.820648668992803,-26.693713800731928,-21.23940900723646,-1.3589223060941813,-27.154139042566012
-17.138211188387242,-19.705941349324085,-15.957043564607412,-22.19384478635662,-22.769984502978534,-15.844530140084869,-12.997344015727052,-11.963717566461057,-15.667253008507648,-19.15575360484923,-28.14970414193581,-15.786155874922564,-2.740636896572312,-22.443162240175536
-19.088923455793815,-23.016885815794375,-18.828313007311237,-26.94806398577851,-21.36124549368496,-6.725462867924125,-6.946976034749424,-8.192915581720298,-17.066269145673633,-20.43258330393249,-27.53840305916984,-8.315115535061896,-7.907072528216834,-18.40600309167204
-18.91841912745264,-22.488341134448756,-21.296548738210134,-27.314787072836868,-19.88964199908837,-4.267399831814609,-5.280414097071599,-7.760517720903009,-18.534258818150967,-21.153277217034077,-26.21870127339742,-5.982530344966697,-12.655762729533858,-16.44575825790938
-17.153105223512245,-18.478954638103108,-20.74004630940764,-23.20844057095601,-17.207354272174403,-10.195054161886354,-10.325399094669743,-12.428802234608812,-18.303952565869395,-19.76524051287952,-23.861218748223333,-10.930442363160152,-10.396006500995636,-19.395211439876917
-11.10994857276144,-10.592167358745735,-15.938477054256207,-15.37183287137703,-13.874284154990129,-12.363815195586684,-9.255313004132804,-9.665829344513655,-14.6375370892788,-14.927678574016374,-18.991513125773128,-9.698277374732443,-1.607446084594523,-14.968927082153131
0.0487089146147425,2.7091467039421824,-8.183657588435725,-2.023557954079782,-11.999990180788805,-13.123222420530029,-3.2379950198800853,-0.0790157003896647,-7.831877416266376,-7.154529909942543,-11.307919987324873,-3.97816052614661,13.615813354494136,-3.752817584119655
5.046973563883491,8.23773758279559,-0.6994769779768752,3.765525400879688,-12.960942430043488,-12.023512030829057,-1.0540605271259924,3.568727893366308,-0.94203308337703,0.6194048769436158,-3.295225028853149,-1.4852989185042047,22.519296134567057,0.7606615949292022
3.930952642860338,5.607726035610429,3.2030890055981764,1.461412622025136,-15.396066081710533,-7.028323358967126,-0.7795585566520707,3.054360988505313,1.937592406145601,4.4985892271425385,0.9614664809478874,-0.2985789568214779,15.936498106929315,0.1671956481485055
0.3994493186805478,2.3880893368716105,2.0527071243772284,-1.2855854348933953,-15.806757084677038,-4.771177954678683,-4.971127733480095,-4.780255090475601,-1.1883401091571455,2.377801079167355,-0.9179069545824134,-4.434283335406371,3.481012310767269,-2.5337110206630027
-8.267527237868167,-4.493586583109852,-2.955048415886946,-7.580079777192533,-11.551298292097886,-4.75528481179147,-15.31338463701914,-22.857676238808622,-8.305181683049245,-4.204543308321682,-7.252656221574636,-15.453909554789623,-12.486022606260388,-9.938005542623117
-10.56908749051366,-5.8175487114494935,-8.724683923733163,-9.53049192161436,-3.527006169704471,-3.3304309522523647,-16.860343433195343,-27.94162420834444,-14.618062055577552,-10.919389482591392,-13.348114167501494,-18.335442948366342,-19.616978232272423,-10.403132140308031
-5.832222178118461,-0.2799635408417483,-12.126685803494508,-5.972042874610718,4.096129756814118,-1.6061500469804544,-9.663621120626368,-20.112045497116643,-16.13601187062197,-13.790036164283896,-15.197237363381143,-13.462360224416942,-9.57068787311149,-3.2957906360785385
-1.0870121679101754,1.907520392576824,-11.74719434754483,-4.852740426286983,7.075570045257942,0.99983794990409,-2.73061277927649,-10.600443380854555,-12.613560567051,-12.06875335228428,-12.480634852685274,-7.820611443738197,0.6388193836104579,0.2831870401995859
6.430352699614698,2.884402259324521,-8.37961060244865,-4.253739600004406,4.485452352137319,4.962260932918534,7.100473553836145,5.780319662833715,-7.319609393075503,-8.368897285975937,-8.169727143596585,1.7974026375792282,7.82055710262223,2.701431949787204
8.601349836091668,2.612791575760144,-4.036252252069687,-3.1977248988045828,-0.6606288548343908,5.020439327439048,9.05428737678752,10.21341423534312,-3.937035452897384,-5.990215495232043,-5.3479438701791295,4.449763749591512,9.251577305123671,3.2617456102353617
4.223985360856735,-0.4977800402111435,-0.3879709450603208,-2.667426745817355,-4.022258710576441,1.0160645301243192,1.2939106546772734,0.5636331360960829,-3.458449035823186,-5.925067123814085,-4.484177957681727,-1.1392401275052224,1.795932854464828,0.1554373372113784
1.3557709681216903,0.0759942191590653,2.073849637693101,0.349012331619968,-3.412891675223907,-2.992020504471593,-2.7163508538410497,-4.650484445229879,-3.823984877469755,-6.281305827283063,-3.7122756359942,-3.379328176733606,-0.3583784269266262,2.044787737718267
-2.0114799220511013,4.186251418462224,3.6151957592571335,5.963757883752612,-0.1730178569726348,-8.13134332839209,-5.51783111894807,-9.784518901751335,-2.409439576625939,-4.532963206842961,-1.479048248201348,-4.729310579693474,3.921192426785721,8.703045219896719
-2.4058634214596637,6.123927558643098,4.2748238129878295,8.111434377156238,2.5090464581973,-9.307344464968349,-5.450426923306657,-9.398519496164418,1.1516040266525105,-0.3256131717253581,1.4501391496556586,-3.3599137471160585,7.807638386104607,11.734640368956883
1.591390931024916,6.97521080517703,3.533283309778593,7.03202484913343,2.593795777181999,-5.506520626149328,-0.0972585351396765,-0.3160846161703079,4.510197038831812,3.924098201110251,2.796095674036696,2.709931361149976,8.879135933543996,12.494690059816287
2.9274657842817624,4.3041860094784905,1.078529387349498,3.530046521297071,0.8423436025179498,-3.3988941126702805,0.6039920121640573,2.682312504970593,4.890754835391928,5.244181413065409,1.4638098268389932,4.894328240514021,3.8349355396934777,9.468152717381464
2.567885440025516,-3.1299285741240754,-2.203015203747832,-3.872426462660604,-0.1048023520720597,-1.714628859349922,-2.6420012492304408,1.2137322290205617,1.917425091133968,3.01185463100213,-0.8480163712914077,3.839823228665869,-4.846850323970514,0.904586223792673
1.969570157687227,-6.3772135702262505,-4.335530500485518,-6.94273732997298,1.8444538018094685,0.1677452308757393,-2.67812873308579,0.9504347244062854,-1.7296830155809817,-0.2972477853196391,-1.0105314094479532,3.5360308340940785,-10.77933285762936,-2.0004738773686364
-0.0815589578235565,-5.857982177513948,-3.754412069623438,-5.439500598621431,6.48137573558977,1.2105359780395006,-1.0444825235998167,-0.604750882265497,-2.549043306253349,-1.3482062575621274,2.4223966732386764,2.443118629371104,-11.313720358866732,0.5440203027079309
-1.2132676073902544,-3.950509565118694,-0.9026610365626696,-3.41353334800415,11.576229614116116,3.910737210650753,2.889726085971562,1.4838029555778431,0.6015632434513769,0.8816760060772424,7.484899123850933,2.752188557429877,-9.697373116189445,3.0216826769303418
-1.4203840560210048,1.316169874828354,1.834390408659836,1.0990916984082628,14.738492247349749,8.166419408485663,10.352729202802854,7.966698212617525,5.291683813524596,4.086834118135517,10.346206892920858,4.960324168831787,-11.344944994502663,7.80799425046456
-0.427874522505215,5.621373494337451,2.2296303496443386,5.978297668215537,15.214744469238164,11.066749706848713,14.42799099390799,11.516538416018896,7.552325555869096,4.941606383777735,8.852249807232145,7.051655115303964,-11.343356794389324,10.769832652656987
2.405642735023547,8.957473112988994,0.6432094373448152,10.999850223504938,14.25131438527211,12.907238709993983,15.210323782483538,13.077932290944297,5.542242634907915,2.691065064036636,4.796091286911601,9.646475536467731,-5.678044048661505,11.278327709512842
6.95031361980364,14.981264297088714,0.361900054286739,18.609098563506095,13.931713987380633,16.514205569279863,18.57034310171098,15.460464616641069,1.5904031620901389,0.5167478253221809,2.7522525084584863,13.942616673113648,1.1108010099353016,14.888210133689611
13.636022844500893,22.9424917054629,5.046205739589224,28.425018007060547,15.551220217101848,21.525244240903685,23.28117678436859,17.469539517756917,0.5578666750050907,3.01775556392899,6.404979446741383,19.87408691761782,16.387813329465637,20.761529638344047
16.312768107879958,26.719918915711077,15.166773775918475,31.907104837397817,18.771109091513857,23.66953357180373,25.134831996955175,18.4143389862095,5.648249075895476,11.79715428612073,15.48199142530376,22.49846765510989,25.9343293791982,23.41722148629932
14.585746938028157,26.281823825255675,26.580834778799986,28.635142761456056,22.03492665076845,23.1078209474202,24.6508993472983,18.37464079244348,15.228585268931742,23.18400513052,25.78402797638621,21.63419847631758,17.232268630326796,23.34368254669397
11.07554972848444,22.16367109021613,32.889858943390635,23.455218565210405,23.758172216156822,19.63185468886198,19.97202704189081,14.999962881093357,23.602141296540463,30.475256759551293,32.137327350385604,18.19186760311765,8.527364142935792,20.80162504747448
4.120000003635335,12.64952489686068,30.06046519837461,14.211334703150465,23.36214740674928,12.096237102959668,9.965605795806898,7.844977910575232,25.34913252520147,29.090772092330138,31.855120974091783,10.771105655673454,-7.708520899002301,14.519158404636748
2.459539885901277,8.595647617122408,19.716838837848307,11.250791207912645,21.51590138448275,9.714368979898206,7.025090419548459,6.500074885141399,19.70040616586204,20.346913200078628,26.23280946879634,8.894314899164756,-19.75179589259293,13.03624570242054
6.763373661567337,10.289700374778707,8.395674373172646,15.75015287057214,19.59154966852716,12.730272045902556,11.28266995070876,11.042228095406822,11.28596962456877,10.655735657288597,19.38758013046368,12.990256101082444,-11.721223110165914,16.60217435376862
12.382300735427371,15.04076989963392,3.197020314557907,19.834520326437005,18.79990267474284,16.588261961813824,16.98691655305413,17.49735204872269,6.649481970931511,6.819888582187521,15.62111414522515,18.095423392510547,-5.306823891165836,20.77336647226241
21.59673284917147,25.70474350617406,7.042142470037343,26.170029923549627,19.51502880379948,23.492428736032767,27.04840084593911,28.17216618252635,9.403536089042936,11.212396574723044,17.062802088709184,26.55231081604496,4.3448995726088775,27.573578028185715
24.35344663476003,28.99608083833873,16.930496143535166,27.242948226344662,21.06629757633523,24.690948347004166,28.75875440085622,29.684980098500564,17.792916437528042,20.412839199205848,22.68527002305945,27.24278035050372,12.31555827110053,27.50069540612274
19.643830971386315,24.433885914450105,26.20328104036411,21.64381971450504,22.03589053636696,19.272330729361705,20.861331454685985,20.86186886402874,26.193416578597805,27.86971333879666,28.8369844259854,18.984718156137063,5.559045758307641,19.494864145921937
13.524199884092754,16.232587536365592,28.93585656390292,15.494001375557447,20.950367854492185,12.727724749316405,12.33694497774187,11.852901833629502,28.962028035389853,28.21786546879549,30.91650942888377,10.59974675467054,0.6200502654318617,11.132886099131504
3.325297657554722,0.9533613488685128,23.39546434829953,6.632985879179293,17.124275879592872,2.746930854934246,-0.0405060092345329,-0.6172928107305575,23.733266495119185,20.25470764623399,25.63185186386498,-0.6918100718568108,-4.598282164411439,0.0156957044133592
-1.4447343428254282,-5.5553916116188375,12.5728012750032,1.8720008207852483,11.25673007985502,-1.833957480673993,-5.6742416137307625,-6.1658322972312645,12.360288167906162,7.156397108121629,13.040176236500711,-6.05005759931986,-8.64271376230144,-5.812294375005965
0.324252224585234,-2.462628540427039,1.9412287728054167,2.333574164429018,5.325073775287967,0.0766204541144784,-2.850044646003821,-2.796560095757437,-0.3596506429262014,-5.526079489505179,-2.7344357540736066,-3.728268601185701,-2.442877139541504,-4.8130035910802444
1.890375588045346,1.6130429881143296,-3.839389793480752,3.184403661402957,1.5787465911475884,2.765417171460398,-0.0097414232370062,-1.3057021598627463,-9.043793642497311,-12.674440903164076,-15.013273549854103,-3.402429596973594,1.329743634399167,-5.462568393147336
5.739324284450484,10.54948960682004,-3.349276862511441,6.3799744801186735,1.037774433817825,8.641247882087955,5.781903638251627,1.0981195784984077,-10.2034735735046,-11.988632557113029,-18.104869471493597,-2.718481750554705,5.011679714130439,-5.608237555689065
5.63676072642843,11.472220015335523,1.1412342954348895,6.084302819234523,2.4953355641505954,9.919620587940177,7.739356015403915,2.706182923482019,-4.141018591220469,-5.131148155723015,-11.07222118005942,-2.4482387162416925,8.041094259354681,-5.926908140071743
0.5170272026564587,2.8863983634454278,5.2090013415146,1.5067170274294204,3.013114246921406,5.619393554604647,4.547166526371069,1.995561661111397,4.690114031163292,2.956201310864948,0.933511929354884,-3.964589759376493,2.5328560888408687,-7.569269203206531
-5.224906666273125,-5.978161832817561,4.921158499690584,-5.845792271704122,-0.034941736404308,0.199270341036706,0.0264137636110789,1.0420305153268357,9.78294199002112,6.658551529886861,9.384173048658925,-5.143032694170571,-2.3101813844872447,-10.094512516028468
-13.380297459070416,-18.459920084938123,-0.8147604346531647,-17.81746938875122,-6.691525211918847,-8.515962616479724,-7.949755927611586,-1.1606181942087117,6.70189623348813,3.1756462954029665,7.971499684203081,-6.656281886012223,-10.102176609671048,-14.204543176482632
-16.377111696895383,-23.509552152286112,-9.544819860382669,-23.828373741442604,-13.859699631862174,-12.405534343375098,-12.336317719871133,-3.40178729321083,-3.309074498805624,-5.29340751704772,-2.687423763805828,-8.251876253982486,-16.162225008305,-16.40839834563523
-13.272758041855214,-19.371395048149047,-16.753364545035417,-23.454634967237432,-17.357306433100053,-10.66757434747565,-12.608930120713518,-5.618052857760385,-13.438916932694209,-12.641268829326078,-15.064848996993929,-9.754230771379564,-10.797393333405635,-16.67624897066809
-7.901314834823251,-13.289172790204708,-18.73122962408355,-17.797173588030255,-15.264062084045817,-6.965111487696584,-9.495736056363418,-2.726950019672879,-15.979339219186691,-13.052437971920089,-20.05053781494616,-6.909790783985211,-2.6461702794938486,-10.282509186949795
1.9235016482805325,-2.0588127064177284,-14.956331689658574,-3.842232875588782,-9.757868089660407,0.961874602916188,-0.8926824389587876,6.124411517511146,-8.398064752791221,-5.451841987257354,-13.838051267973237,0.8593401864009425,11.539656758959485,4.223994361977421
6.524422395972603,3.3465445196286963,-8.29330553391944,3.3300372457503995,-5.558620445544964,4.340681771269156,3.0789620558600115,10.029409443791018,4.253432008906162,5.408242616354604,-0.8921971322121536,5.379112039459087,21.83316985129904,11.077259751700804
5.119259052044254,1.6719961267108865,-2.8530295795992062,3.596690051162165,-6.015720080864178,2.5658309900792573,2.3971152981940307,9.781585903347391,13.070800303134112,12.42296556324209,9.608922626057298,7.33995154142457,16.26212174279342,10.810132568803636
2.555607636288341,-1.2749891637646082,-1.1325498937102862,1.6443083875575095,-10.208139275213204,0.8259858327904357,0.0311687535042598,5.0392619197237005,12.33906629487203,11.527876121292472,11.059545443445309,5.737329853620058,7.348980563247816,5.867387989952673
-3.729852523533504,-8.545514229008964,-2.5909967018267093,-6.209730818211471,-13.776179667274416,-3.048948756650093,-6.470440048553568,-6.802791166956392,3.91162381913853,4.564888655454563,4.397227927501028,-1.4065397833324187,-5.916380267378495,-7.55475162239216
-6.288297854292588,-11.512789318850874,-4.591889186607876,-9.073675898120989,-12.872740712785554,-3.2190824699356897,-8.17270887491607,-10.939281763398132,-4.8221445881259,-2.6980964785500507,-3.31311142799367,-4.229902299704835,-15.485727174095455,-12.580538228738504
-4.49004491924304,-9.456354086620266,-4.711057985736122,-6.616709705432799,-7.676074681951896,1.1078061704451916,-4.72155394695117,-7.391545405024666,-7.403257712158531,-5.472525300960884,-5.2107459027475365,-3.095916749955634,-10.37227751872051,-8.931499842891157
-1.6049651973578976,-6.073686475843986,-2.456651721821096,-3.6967767042184296,-2.246134354469495,4.366496860512706,-0.806908611985484,-3.1858555174598706,-3.3871928369181017,-3.448827276874196,-0.2908220385111626,-0.6953853309959639,-2.696587833981165,-4.974447331249737
4.3627335810707,0.9470235050581772,0.7861333126811179,2.263063280654858,-0.9033689687547248,7.975622836275125,5.686030658085583,4.978924069951558,2.150588026900804,-0.1765215776733084,6.281057464644526,5.165167880467359,5.579419879998299,3.150879216473475
6.520256167238234,3.2058508263576453,3.153907832132715,4.2848135585367375,-4.5092631017656775,8.468660352482619,7.3507889694109,7.181308457566411,3.596801827277956,0.5137782071933898,7.965720276962935,7.280418230077303,10.589613378519717,5.819099960921559
4.407379736869519,0.1518083411426554,3.681751591903371,1.7713529603429563,-9.963594661643333,4.771975973208072,3.3308064278566807,2.3093058738882446,-0.574470121697658,-2.43734732039238,2.31079884719434,5.3876137032117954,5.188002007393585,1.9050431762688107
1.196549553763545,-3.700041856596111,2.703331649457464,-1.5579857154983014,-13.097249329197346,1.534874599600902,-2.2750523345563174,-2.280606501959492,-7.303977776479495,-7.130473610668606,-7.366050814299886,2.2246367363960284,-3.052424715805735,-1.5350423484865006
-4.8914154062227615,-10.451017029852595,1.359769737602429,-7.501355391282739,-12.079805569391423,-2.2843312652896994,-11.515388272716,-9.09888097431742,-12.12819212981006,-10.775115803091465,-14.877163575463715,-3.9984443907016174,-10.559568313003831,-6.941181903534075
-6.881520590951986,-11.61149401889134,0.8462959640966687,-9.80506217562352,-8.346703276164021,-5.351547223760563,-15.752661828871029,-12.443702506854848,-12.625584737175002,-11.740890923742748,-15.811711614740505,-6.835489652161504,-13.14167742607027,-8.5990392093604
-4.201097530252223,-6.263881339971554,1.7924572733110598,-7.834269070154171,-4.682036372775844,-6.86772426787072,-14.154888169854749,-11.145896404058734,-9.43048112630177,-10.119681504380832,-10.351531608886711,-5.887311347082447,-6.370435693886142,-5.382874920403364
-1.496796705839574,-2.073762255609699,3.8316263223059295,-4.68437668775816,-2.6847903636642982,-8.008452663866649,-9.691393946264231,-8.433819175462528,-4.929404423998877,-7.087292185660944,-2.69414848748114,-3.483831491516524,2.840659060192155,-2.0381392623081664
2.955992628800963,2.9798433446642245,5.517719294493821,1.3609875654068286,-1.9825236195445424,-8.112403812799991,0.1373196580105125,-2.487730960713704,-1.4819131814709046,-4.081309991411851,1.95553306865024,2.090120419139965,11.324782572530935,3.0807331087496186
3.07719548356366,2.576206925985341,4.954184973344718,2.561854258831844,-1.4819560967440637,-9.800341759674795,1.6227371189031263,-2.338044423179163,-0.4483113354512174,-2.262565680186132,0.6531031731676098,1.7276754810644006,13.114905422192566,2.733941345036001
-2.0535535817320785,-4.892433490938765,1.111821808162082,-1.7393453644626415,-0.9707466821594544,-13.258121653580456,-6.015956680319254,-8.728947644766311,-1.961138979963497,-2.137287114851828,-5.650832668189242,-5.166060566714587,4.877255660006468,-4.165629774775595
-7.261209293885292,-9.417472141076054,-5.060870255345064,-7.249679556979225,-1.3690376218163731,-19.51042269642376,-16.500492578630233,-17.589275500552088,-5.01974150365867,-3.369314512448403,-12.94672553721489,-13.211042221918422,-3.0611347483108977,-11.074593158496034
-14.16557158621958,-12.567155267838029,-10.920102043861757,-15.99623404710032,-3.5604043063169843,-29.474036131472847,-33.36345257529373,-31.375860590054533,-8.016471679676513,-5.1216152293843855,-16.991992963665187,-24.67050406975577,-9.032260938333645,-19.896218428141637
-15.404459271943116,-12.070824332107724,-13.950076474740705,-17.566148424108828,-7.1694671340388965,-31.63485775482538,-36.07236170898801,-33.035111113655184,-9.83608353228718,-6.887665122076795,-16.376235398141212,-26.444373815931872,-8.507446493397012,-21.06581436306934
-9.733415701613414,-5.853366477464024,-13.683349358609291,-10.868795469567909,-10.542867828483034,-25.626813113504525,-22.801914738267943,-21.104200563963506,-10.805875474796188,-9.005923322186767,-13.56730995252471,-16.992034618094014,0.0138996520446613,-12.897417256759468
-4.7333037967641225,-4.105439154066519,-11.873215391412582,-6.290254848099538,-11.888449686822042,-18.30213324614374,-11.479354282231474,-10.57154410443803,-12.29615171232457,-12.051517238641722,-12.784505231334492,-10.30199639003368,3.1868325869923524,-8.26485731762761
1.5176358507872183,-6.127161736944068,-10.60577336264604,-1.447547684915147,-10.476730164830435,-6.967099507098657,2.692768008624069,2.52890969406774,-14.867706550376214,-15.45586943541372,-16.037574233485305,-3.361907090797693,2.2336863942134166,-4.934099098469948
2.906159896347312,-6.660862215742021,-10.15143999675801,-1.771741187873285,-6.947778504172304,-3.0154632886012585,6.493515294705066,5.951470552254079,-16.70578665248481,-16.869740640669093,-20.649509375835827,-1.9776376215788225,-1.2104978882332411,-4.362535251185459
-2.1719058872282946,-7.531618919428739,-8.796667731392663,-9.328343438076296,-2.725052570945122,-7.990508421141619,-3.650668247140064,-3.4428478904838977,-14.436639704341268,-13.464981015907847,-20.892788470515804,-8.884953172006584,-5.798221380022152,-8.962619188749468
-4.158032176111256,-4.0983290714197,-4.98847857672903,-10.036984178735567,0.7711318176108115,-8.069143008862607,-4.237743334864565,-4.018718483644813,-6.304600190223855,-4.541376146927163,-12.96224049571031,-7.834648613545802,-0.0594710727275158,-5.491764484095479
-4.611061752755142,4.584030025442263,0.3298889387717842,-5.041453137370412,2.569149752772528,-5.783439826807882,1.6223706827746167,1.405187199700112,5.058000456278062,6.823815821239423,0.8369009864060502,-0.2058114626394747,10.28120599525441,5.730830304044248
-3.895498683752672,7.68844397900827,3.757259408394829,-1.185227440009113,2.2855193420229707,-3.2110018167198517,4.756585083387432,4.049911197814772,13.390581275551762,14.998120177816244,12.767764073481068,3.241793197328706,15.584097969657218,10.02188326289291
-0.328295582489746,5.858417972535644,2.211445391482137,4.032788026814924,0.2270097419547241,1.7998362559924426,8.880482105709342,7.333650408868949,13.272945605641231,15.492090991946094,15.324375299198628,5.0499899753763495,12.734628489678691,9.294663154017307
-0.1250768943532426,3.4872566463992083,-3.967643519366514,2.6279065537684296,-2.5765358155290654,2.612817579851939,4.874181898388967,2.711049717526795,4.788263403833407,8.412536827473813,7.394411791139133,1.3269943621627782,-0.3720106123905908,2.807682990794357
-3.139764783333721,-1.6018739233456296,-10.613010845187857,-6.769111514311888,-4.728134524421611,-0.9277043541160428,-8.800186946487115,-11.342190366832796,-5.895444353522152,-1.2463647354274414,-4.47569162324587,-9.962179966299844,-14.542859180437098,-12.560980105511623
-5.115301301963035,-3.780720635028332,-12.765832311288312,-10.71193842175331,-5.270314643546434,-2.142905142970134,-12.98153008359088,-15.001587522970222,-11.030256019130508,-7.061374802010004,-11.132535477819175,-13.662221404050904,-19.030617570416226,-17.990024687667702
-7.197713870201457,-2.448521587724619,-8.75409119200021,-10.723980127825316,-4.4096266045984045,-2.1981494769782346,-8.964022727013456,-9.337683242354334,-7.376269551594825,-5.923845773654199,-8.103593355301099,-10.34942867735605,-12.5215843366014,-13.4428329261805
-8.025229068604911,-4.43400408026447,-1.804011915358432,-8.661357659559648,-3.433267270478149,-3.2070561913288724,-5.781716735372571,-4.40937598269934,1.225713587579886,-0.3678889200693924,1.0007847610107818,-8.182272668094123,-1.1222936963680117,-10.431331278572708
-6.909468129780255,-8.61750929220096,2.3467841391902,-1.8720973710281683,-3.693930892983424,-4.184006165393638,0.2058447465822298,3.632708640118625,7.015909571825125,3.4741444077137875,7.755860604698606,-4.1681755548019455,6.159065629830201,-4.979377477329763
-6.578522947657216,-10.872868324381184,-0.0114108969811148,-0.8776530761962053,-5.428725134438521,-5.9598323620457005,0.6651943903245795,4.546920796220117,4.588272930272611,0.7964526679633988,5.926189113908446,-3.890937052114961,6.267949442864024,-4.134458114986003
-6.59101427444401,-12.026220798130764,-7.564394649217709,-5.839661404590978,-7.444183661991119,-8.704897171116121,-5.780882104348793,-3.3986369077345984,-4.894119613423856,-7.946688788004984,-3.7192305223260536,-8.535421864830543,2.638835532775176,-9.584377732743532
-6.740364682263591,-10.44896945381018,-14.95171167564309,-9.476811555904916,-7.995236906999711,-9.60866385326266,-7.426134466661366,-6.260145682537352,-14.836352753544377,-17.261609884097272,-14.49413002785148,-9.811622131846828,-1.9577446781614136,-10.539615056551735
-7.4877843004282525,-5.2347887643814826,-16.86978043376368,-13.963568022075638,-6.145617719299889,-8.666908657705667,-6.023129950082351,-6.288228222923968,-18.499988984409867,-20.844146036118424,-19.35366186650852,-8.971914044840652,-1.3193142595839762,-8.647775543456312
-6.588740027441161,-1.969224192477605,-11.965153527221185,-13.07490750862022,-2.4873084770674545,-6.638197055847952,-3.1339070170491743,-5.030836829333256,-14.02278121984788,-16.444578376218807,-16.065112636685363,-7.097391879774646,2.13023262971565,-6.263059406086588
-3.9969449882115846,-0.2910944295239831,-3.5304373109544747,-5.373561225342158,1.3302118669962375,-2.817019789843556,3.3042118361955546,-0.0960522023476784,-5.339453804684337,-7.516587501619961,-8.08269426567476,-2.740810595787416,2.513982516454408,-1.616109853373361
-1.009068534745741,0.5578549202481188,3.2411411646379937,0.4466415397327662,3.819440417738731,0.5389954309083356,7.828699032529084,1.9876707530993412,1.283446808435587,-0.431317310072046,-1.155524256817186,-0.2375596713183803,4.339368903814595,0.9560977749338222
2.8767244405553347,-0.6647037875298464,4.999058197471653,5.95811288907915,4.632421606852857,3.3870809072548056,10.534563670843587,1.3744449916479982,2.0213203209283463,0.4279356914065566,1.0666865088382718,0.4304134793669984,4.0820140148829,1.2795772414251465
4.032082548370515,-1.1625328555667551,2.1079047381330573,8.017174737074694,4.587161510873932,5.500036666646115,12.24215857693788,2.110667411893265,-2.095555468670909,-4.177280880240624,-0.9300098501942003,1.0507628331279253,2.126603628845648,1.4325586747401764
2.0078554578228864,-1.126868548084582,-2.3336043302260734,4.822490605883266,4.823396628025522,6.228742232894106,11.651468985199472,2.977995212031935,-6.56051976734814,-9.231785594581766,-3.759754134050034,0.6672661900738737,1.701347807727613,0.3935752008377184
0.5340638476449068,0.4870558118130773,-5.016273683342601,4.089912477681251,5.826920226222575,7.230114383366124,11.068634243669608,3.985375349592084,-7.03208721915184,-9.464570698053434,-4.043092755547273,1.7948315224361924,-2.0470276746049074,-0.063714522984273
-1.257043320214155,4.405567093703859,-4.400310915773488,4.776072122809953,7.120888440722972,8.238736808058631,10.224259951944616,5.581923901006832,-2.3311795005764058,-3.24606866421846,-0.6568772323682404,4.64964523980871,-6.2877282515189385,0.2361080499405459
0.3557987269945037,7.906953971532951,-1.0492395099144591,6.990999970944913,7.862540278474827,9.024098633871288,10.453950797549895,7.921503358531669,5.192866920714531,6.461673479398149,4.962506819538636,8.247672934744935,-7.212344373422105,3.033065362905773
6.287206310958761,11.409820966687183,3.3280839058725853,12.2342057663836,7.80521937073344,9.846393017460828,12.329152286821012,11.222564566429234,11.754634092719089,14.51181564328795,10.216199945979696,13.2729622066081,-4.601799484750819,9.057248763131993
10.818635106940436,13.748127568574102,7.116458216818051,15.273398410581295,7.700783368692097,11.351080909954993,13.585829280916304,14.966180268167902,14.84240912675052,17.285023491541452,13.255331501153048,17.58665577394114,1.70542941174921,15.315141085853398
14.887876974615256,14.309925734430744,9.581141898310827,16.40812466282924,8.633442793687387,13.676075555820155,14.679414897699086,19.287380268071495,14.59657158155583,14.96413824609591,14.157887726265947,21.09242404435081,8.054716416282117,22.41156557047236
14.964817108149244,14.293204806415762,10.995210704784284,15.296509298897387,10.778898251938738,14.5784224680241,13.60534186467792,19.56828888185255,13.152881100026573,10.962197175130552,14.673324307825638,21.30599892738909,8.586631624951405,23.917895970439464
9.657623544232946,13.164168410761969,12.17078365069935,10.67429203340308,12.801166089646271,14.099080154972182,9.80771726512504,15.27496074192758,12.749908101675246,9.203072856064775,16.70352299257835,17.347744287993642,2.812013128136192,18.71057278385125
7.046112493931951,12.670456338631563,13.620563363789982,9.008633131671283,12.72640197321031,12.79121317660404,7.558739104067614,13.44471154749428,14.080712091634323,11.293391645364236,20.517694036880872,14.472572036249026,-3.181164683574436,14.294338355948458
6.2202539590467705,12.995682472901766,14.844700236194628,10.16196036604433,9.77199426162978,10.1117867764939,6.439303898713175,13.20718602647356,15.925500906567216,15.453646904854804,24.02683103869541,12.017839299628946,-6.458969316358547,9.02394263586109
5.879770464572975,12.036521403007242,14.393117233667358,10.781640484458425,5.47843247427877,9.030144871934915,5.983607033448482,12.65058486960596,16.09166290437295,17.797785203771284,23.88393712298766,10.138372342930422,-4.608058806313784,6.467310041686414
7.576068762819628,10.147265514011288,10.94835565806397,12.201524980188694,2.827785479901205,9.699392807615224,7.078460273418036,13.03279380855034,12.925653028386703,15.090746259487098,17.91257869910358,9.90695724709986,0.7093329033317598,8.108515283168954
4.42834684206469,5.664825851459521,4.779614502605835,6.720449880062748,3.8042269495445256,8.253254185721348,3.9238662053343054,6.587090307826575,6.522884099249762,7.24488697238621,7.2276957459691396,5.396972740339586,1.2596344566643851,5.211551155869969
-3.7937234810832,-1.9619489017549063,-1.6989963212237882,-6.641068885012826,7.480231698241584,5.189708881527736,-3.7214461942778185,-7.345298459611867,-0.974188771208116,-2.120964015683766,-3.661918999448556,-3.376788249379147,-2.5154889750579765,-1.3504146231811096
-6.418727548335229,-5.064710575868547,-5.101759046719245,-11.472277044880007,10.504154914984898,2.763895074669186,-7.481344637083075,-12.884380728351037,-6.250582429214616,-7.708416759716723,-9.257458194992369,-6.922314631044823,-6.888545792438508,-4.513260458669662
-4.3399246774097255,-3.619074997807405,-3.4391350920507726,-8.743255709217307,9.784628610027587,0.4135938840481389,-8.218737606435889,-10.893856628497453,-6.667793815768645,-6.1446163726910505,-6.672580130955683,-5.868607077539511,-8.178710958436904,-5.4361087306582245
0.4349930663284237,-0.6554131715213946,2.0954415089692158,0.039654788506414,5.084165287598534,0.300326208333651,-5.384607347609328,-4.52230368863721,-2.190677069441392,1.2534516199007069,2.006916528750293,-2.1689144283265875,-3.745657416529709,-3.345416957151143
10.175164892133443,5.655685502208356,7.601481654728655,18.73015932864629,-0.7860733059402465,2.9819329717027503,2.9257908908407986,9.841366540107492,4.05006963614715,8.915118558794527,10.581125724215912,6.282397081653452,2.073590201613556,3.2006661135818897
13.52405710891829,9.108653372245785,9.261980836351464,25.72109880533245,-4.301884438175126,4.277643396869712,5.975137715678126,14.311811601855275,7.537570104812165,10.940283306730658,12.75086895361515,9.68435869670494,6.607526542504715,6.417146498296119
10.002169415435905,9.258504465330637,6.477034287869025,20.51880425726928,-3.915259274744461,4.656233009896234,3.858998498059057,8.183941853833193,5.7249227641414455,5.860025870199924,6.787378199551945,7.651774245461693,8.158296839857949,6.488879562292942
8.964271978096097,11.59934902709901,2.685103243762596,17.393024510283293,-0.7377423258293652,5.978673788950011,3.460358089379336,4.165207295744001,0.4029818858972627,-1.733616780401709,-2.6902249812986927,7.793307466665661,6.880742033744929,9.285119500952211
8.015989485597506,14.784944107890103,2.7570340135924285,11.642385783392298,3.055039134204669,7.555846694393138,2.615468778113895,-1.693470320092901,-3.364477759728805,-4.627882117178274,-7.7943839512331135,8.017819416916058,10.39021224882033,13.396228058272536
6.752357045541808,14.436531519339402,8.675850536736586,9.390273916840291,6.172885455690238,8.513501586498759,2.7625985403058824,-4.264331533340029,-1.5283126600007275,0.80772702224181,-3.651985258894906,6.998811354000742,12.21875603507408,13.154542478529317
6.370258290769688,10.857514491963745,17.038448252617414,12.568945023344082,8.521409862883852,8.912627795435572,4.752427568253792,-1.736860605382567,4.821741637813136,10.818273814312912,6.828638279460808,5.525401803582529,5.832855208756185,8.828929661216048
0.6812773418798265,3.138735641701356,20.90177637387532,6.206143902175541,9.922092774505897,5.611411833220197,0.4987425259768772,-6.101533096333282,9.431027330111348,16.540739789632113,14.074334945707266,-1.0155771202943848,-0.8834904848152754,-2.1449313374930217
-10.492775932766708,-9.931545002029296,15.077733837209568,-8.634428767545558,9.16448573674456,-1.955886145776493,-10.04137138450635,-16.302063811380687,5.704511035536326,11.0103399126065,8.958382232399613,-13.11749312922674,-17.674491775905764,-21.53360352353949
-14.5963148275847,-15.689538132492835,0.8488781390797486,-15.94224147950303,4.932132075648728,-5.340295787596308,-14.500519742432902,-19.40833256308132,-7.273941344204335,-4.729536971231106,-9.15513293065958,-17.221298865627734,-29.211334484990328,-28.44692489751316
-12.120852753390617,-13.764112484808884,-13.948031595021384,-17.57700156100255,-2.133260880102524,-4.874024989848485,-13.861139284328312,-16.769856134573313,-22.74187421672229,-21.60033996666476,-30.11631368242196,-13.471505505949054,-18.37854916033669,-22.44969704971201
-5.771040760488296,-8.836986164271412,-20.07199265169457,-9.807352086765576,-8.641451073824623,0.3575381586889988,-5.087196583144536,-5.297844016748179,-30.46935346144657,-28.786731511804756,-39.20953614561402,-3.433655684174576,-5.17534759809009,-9.856170636326327
7.411002501297023,2.321047346874612,-13.60396385074394,11.233782599205668,-10.44178157114696,12.604968232794356,15.043487567284322,18.234495878681305,-24.22770557013086,-21.466013626100565,-27.88726522592516,16.432497658104765,19.500553225915247,14.71527391706298
11.92538249921867,6.339882526056675,0.9088979613784138,18.18632131950466,-6.110884087458578,15.652839697671784,21.52111373042149,25.739011330622816,-6.748539289496783,-4.118883791513583,-0.9227283506644256,22.7122762432301,36.94167764604596,24.05767359456022
7.081748261932173,2.387785386784512,13.429272804659622,11.40154844790469,1.211127833147489,9.35713398737554,14.41623114372355,16.969948094203865,11.70112979251984,12.701021869470669,25.870397327336008,14.568541256594472,23.636324908986182,16.687275602132626
0.6631830080553713,-3.669328905976233,15.386958005275106,-0.8953359236611037,5.698700458407332,-0.9771651676376746,-0.1323535214633663,1.625968439816316,20.092037762519432,19.33461456532492,36.12210030056156,0.7524412185936977,6.788611297192672,6.019248751279722
-11.138225764532134,-15.30695696535922,5.489822580886624,-25.16040926630125,3.260449203787192,-19.33486443695412,-28.32544373508682,-27.17169871632441,13.831069011614748,12.741507610321662,24.03282716514737,-24.723181346618784,-18.973310762691007,-14.802200584496315
-14.743183328262296,-18.813948219595368,-9.739490468658923,-32.2312155241683,-5.090791467388254,-24.60343758496214,-36.273061780766405,-35.58117278437807,-2.5586091311998747,-2.374732505233605,-1.9524758274441825,-32.97632527803637,-36.18233904958187,-21.253360894330797
-8.772499681887352,-13.15267345772448,-20.78274694279491,-20.4628693518915,-13.819713974592576,-15.399735484172952,-22.296758724150692,-21.330795184857408,-18.74525423474715,-16.97602356390645,-25.36155438075057,-22.030547550961263,-21.440125294009786,-11.022194736248428
-1.6858435136370629,-4.865955766440532,-21.527615329275772,-7.120665432152315,-17.04724543925123,-5.186313488228995,-4.438170387616074,-5.151637267186036,-25.22790216281053,-23.019187805072317,-32.902516664477176,-8.901414544153996,-4.490928359157143,-0.690990526897804
10.069641395977971,9.653869229349077,-12.69010783599568,14.846340925935827,-12.98304719295452,11.18369600558528,25.631805901471694,21.302213924637964,-18.768761576855283,-17.59414805043108,-22.42878478473802,13.619658353353651,16.203187206295127,15.921351137509436
15.02537422154521,15.407744148223804,-0.2924547995876185,22.18220744638001,-5.1011680548108815,16.92241508024444,36.217236293303934,31.003291728194533,-3.4022315608793043,-3.898761542567392,-2.450206299768407,22.70535244434776,29.344925153756957,22.84224744502439
11.715702013268052,11.120292407088034,9.037446090932638,11.743236474122623,0.7426865459605434,9.521479414527864,23.81825536141306,20.214118272591094,12.955839347161248,11.096413198028577,15.344003381906226,15.431355451343498,15.833071948308298,17.40401942733673
8.601423539644568,5.886435622655414,12.208400400026886,4.505748343138321,0.8214355816850194,5.423377012099578,14.746762410288618,13.507873584779125,23.507244716949785,20.742677930147494,24.16031978531076,11.87542804391395,3.996386257135248,15.45636307177791
2.6613058156971707,-4.129875809103064,10.546528121103766,-5.368510637511288,-3.8764853711087977,0.4137588042517063,1.199959229706919,4.078649752724398,25.865150512832404,22.159372820510637,24.880560437650367,6.359530446100805,-6.336480595915411,12.909506943989156
-0.4866165629079893,-9.74747587314218,7.552060259104683,-10.533574635017429,-8.800286748271196,-2.49491411957416,-4.887798096914102,0.0291520725612956,22.06142732008749,17.12825165634446,22.631320701116632,3.9073424447511016,-15.347151024447571,11.060293246464823
0.3206461482966808,-9.71455971224464,5.874015632617759,-7.818874931063803,-9.551895971466845,-0.8955427909011254,0.4874068159288849,5.0384085128952565,16.103657128655207,10.209296350253044,21.197582744585795,7.299605888878011,-10.278662191059388,12.036534262094596
-0.3124028255007658,-10.66531911043609,5.832378736339152,-9.238100283908487,-5.166910854453743,-3.801831980560968,-2.17920956565523,3.555021723113799,11.226308010723772,5.600885018064574,20.24931250780236,5.389635167201064,-7.676166091546718,8.864293518831266
-0.8396341728645283,-10.167655659648824,6.061351224783558,-12.425844913836109,1.4158580740093996,-10.116883669074692,-9.620270800672245,-1.9618216426703527,8.554837269108194,4.861599334385108,17.036332981454468,-0.2348312785877822,-8.513125781938873,2.2152345697581124
0.0120629136733629,-8.365256576194835,5.146795608796053,-11.075169579509865,5.762884417045338,-11.124559899652514,-11.169595754834134,-2.6653904446993053,7.515978537758674,6.7310523047754245,10.11626323541956,-1.271918172072027,-3.739205877969895,1.034020560430226
1.7943306272206687,-5.6906754870215215,2.8147090296221933,-6.414644478877548,5.220434296543569,-7.721838127663802,-9.157309491407169,-0.4391150089345721,7.179335211183744,8.752774358273287,1.4227541754313275,1.0370831287653222,1.2583514543586136,4.764459272270391
4.057204987954716,-3.158839763988603,0.0730934455467355,-2.5997480324705955,0.6614750749133229,-2.826627595846878,-3.041702531816172,3.586632376073465,7.3939874765686255,9.332007594088909,-4.902514401195502,4.403614883784146,4.730239068468739,8.351762991841632
6.927186715018732,-1.0493783179204046,-1.443881884332221,1.1204863593208914,-4.357729080971776,5.246537389144333,9.048711622005078,10.818032181250729,8.925779927942859,8.778299207433168,-5.530557389189891,10.287829789650283,11.361074011694315,13.500400687652036
5.595529185476189,-1.441941351299319,-0.4995055178552015,0.5085287971902349,-6.2205615334943545,6.400460394030539,11.264196186142687,9.62505254443157,12.467449137803172,8.639280081124301,-0.3230664409695585,8.475628083611003,11.16734358828104,10.463197442508775
-0.5075368429150774,-5.014895530564202,2.68214417707844,-5.666599367477227,-3.731492170708048,-0.3033229360981208,3.0855757376277464,-0.7913854422458322,17.177674007307086,9.796559050643506,7.341986402419025,-1.951148255894396,2.257552356538254,-2.235666035202355
-6.50179190576562,-7.188080482835575,5.849886736387849,-6.41269538251384,1.2156563846790365,-5.584528694436526,-3.616199071237305,-8.85111209628744,20.000010732797595,10.818005643298472,12.122093836809444,-10.628320959133786,-0.3273696635989336,-13.385585494968073
-13.554032508616784,-8.473642849130073,5.454398544872484,-2.4554634908187047,5.148900630518678,-11.780269946219136,-12.278830801190066,-17.01818208346986,16.844947916273057,8.229094430091923,9.287659516167398,-19.813038190036703,-6.460326233185926,-25.33231690396052
-16.59386164651952,-8.737953602075098,-1.0800173853498052,-1.7034170995227311,5.580030731164593,-13.49705997748584,-14.87728202591854,-18.713507580042027,5.467127683648069,-0.85222093907079,-2.541575251713155,-22.32862141686524,-10.33961892122558,-30.24038400994181
-14.420997222262406,-7.004743815547944,-12.764106290692492,-2.35520855479451,2.759838591222186,-8.95053669280559,-9.23744440454898,-11.451018595909058,-11.812060780107716,-15.380852403483535,-19.660762966863604,-15.856333685415876,-3.0877224981988736,-25.56180548416631
-13.188136433175544,-5.224077585276186,-24.41694758597385,-7.209304275207392,-0.6614109727297066,-5.925958281250484,-5.812536145991222,-6.8004142094096345,-28.008165285182997,-29.31801198141559,-34.0877036739072,-12.17912647237674,-4.145080938621272,-22.658524153156336
-11.474257696268266,-3.025923935347077,-29.35941999885637,-17.77996906386645,-1.7918532865864538,-2.8003569482441364,-2.343779082445965,-2.801056673383531,-35.002965766102534,-34.65188197530118,-37.6226979840183,-9.276465355015755,-0.7587438955101091,-19.1550530208424
-8.78044608449956,1.033474532561545,-24.04200672199724,-17.655314077817604,0.234426610300769,-0.2497638926205699,1.113063317829237,0.975078733849786,-28.83256721178917,-27.034582810716657,-27.372412593395246,-6.188485555866513,7.34863056532419,-15.300480573472786
-5.916959142859666,6.811223141818672,-11.036261605493658,-6.712440902029604,3.696760513658642,0.478350980594811,3.005927283608868,2.5566004817873966,-12.906529976510452,-9.779140672624722,-8.710790895158214,-4.865239311034716,6.449665833993755,-12.838119932813909
-1.967334820589819,11.55396028168067,2.3886045436125203,3.617700888137621,5.8317825314459775,1.4489033318643283,5.450750860498918,4.935755118685354,3.6985247103287584,7.474472280042926,7.502790115271216,-1.9513539629731875,10.86066808406551,-9.513149955864074
2.9060733188135983,15.319116135124812,9.315949188176727,16.766342211647576,5.091393054579937,2.047835534204384,7.868386779051503,7.506540665002004,12.098938658401952,15.06272808736356,12.2883658044539,2.148777727539394,10.866006166800531,-6.04840284650981
2.920426089974332,14.945129758692593,7.8420711679812225,18.973026924196933,2.175278142001959,1.5209119309017225,6.456743590476403,5.631642189197367,9.375007442643554,9.92438206884345,4.958616390426911,1.0458299342871795,2.7578531993152606,-6.813998726882572
-2.392096875566545,9.359791959001216,1.5845496518719615,7.574895639235909,-0.8946422718357017,-0.0374081168605945,1.0167833031593003,-0.7625434848330115,-0.1723082739274968,-2.686822689755566,-6.882900390199979,-5.296229239627374,-0.6685955127740744,-12.119199961306082
-5.962236846087917,5.381171518817293,-4.046646594866387,1.0691241564943437,-2.578313668910848,-0.6471961710365625,-3.618285003729131,-4.863902106326649,-9.10189476590432,-13.696726789780088,-13.949544796131343,-8.739491951213271,-4.626826884713508,-13.813807742524965
-8.960074088386879,2.2146257164556045,-6.229122818760206,-3.864273022885013,-2.7541552273394965,-0.290769357283393,-8.15851251878007,-7.342965754676157,-12.653358319056023,-17.077065168984966,-12.747947162259408,-10.279173743586105,-6.476651483932347,-12.495390473517348
-8.416067278113553,0.6998502362608351,-5.967379218296846,-5.230953323955378,-2.124952644079703,-1.3400126426251082,-10.720569375232245,-9.074350008976246,-11.456463431603735,-13.4947674952005,-7.38830592535898,-10.18413604597148,-4.258006495500425,-11.704233801285762
-2.728820789870937,2.334817073989419,-5.703664067175023,0.3511877033490685,-1.0751505933980656,-3.468801321543109,-10.167869923640666,-8.62149076141143,-9.373747037262795,-8.273367328084623,-4.59372191306589,-6.766715730675372,-4.816419332482094,-9.8717339955719
0.4684455320913216,2.198257172617617,-6.240060895327884,1.4885050081101858,0.580448571188307,-5.366432612497163,-9.586433663979196,-10.336551296217996,-9.2095698941,-6.187574392723306,-7.1646957508114575,-6.670311092638879,-7.3748818473547955,-10.641921866255087
2.08319344780299,0.8371385181876229,-6.135860216342329,-0.655677540566815,2.701986462036389,-7.377053015192011,-8.149621875608263,-14.124566495047905,-10.564108474372452,-7.899022779407182,-12.178335924395917,-9.737465998712084,-10.237930691138116,-14.516628342361004
3.5832783579710226,1.2457281148393495,-3.82623315476444,0.1132517757025359,4.022633647194438,-7.297996529272365,-6.136925249277468,-13.727594338903268,-11.37886752896588,-10.639015678874514,-14.971217901077488,-8.40226765133292,-9.420239964979498,-12.34405299489153
3.568093181059436,2.731516411696436,0.1534211753483063,2.053372674464001,2.7577799007686217,-4.7158550763443,-3.919724850508525,-9.603058209513817,-10.775918283651148,-11.57732136610095,-14.075790705807355,-3.5835476620508087,-3.000730926088825,-4.419250807484151
4.068564486912411,3.5834088077693225,3.3572322486880086,3.88931496522734,-1.599633190122585,-6.192940622508264,-5.414224646217194,-8.93161208022171,-9.819142741757249,-10.260729827509731,-11.876899025486551,-0.0377449722485594,4.023928789053626,1.1243035080075463
4.948748522286265,4.096076208737771,3.818576787776485,6.288888384309195,-7.072854795644752,-11.566405790615304,-11.275773678775623,-10.952060455052886,-9.627409964842077,-8.151122366576494,-10.90599089152731,3.352775986502516,12.082957564905856,5.827290185774281
3.907342168695165,2.0483167883914417,2.063861981438333,4.328176703762362,-10.142983138250992,-13.784457786364634,-15.389657175733914,-13.67347219088845,-9.47605543279604,-6.478881844240735,-10.511959549445844,2.5192486267152123,13.486627827561874,6.189840824791753
1.1356606759569965,-3.1326609270251704,0.597305724128038,-2.556942290582452,-8.418116453553242,-13.851624602629158,-18.61674644269272,-18.49368847447223,-7.465293196519985,-5.02246563837279,-7.886905503841284,-3.6972741493887913,6.270227086628057,0.4334823451921159
-0.4322518217727816,-7.058761642434845,1.3425991209319346,-6.967076789202715,-2.770827098414033,-8.92856733441192,-16.965001385052677,-16.74277719157372,-3.1703747765361854,-2.9523777065399024,-2.1936377746006386,-5.26226738521019,3.699385608988576,-0.6237000473377616
-1.0375871782414203,-10.21500923903432,3.596784649618572,-9.813932381263063,3.0864985359947443,2.69123510617678,-8.828027649278557,-7.731624272423496,0.8642785072329016,-0.4686671463380136,3.151143824223775,-2.894683902389091,0.5845425716002666,2.205827728130384
-0.5067801659841383,-10.273382395398905,4.531621381614013,-8.568580625649297,5.393302158904625,7.099291968134173,-4.38124053466834,-2.804536718912785,0.8901974735976026,0.8065977804424911,3.054734853974674,-1.242436393157372,-1.0079810724886498,3.720421420796992
1.872965568074453,-6.065334126964745,1.815599681613328,-1.439369075947937,3.1580510977254037,4.5881615580081085,-2.674724011697082,-0.3665200428044273,-4.430129221995491,-0.7173134805251156,-4.116320510659403,1.5697511908125703,2.657392576828633,5.876501940517422
1.9332982685288929,-2.072650773679236,-4.027305479284735,2.86457182230282,-1.3460240878249523,0.3158070316621625,-2.929714263674764,-0.6246820316425163,-12.109265338561173,-4.6613331727849,-14.033615809679745,0.3503211975263315,-2.233369478552131,5.483042754728537
-0.3106743769322309,2.541058563401464,-9.618848713513549,5.136658099427168,-4.635737945540551,-8.846105299009192,-7.30698894315693,-5.843712359688838,-16.66355489208742,-8.16791057139608,-19.221744303025066,-5.7034750655151845,-8.804212385936038,1.8297387170003936
-0.9184188658167424,5.362599585699179,-11.105454458555792,5.797615486088263,-4.659420360487722,-10.138569209335945,-5.474703602089722,-3.943476148395036,-14.212321379245,-7.533844717481584,-14.783374347670296,-5.55344761317772,-10.365010120513382,2.6496833186413755
-0.6131291842139032,5.416156939020524,-7.008935033316547,2.980715842614156,-1.8281993527515008,-2.570992321368683,2.6605739439563205,5.043053037893363,-5.394151231424896,-0.9428131281521636,-2.1020699964383915,0.1075554530784945,-9.522456749678556,7.52790622562562
1.2563791312202195,6.585965340225943,0.6130234696894732,4.114638729016032,2.0074118546256194,5.849689622261122,12.798046448339132,15.29245553912181,5.1187636326091095,9.67231300812438,12.287113813089498,7.944281156435222,-0.4495324705572843,11.415538291806266
5.4516144523190615,8.076300061905222,7.484878744987558,9.053982392822736,5.208715257685864,18.302279913654875,27.3494328418966,29.473658253829324,11.833229144944244,19.16334556210411,21.285527120440253,20.28015744852947,10.854518326064316,15.694499954707554
6.656102529301686,7.7319874169323235,9.917876998826852,10.06961241168958,7.022623137652129,23.21094891924403,32.28505719724863,33.858517531513165,11.856671653220396,22.14080247389817,21.596417081964223,24.31160965873284,14.4061402148081,16.314372458497292
4.906467668152748,5.922918868817142,7.1697316607604655,8.282654037953149,7.111429043179022,18.994892345525475,26.333218638396072,26.91979509567008,6.372760097089984,16.711879433672674,15.138945261077254,19.077679605168356,9.669579240120028,12.209909796075808
3.912184543012902,4.036829784923887,1.8017160294495864,4.299083893618,5.108910745617486,14.617960111998562,20.448573915792487,19.89234453508265,-0.3576567871373548,6.3762291850277855,7.294126670964612,14.657493332738078,-0.928001897460058,10.743254412565378
2.618469659005366,1.7858860774642942,-2.1768628998538624,-3.355839701115679,1.1258948921217211,6.997709415114228,11.205721226387777,9.330346105704448,-3.5982623243523832,-1.7481017284115126,3.5496145732411364,8.052904850937724,-11.731946881212044,10.991130021872143
1.957530952212616,0.0894969355432274,-2.104933465920343,-5.214061503097582,-3.3471336886644,3.960727838134592,8.197527978145898,5.672346147770768,-0.881142631478145,-1.7146918673070886,6.448939640950215,6.229424735243796,-14.589441829703416,11.398345939410657
2.466809891154245,-0.715261215180892,1.5537727934519303,-0.9204233446261706,-5.614272195833976,6.998352101829605,13.47464469265488,11.11130358459416,6.528606697228351,6.719588101136395,14.278357726666927,10.979445539116268,-7.674789136191424,13.296062051779984
1.1497811897518804,-5.221939098259994,5.751777315368461,0.1905968744567028,-3.619448587272686,7.529451362953002,13.687331072940385,12.696679243990868,14.333660694726431,17.520694721519636,22.16246097165629,11.98363037208236,2.7133699435436136,12.244826881444402
-1.7822876969699355,-13.466241565714624,7.306535281865468,-0.0490737069192199,1.8832190809789608,7.576723432535066,11.166521176452118,13.118133543349582,17.84603424455564,22.696090159464934,25.11236339119468,11.019605811108656,10.88874152781746,8.067817529702722
-3.155196013953783,-17.565378983031597,5.317683137582272,-3.430501750234028,7.08985092680166,4.802016374977314,6.800872506571182,9.920052550429665,15.006529024788115,18.35555147162556,21.258670682663904,7.797557707854556,11.378179559042408,4.9600822282682335
-3.338234252786326,-18.002394695094985,1.5920789856674986,-11.69741741092418,7.693358842537165,-2.222153918180031,-1.642150648299136,0.848879302315944,7.672733311981549,7.564521257438855,13.006990933578887,0.4869407557990983,4.113161067080966,2.06749771030863
-4.0430930761735615,-15.442687748195912,-1.1933896542123534,-15.62650428940194,2.4256408258925326,-7.320142235838817,-6.86344535648735,-5.786669305321769,0.1318706211190488,-2.4508640884850124,5.1059823805718025,-4.5158710937559325,-4.386609435037649,-0.1894000918175433
-4.755748920068373,-8.01890820537076,-1.843110276769849,-15.681446596139166,-5.519447116503173,-11.23377931936068,-9.028291995351852,-10.98229576623534,-4.054942016458263,-6.283276713983032,1.047425423616961,-7.596100026078358,-10.320758545423264,-1.0848946094685634
-4.073790886688012,-2.6636136251411164,-1.3057819359098095,-11.55660637647903,-10.742167648875238,-11.375345980060676,-8.78044849518518,-11.595381411299162,-4.3281009147241605,-4.219848737150805,0.7582942613895014,-7.739851562763772,-9.179384158926354,-0.3341807890784372
-2.057221781119674,0.7656076537318516,-1.109622291569906,-0.9758782166397564,-9.887554226432147,-6.233516897020428,-4.334022644685088,-5.641446335074758,-2.710400930029415,-0.7719502910735017,1.5209531858363476,-3.350985353710298,-1.9838050238470464,2.584726454252261
3.4764642902832668,5.946969255385555,-1.2925232293628677,9.611077636416953,-4.274450495940613,-2.60978249962898,-0.7301077932334833,-0.6711712522712503,-1.3194254278329254,0.3128795326705393,1.1319124711969053,0.276661764467293,4.09663102275615,6.827835183736634
13.13504589934678,11.479980914738992,-0.1302830093870284,20.902999932051674,1.393273068291144,0.35006856592792,2.3426334703625984,4.5064974091018,-0.3289942257165847,-0.4806175171014821,0.1928194548289674,3.775434632083381,9.707194818304515,12.719315267159956
16.594446285604278,13.900218040622182,3.852768898440978,24.536194056887485,3.0655212078069205,2.046346630875669,3.883801965555831,6.218050206572547,1.6533914157445366,0.2586876150301833,1.2778379466838246,5.047637187237741,10.29612468482438,14.554085961350363
13.748575669646383,13.091492355746231,9.589521561793587,18.34233910389851,0.563231834889713,1.064611346346611,2.6349287610018752,2.736207071211997,5.355778273625134,4.455676846276518,5.828599411349096,2.825252564171884,3.3550965202392358,11.716872510064368
8.290277692420483,9.526236332443151,13.473447526876782,10.280886086737324,-2.717681192826099,2.926748669349703,2.57622161431705,1.2112778670844382,9.282412331800778,9.781259184293614,11.933239170428116,0.9046529446039248,-1.8821112009809295,7.974596250372688
-2.3312206320062137,2.1498026873714497,12.141980120432954,-2.3813952368301856,-3.052470773988276,7.265372214028762,3.133096939048679,0.4176341170278017,10.670943093935245,11.473241985361703,15.329306911776666,-1.606396979754092,-9.72239285627729,1.7773739965730158
-5.756497952887659,-2.2683477384408253,5.692085064346561,-8.469975197546102,0.4894643692308058,8.630115182358937,2.456396020404253,-0.3940522507861628,8.136758354965643,6.955946164680967,12.845663511000817,-2.2184216162247967,-14.205348096088471,-0.3656873711160265
-1.136338666800615,-3.505640539688667,-1.7551694983232906,-6.258737172971449,5.6470154613155366,7.735555346733116,1.087573924651837,-0.0720366827969516,3.3052161803435567,-1.345544012051537,5.187952862306076,-0.1765994420393743,-6.918470634800197,2.3606603244534403
3.1392543950286877,-2.7510458931963093,-4.990042236121845,-3.467851774036701,9.16916459914408,5.398393998998143,0.0682721543164831,-0.4340494295481462,-0.3254505680129931,-7.763851622797869,-3.340370244221109,2.949753204683765,0.6402176220859738,5.611734208589199
10.043413236123314,1.8519089543593013,-1.810596055431823,3.1038512560506635,9.286711300937178,0.563231747906653,-0.7310371918166115,-1.2770562434030377,-0.2694606451313994,-8.038482433795203,-7.80585967719256,8.087444984582211,12.929899685394302,11.161334750264816
10.653590900591151,2.99366647642003,5.201869240077773,5.248030778172815,6.393251593552376,-1.9375892557607572,-1.24264205223257,-1.335406516847233,3.032002965707501,-2.591523623324705,-5.83382904674424,9.1291230850522,20.73699308947359,10.716910318395731
3.430744451754184,0.6571030636348968,10.732362438289773,1.8575990330092695,1.9576907349558512,-1.9464502858136936,-1.216114084975257,-0.8203487678570676,6.903085859288558,4.25462893240675,1.1590221920393962,5.5688972972917625,12.3415663658239,3.2543481849927773
-2.313967447446601,-4.79465532298866,10.82902599100774,-1.654448844092197,-2.740550435900498,-2.206566901486822,-2.0135186484299723,-0.2219710594670133,8.78339080280478,7.964982018033608,9.039194042781697,2.015911307968177,1.9752372425254976,-5.391159078059218
-8.86801113319642,-15.300651676810148,5.639872241361882,-7.519472004655933,-6.842783018100915,-1.60234596865777,-3.619176732766092,0.6534516964631962,7.93535102198797,6.952191365875705,13.265670193720243,-3.0158518401325174,-13.41040660585875,-17.44948983473113
-10.29947663619883,-17.377637943626585,-1.2513176270722282,-8.722828269404765,-9.435539452742706,0.4694768009403542,-2.577890962224899,1.4584567045915156,5.27468707675615,2.862649181280833,11.16718382620618,-4.465041385344519,-22.56722637080081,-21.16379589216356
-4.759225023422048,-10.64250888933218,-5.949709636144673,-4.346414369579714,-9.506198456512568,3.944388495926767,1.104069228211608,2.120464368313073,2.111667099225408,-1.490660263849544,3.3101698405251243,-1.3875304601992515,-13.349807036960986,-15.004664485487847
-1.4011452517794123,-2.8499336725824764,-6.993322477956934,-1.457758403960976,-6.709961465158642,7.251341780047397,3.661404291113183,1.8752893276847649,-0.6488579092533131,-4.2746393499435085,-6.637600354660988,-1.2262697199115309,-3.821571189481933,-9.247557420886585
1.447237885788674,9.116415059269148,-5.590096511515439,1.6059089568492884,-2.0648296338983947,10.412507634463235,5.673688279048837,0.5142445626042549,-2.317463058703796,-5.213452837845539,-13.731476896955591,-2.856362834388493,8.383910924239142,-0.8798793746842222
2.067028591319302,12.769270758099086,-3.678650634481704,1.8124468137309988,2.4723109553395624,10.211711431028633,4.734225714465657,-0.0745718000298281,-2.034532084188589,-4.780994485404496,-14.501708996718724,-3.6618644597323735,15.682126560276563,2.110389499406974
-1.2495943544166477,6.441257189165668,-2.0036832601678336,-2.143788199481884,5.381001204485814,5.886536111239712,-0.1314993735154876,-0.0337086863981863,0.906813824687017,-3.2915221411219626,-8.958440412357342,-4.778016090321037,6.729162098518731,-2.195116174297936
-1.8722476868926132,4.315009431353129,-0.0460398558708465,-2.401205453949621,6.544539339138247,2.659314515064481,-2.0015382097799206,0.9514594408323396,6.150445658636052,-0.8070802821144767,-0.434600308840924,-2.8063324196693697,1.3712185757895343,-2.9913033143060086
-0.4981039115300372,3.53714061545192,2.418795861017873,0.3300069261459202,6.754462388033371,-0.2691168040959776,-1.368187169528467,3.352473539567153,11.751657661200618,2.286161521808328,6.55544841124048,2.741665944640251,-2.061570063907906,-2.364024122942689
-0.6820922607552752,3.650395202033545,4.071186317544495,2.042955222230839,6.3043541432374965,-3.037800889259696,-1.8983771797982136,2.638271410863686,14.792734453062817,4.81934270944571,8.761761942885801,2.9273770921435034,-4.296537885309722,-3.8197228992244434
-1.4049237242993016,6.88519541921344,2.7363675659469067,4.067127594603937,4.37058467976339,-4.685816259985769,-2.3519152332545703,-1.3068312774293227,12.941226821346753,5.111771907843945,5.345075740339816,-1.9888125950924704,2.0644718287109294,-5.963825880950443
-4.430825600498306,4.878977763096517,-2.395345969637198,3.645013316702745,0.1349412258262248,-8.942082292026221,-6.519707352733317,-6.024656697827989,5.992209575955307,1.951824292943492,-2.433905808962507,-8.508368108752753,2.447870419314413,-12.713827536982093
-10.390122920691264,-2.216569414571645,-9.19522731923756,0.0934828533943337,-5.408011537472184,-15.7181728957554,-15.136717311169663,-12.578498358433803,-3.624874817127342,-4.321900451613043,-12.03087675698999,-18.60958535200937,-2.415827311149136,-24.75792258023616
-12.38719583477011,-4.807432411406598,-13.535935262309742,-0.4697451538866399,-9.120267033942454,-16.79982715601194,-16.556873925457836,-14.040680486123977,-11.857248660460606,-11.479531531963715,-20.31043101386382,-21.282187212583672,-5.840926953275086,-28.809982057636837
-10.520156832042009,-4.064640587149057,-12.35565430156359,1.4824494582562964,-7.799624582160391,-12.293744021032111,-11.00779653596186,-9.619782325080232,-15.204458525892347,-16.3399623336973,-24.42567631427471,-15.527016330457563,-7.368913627558521,-24.93057412275871
-7.380335668722168,-1.390197464427522,-6.319061789473096,3.115459873089143,-1.08081507262348,-5.433088775635782,-4.005760389320013,-5.17627119019236,-12.884504097161084,-16.702811665144935,-23.19003279128259,-9.946969613926523,-1.5497830368851249,-18.29175633232189
-1.3835686877870454,5.1040673381448975,0.3815742904636892,5.553853250630927,7.635309988632549,5.698591914227015,6.987273816180668,1.033932173940977,-7.505293959025018,-13.039611022472464,-18.15435965310648,-1.857730436267628,9.617144061734807,-5.762210023165332
-0.3730929657120115,6.732949239387642,3.150854690523716,4.809835870618556,13.428276558839896,8.873220229239033,9.22700479368619,2.59161938479088,-3.478202007300794,-8.50079552668251,-13.023928688555864,0.1718997485982207,16.381268013334346,-3.2085996698794
-4.98471506146449,3.231893518368004,0.5017658661050675,0.2967888221179469,13.49126878269778,3.012586239910792,1.2900857081431456,-1.778077746791378,-4.011398401808073,-6.851867527793125,-11.237404552484309,-5.578300956509928,11.565500096670576,-11.932976330098132
-9.10614236856126,-0.0319594858727138,-4.998654010001395,-2.791431447044407,8.952479056827663,-2.911348178183151,-3.571367853480972,-4.998742732500348,-8.835670369080695,-9.692051909343434,-13.511462139202322,-9.080527288735375,-3.5499151663511306,-19.90750761336609
-14.599851911817783,-5.008435042484839,-9.079649055391052,-5.322566514982848,3.3597708879345234,-11.934722116283888,-8.266104567769416,-8.790960358392802,-14.51414883074024,-15.192713545196042,-17.611031087886758,-12.565789056529816,-22.717293397478272,-30.94704760135848
-14.295226073939064,-5.919893247487751,-9.2731797424713,-4.9826331476633765,-0.5531805605264424,-13.95489357874674,-8.483680571582473,-9.37338968091793,-17.185576466431,-19.53428227197191,-20.634138647190667,-12.142745233638752,-30.41209185362629,-31.276184690198875
-6.829724596495779,-1.7891057221837747,-6.531382158813422,-0.5972361956510599,-2.716952700331234,-7.194442945142918,-1.7845063415269211,-5.410161056640377,-15.507114807517112,-19.912493218922684,-21.578298707176582,-5.947242811288727,-18.24654240878878,-18.335988021459823
-1.734742684155986,1.349366926761967,-3.75240877432919,2.171150959794061,-4.686341234862347,-0.5632287678077538,0.3681906438264409,-2.5292742845462914,-11.341186534181888,-16.52675101794624,-21.629763394602264,-2.4040944858505564,2.1420393051839364,-9.139800632134415
2.713113008390143,4.964020114057853,-2.8354651753393583,4.019178707547963,-7.152834926350671,8.731871958836717,-0.737846661798811,0.4342721133389657,-7.714311419824185,-11.865631899380404,-21.996181799069845,-0.3274801413955926,22.351353003745277,-0.2876259543123474
4.386154926321757,5.777411131699381,-3.0681731698811348,3.846879377224849,-8.746319255974115,11.519502302742223,-1.5998568464234737,1.606216367967573,-6.005082609795458,-8.123715970786222,-21.735036280901603,0.9282270618427944,27.542082612054944,4.449725813195561
1.4351616315622726,2.6405568591899837,-2.196043374346836,0.4027196806186386,-7.330986135508802,6.029099428973293,-4.228766069040624,-0.0604521817105794,-4.9394697733907975,-5.30043331873982,-18.097953760099188,-0.1735975189200805,13.233143484540888,1.9647124420685655
2.87806741635165,1.8598996782836883,1.058691632724745,-0.9414024103491636,-2.380628581768597,-0.2295305746509996,-4.632065067177301,-0.8798647548226748,-2.2201813823792094,-1.75450672131862,-9.287933525357223,1.6933190935237186,0.2904237172985047,6.885445418084276
8.070388647574969,2.576724718733508,5.499075375397574,-0.6230940840801326,4.000377561856617,-9.939443583735477,-2.5031108603558936,-1.542355630637646,2.8467889270210307,3.500656800448411,3.0595416796347266,6.43662856119017,-6.105963114413807,18.043084292269963
9.854216428939456,3.2194069044799773,8.317111693691487,-0.5256286830679756,8.400339642893933,-12.810054391258712,-1.116068749814989,-1.3230278043178825,8.251528491870246,9.192453724263537,14.256790837135142,8.397085774930607,-4.897900405453003,22.98447061939387
9.571795688782634,4.854011671995497,7.429861834261146,0.358075352727485,8.496045845407032,-7.285550352446611,0.3952712187711396,0.4456044516464941,10.786899203928336,12.591188919835004,19.73390625314492,8.36409563503935,1.4226003823652646,23.724836130705096
6.296566477661062,3.069413503922417,3.204020321667322,-2.4030649121126464,4.432771700435055,-1.1943022069399287,2.021976340077265,1.3818717539962877,8.863869566175111,12.047442552811296,18.369096304239317,6.072014906047985,0.2762196967577105,19.833961652899134
-1.3404418727366654,-2.4611308566809624,-1.7623844090209744,-9.239607150270212,-1.693425272556787,8.3107466149158,3.352086625631233,1.7930632922484533,4.16901232040297,8.877928757528231,13.259336724013124,0.3507254769937848,-8.851202787993302,8.867107495442783
-2.555796841285462,-4.141124798527482,-4.407922566079726,-11.254998035273813,-7.361118288341238,12.656026699845013,4.685044503068824,2.415125606496268,0.6914064502661006,6.742688581358365,9.451829456639068,-0.6627717182696056,-15.210167207620426,6.735887307419496
2.781312369419833,-2.564322246374438,-3.0695555840323365,-8.976699525812139,-10.709951009283948,10.456684476198774,5.854055675207914,2.861153329159867,1.8284374911722168,8.86562546069706,10.535986309287708,3.163457203261939,-10.80888794272363,13.65571454635793
7.5316659909192225,1.820795934839644,1.7412809614719933,-2.282747245120855,-10.703393517204134,9.556264803750889,7.668639891518605,4.9882525137915765,7.793442959955954,15.330075915541112,16.554289200178417,8.236347124918568,2.012267996081816,19.85985733648914
13.999338137070623,10.747005105263137,7.82505098159772,11.01635595964786,-7.050583225979658,7.696347838493431,10.182107837234096,8.987654565159744,15.26242000844551,22.670281296609183,24.35796915669886,16.4918237587522,20.704022257473117,28.820364464485923
14.928360408910036,11.95942259059646,12.47421173028006,13.878800684426167,-0.584360538049733,6.688443258985188,9.758720402962044,8.934642866917926,19.49552693884749,26.180646589368,29.736958252044666,18.66126585081256,28.99146940211685,30.15638490717194
8.88773994343949,5.031676824829552,13.65874664298925,5.809167014983812,6.2726674092224535,7.569218763919194,6.27423873186356,4.832000913308969,17.424216257468327,23.26048748127706,29.77209355066127,13.892130967821606,17.880984667872045,22.047667421399424
4.40515547636283,-2.9276262811282985,10.775064251593502,-3.816168630813072,10.069821514910693,5.618371001570257,0.3628745074452779,-2.3209867030977227,9.612102374359957,15.31296137777654,24.16568499177876,7.754134047527788,0.641472437823609,13.787408580305858
-0.388788623165925,-14.790633180281176,4.7853478118273785,-18.998159007922546,8.314215497570746,1.345945344510837,-8.999177961974052,-14.074355884925383,-0.1542392565192436,6.788910624243236,15.164742949901568,-2.178636643717377,-20.28875344494469,2.539463397797148
-3.3553425887848114,-19.311610947399068,-2.224885240383612,-23.178740746909597,1.6024328490777364,-1.901450609144161,-13.66878326986896,-18.42744032033966,-7.302757840609557,2.08253749548067,6.372726429945743,-6.92653500331562,-29.084538914362717,-3.6371695658684327
-3.0123438626021253,-14.995074935327168,-7.892165801001845,-14.325951269634656,-6.188758296165206,-4.765919499993516,-13.219335839346437,-14.74836754239249,-9.327111763143613,2.549416327684336,1.0223213612447726,-5.424450829612662,-17.4131077337394,-3.0053147203943054
-4.440106538489172,-12.25199172262742,-10.545706874318238,-9.178966954353784,-10.43397781035533,-5.938712166072247,-11.97687253895033,-9.041494625449277,-7.239325839302316,5.759390169805604,0.356712123913848,-4.210406515388144,-5.441955738647598,-2.405555258478957
-6.80179823366891,-8.276096582071329,-9.9808354646798,-3.837489825592484,-9.280913988584311,-4.6883559248172455,-7.904399994606743,1.7332292875342763,-4.737442857911366,7.385175216991319,2.838976776457777,-0.9405902152731408,6.969114119393271,0.5807495224663328
-7.263072950409906,-6.215587218018439,-7.660869892127236,-2.043558792756099,-5.144980023234015,-4.548561576002285,-6.043137836277669,5.88029388975997,-5.648156427985944,4.250360652470702,4.8251629575690975,-0.3618872758620116,13.946604115288013,1.1074742107468416
-6.412958736598642,-7.647941839408655,-6.015698339441301,-6.563688516123743,-2.6521418837023614,-5.1280007414593385,-6.945069767908287,2.2731345438706745,-11.266604563676974,-3.570492791434325,2.744648459997015,-3.4126079010926595,8.263398533979178,-1.7852534265573223
-5.413832660333367,-7.8802782894021135,-6.907745330198769,-5.835263335350417,-4.641509490219086,-7.205202629236755,-7.456292057763665,-2.3099341960001194,-19.279474992764825,-12.807714252268976,-4.2649997080715485,-6.4454542967024,3.594540214516533,-5.971303469714757
-3.887086295272421,-8.083961297288068,-10.09437193560474,-1.1170694377839132,-9.684397624382122,-11.595504974358237,-8.888530340264525,-10.957228913042126,-24.99881730704744,-18.91861933288214,-13.14553899404578,-10.844957311289392,-0.1299406411823116,-13.028498441749475
-1.9938093442313536,-6.565208271926773,-12.985755525829155,2.1908023279786577,-13.285649342130148,-12.761093978613069,-7.414941178453064,-13.51667139245026,-24.227074647493342,-18.615644565493668,-18.494083703739665,-10.871731011371702,-4.114307041358887,-13.201922123228194
0.1119340746144836,-2.572849395427847,-12.344136976648802,5.933361378650512,-11.662840075513175,-10.797527833559217,-2.529721025037463,-8.853570884068628,-16.02690941836956,-11.667648563885,-16.28710016552055,-5.743892080022379,-3.593568444832625,-5.834644903970906
4.697141702312283,4.265167953210557,-6.914374254750698,9.185576431552043,-4.809367967989141,-8.113630573567868,2.815392992806848,-3.2106485167903047,-3.606428613391072,-1.1253461695563691,-7.045439780147547,1.0347865360401265,-1.6528945372619115,4.999066749819368
11.879483573318783,14.837178532240175,1.235975236990578,11.330601180923164,3.628347970631056,-3.494691039401779,9.619041702657483,6.124659992600682,7.411400280432414,8.197642882485463,4.312367309910247,11.09715060821559,-1.2085704450312995,21.92048187447912
14.695167545542924,18.555503272094636,8.141072356449277,12.660648599772085,9.264178810640573,-1.8484460485788776,11.64030912960818,10.489747226874451,12.410789474936577,12.347453014186538,12.12848262672292,15.233438079176285,-0.5179907712780012,27.65684932757484
13.123850893968976,14.975985482246596,11.152431608110046,12.679170361510696,10.08625795120637,-3.66790437706425,8.000976102698761,8.839665809100545,10.716080472124192,10.542291356549992,14.231130054176704,12.479273709471514,-1.531635321426551,20.81168317271923
11.755534476781628,10.09739769301941,11.074909418254922,12.220715025991026,7.409778734578758,-2.5913093336640305,6.999170914747083,9.57191302601242,5.954878827880791,5.61170854249762,13.062126637860292,11.497463060711135,-3.1837142448717155,16.345047044559806
9.101501350160143,1.3524119990885977,11.113107145584312,11.141645579513016,4.345556205043447,0.4330861593129326,7.282046163587188,10.647765110047406,3.4112221389284123,2.0124056692972765,12.759329480824242,10.119271031625557,-0.6404775615562603,10.271845761558074
8.614686310363107,-0.6910355846230999,13.51502175382008,10.666263177853432,3.340122691646293,3.235300878627462,9.121929450615562,13.449038821432076,6.130970533301973,2.6393464634234043,15.013581657095962,10.820699542883816,3.2991257029717973,8.699906582388001
11.08908084932079,5.254233334396754,17.158372584286557,11.05011211935241,4.676758087071391,6.814447640375052,14.064458914317091,19.264622642282745,12.6547070171192,6.793082196243972,17.66387221807515,15.007301191773749,7.05872141670081,14.120667620906156
9.630970687526826,7.197724740344942,18.552237240049905,7.182783921736201,6.759178341987159,7.356985054167794,14.265488304676042,20.60495324391833,18.2001917912328,10.95632993527915,17.267229787882837,14.593791135392843,10.097172699167698,11.913018690299932
4.884495150710362,7.488056396542864,15.398891962797276,-0.978900604758534,7.618518705717594,4.387396261969202,9.81335728989596,17.728357794776812,18.470701610708087,11.78774650790415,12.91041480872573,10.144911453186236,8.347470920655983,3.52430532244132
0.4425826821607605,4.840958394891214,9.223739190771564,-5.589006089554512,6.369015218594367,1.9110147061698068,5.9565868825877,13.492350354635445,13.063496907049489,8.809477402401786,7.301917754787773,4.789073959467274,2.50854421192905,-3.138113585532716
-4.856353589186304,-2.843213210547185,4.326893120641973,-7.287482979588108,3.6059665527142784,-0.9557245730921148,1.1547678223540991,6.295094725382304,5.64217442685943,4.459056278675082,3.970107327919461,-3.0347886887957043,-1.9299665587839543,-10.42491037021921
-7.879817305266559,-6.003499539204976,3.817466831142468,-4.395131135828154,0.654989117300822,-3.1663984598159263,-1.9687266474338976,2.380154857838907,0.6813380290870015,1.4946359558570528,3.4097372568690325,-8.271705241524698,-3.607775642726324,-13.65338292778634
-7.929574436033287,-5.10577650168221,6.40089975714897,5.096553043735407,-1.5452674820961931,-4.014658072176841,-2.54490552420273,2.290698605007368,-0.4300665997693151,0.1745580072221884,2.1931420574526967,-10.387453919748662,-2.7276967635261733,-11.395745800017012
-8.70296245103359,-5.278631099682886,7.074676432999489,6.2989816631635485,-2.96308761281664,-3.446467182004116,-3.111325481884136,1.8971780895303092,-0.4751972348146829,-2.069771439018893,-3.823468387862775,-11.49794077990486,1.4445661334056648,-11.895802402874496
-9.356358259581476,-4.728144625496295,1.3853923193721265,-0.7328607059925235,-4.061827514472672,-0.8002857191463607,-2.767951905781633,2.763424409310022,-3.635095291396073,-7.991612796908541,-15.144182197131864,-10.168974545311224,2.27974072952028,-13.981317256790362
-11.59971834643352,-8.435533962286204,-10.351935342267636,-10.032671652379909,-4.994979634777145,0.978589744212952,-3.602552253135068,-1.2000767831646149,-11.258068034269414,-17.248218522306082,-27.292122618119407,-12.682338235134493,-5.686399010825195,-18.71257362251064
-16.133759837261614,-17.35159864065599,-22.535394760923108,-25.042334218045298,-5.26048404296353,2.0119555741669632,-5.989112531535068,-10.862548474199304,-19.97039824154196,-25.584601820771685,-33.83283681086282,-19.43609409638884,-16.257667098220182,-27.77879299978005
-15.36036098415544,-17.83300619386396,-27.99697864239556,-26.002087368984224,-4.158789289092841,4.14103459561585,-4.348192470255938,-12.244800922853283,-23.91170544991325,-27.50822373668965,-31.07559122691296,-18.891451920922854,-20.76897470587871,-27.26405272585505
-9.33831655350779,-10.333584149104071,-23.004327512719257,-11.163567106446273,-1.594465083599026,6.828392868939312,1.1365028169792204,-6.041288004615279,-19.24948958959517,-20.38820173696672,-20.417650671372584,-11.785281102225603,-14.06088647131611,-16.943121072399716
-0.7353171216527999,1.1179143243248475,-9.71028764031036,4.211637622008509,1.5619340170605724,12.105242313663636,9.43984690201317,5.03083313988273,-7.196840616617916,-6.627831960349134,-6.7480185654682,0.9721710760919626,4.040858431992977,-2.29538392244439
12.241344366605862,19.63440095885909,5.507055151240984,24.938716706744845,3.92747988307185,20.396641438944904,21.900692146627527,24.1802811987372,6.77612358023843,7.762398845340012,5.053999287842416,22.087987050504072,25.48438010308836,20.072602808537862
15.33358491682344,24.102410313605915,16.116431899448084,29.73233874154164,4.544781348814144,20.94699863853685,23.31712722170024,27.336788722365373,16.520743081547305,16.846283192729533,12.281246516296749,27.071663573306928,31.45272928659335,25.244744383836977
7.344618955793488,12.97220832408732,18.777462593789345,14.943790528449773,3.586859573452603,13.437160932570391,12.591748685633588,13.058058142541878,18.547919408678595,17.781082914991288,14.050437677912743,14.656860402563302,16.986525635175855,11.063886083777694
-1.1228291247191824,1.4642271611251614,14.059311826459204,1.867977151663891,2.277247156568013,3.803879671703245,0.5261492388191015,-2.695715280713081,13.003605946405088,11.357763420805814,10.103182494066836,1.0083949137560453,-3.375079554298842,-3.785087065065696
-13.580255945864549,-15.522839708162518,5.01876772610002,-15.13821432189832,2.015832018360109,-10.523712995738308,-16.599860446279145,-25.714090576380315,2.616980508181353,0.6108950113031248,0.9155194153702376,-19.682925996572543,-25.54925586350084,-25.447940642507024
-17.642008561979914,-20.11472487919404,-4.618138698348657,-21.249979021707603,3.2743603460843005,-15.351102443644184,-22.074758174990023,-32.47875151934582,-8.710911021143549,-10.73908386900005,-10.91423771692396,-25.379836934464368,-32.60635266969657,-31.77500766347112
-11.114427375028416,-9.179419965792215,-11.565907353183976,-12.34943773949616,5.079664373382519,-9.031501463104878,-13.318239562243168,-19.456652680232864,-16.824130855878035,-19.073224491497385,-20.238549053831985,-12.647398459386368,-17.574929531654234,-18.845242655770605
-5.166432245887992,0.3876665826133928,-13.604345186694411,-4.384435131543578,5.600696123480427,-3.790361314398465,-5.799317444239984,-7.358136952910694,-18.312002776107068,-21.435198623942085,-21.66661612736301,-2.1005868010238906,-2.2660279563325973,-8.24899205307682
3.619022272503705,13.417032681387642,-10.30262480969291,7.25432015018762,3.5603006715177568,3.919794341932714,4.881779865662713,10.036166210770238,-12.16526210289344,-16.650228500988096,-13.490853442194688,12.01714511303174,13.707638995437812,5.963209956043212
6.945611848189841,17.994653298454327,-3.592053631373316,12.681175123025696,-0.564880362053648,6.662237013141723,9.124540018305012,15.915881660449742,-1.162848667577837,-6.560683265294649,0.1502296301362218,16.454876218918944,22.46843206949019,11.080712437561685
2.8736341014074007,11.050125134358536,2.783287702544354,9.21971332944559,-4.607773580099952,2.3383708440568256,4.22609700422083,6.446197805018529,8.866635035286578,4.107795110809452,11.318346581770603,7.502471250615888,15.415918217520336,3.3075587915129385
-1.7624594633783084,4.210300458004866,5.290982769326652,3.7333676036575856,-6.157108659741219,-0.4757506052249443,0.058398854819792,-1.8196343930080017,12.435294515970114,10.039716844850116,13.43963814374576,-0.3705111216809045,10.588146658651349,-3.057837191733284
-9.537352676665355,-6.201689500997009,2.924536660865069,-7.161072578423677,-4.323529752342481,-4.018848815849449,-6.396767909533511,-13.79806015646664,8.286005987841703,8.559076189694016,5.645352755960561,-11.245911656984644,7.157842846968209,-12.003331950855232
-12.771696822727105,-10.37114304664897,-2.133872088920512,-12.357121620654166,-0.3990177322820853,-6.31036015630231,-10.607602498860697,-20.236022533942588,0.438926294639506,1.3023794758282534,-7.086513911202804,-16.89475644343138,1.2532311769996811,-17.046721609026942
-10.314025959983946,-6.262027209172716,-6.302304923710967,-10.83743555829614,3.142935283116279,-6.112172388728224,-11.181953015021737,-18.51441895659089,-4.935055512950616,-7.159897996588523,-17.878457346172752,-14.906582004977944,-0.2766703675056682,-15.955732191212412
-8.24720514674295,-2.486907625801105,-7.466599199514512,-7.755300053545253,4.4739250181506005,-5.350189150231159,-11.117838614944487,-18.266615891577363,-4.441744864512795,-12.709829557083498,-22.62478721565365,-14.1624334352783,-4.498613337695369,-16.96463727957273
