AF3,F7,F3,FC5,T7,P7,O1,O2,P8,T8,FC6,F4,F8,AF4
-4.729583122036044,2.193275187525283,-7.680499964107617,-7.473927517877837,0.8498474160286721,-4.951744551489387,-6.002481228436054,-13.445694474753417,-5.663515698581767,-10.851392838260445,-17.94790953725199,-12.953683659524634,-11.965989446046642,-4.46520606794911
-7.136489862100767,0.6342555626095591,-7.8029132262799665,-10.914203694257171,1.474999241514768,-3.6904931180815552,-1.5065669803715087,-9.489997923869682,-2.2985510366487065,-5.247900678393346,-11.908198990258644,-11.375176285593186,-9.30830520854366,-2.004416173735964
-5.218705209422698,0.087171609609755,-6.121579986438964,-11.359367990512272,1.5808583110676042,-2.88999389624953,2.035802331813127,-4.799257091863178,2.246957168350904,0.1901690520441301,-4.314108322842591,-6.473322286367489,-5.334493247847388,2.6662797649985963
-0.867164519412789,0.4341887413651094,-3.0014983477273565,-7.406675758196981,0.8943940310025325,-2.438944085256873,3.236626503078563,-1.5733653005886865,3.910845303566002,3.220228820947641,1.1616405478129297,0.1966986747921555,-1.4176074784970707,4.946121555083049
2.714751141010785,1.0574232155349408,0.4942745445098864,-0.4557140693039829,-0.2228005519140004,-1.9416384645518605,2.6591975782975035,-0.5175077023387322,2.0834146452522715,3.5070895174361865,2.6704272049540685,6.0205147380627215,1.3950565556131655,5.953093569729448
3.839635919101792,0.3076789509494415,3.18848851227996,6.255338566235445,-0.6143617196057942,-1.128468352214692,2.070850893199353,-0.3654761580095065,2.120507728540201,2.4767404633655468,1.5707958844045384,8.992763304211957,2.841635946166408,8.15574963894855
3.4422382994494227,-1.6316503712915615,4.5456856405802055,9.956821752259252,-0.8874282300567069,-0.2448696202040208,2.6031382639272955,0.583171681533539,3.122416666797344,1.8441165975781255,1.1190951402019975,8.906735948958811,3.189769926574681,8.023976569738068
3.67702848051368,-2.8089174390218554,4.955461868237805,10.062009942023728,-0.825220541357319,0.0125582018946159,3.608791203693776,2.5065160455799056,4.266721226453562,2.166786707153187,3.493797075386954,7.200818325225843,2.748109840937045,7.96496309046182
5.587638203385265,-2.2761714372023225,5.27686995977597,8.09817164530962,-0.3459768729778025,-0.9208965425653336,3.370491629916777,3.836228124075197,6.431164010018992,2.6833603552177347,7.805462899335176,5.763529159824947,1.7786799497130414,9.91456030441067
8.135028396704548,-1.0599967919012212,6.040808217813551,6.252776580873485,-0.9558271514112928,-2.8533732031629397,1.002798220727554,3.114208089575003,5.927846769011904,2.443929412804011,10.964471745012576,5.756070535901389,0.8041996784716101,9.742974247636916
9.37526291773712,0.1661955615802573,7.0182996370371225,5.844628325666482,-1.2911489225884016,-4.790269995871505,-2.323338227338584,0.9758409707115994,2.6055050506621305,1.5192147977641226,10.67892723515484,7.259994171208907,0.6926029151865505,9.536630437053056
8.46154558922592,0.6684216722276908,7.522874163634889,6.722902994656019,-0.8182500365556566,-5.596629657016923,-4.101799706945732,0.023294047308886,1.8471135537630956,1.061229763921804,7.823706030911302,9.70966191153428,2.1225500057183195,10.940333658100478
6.4682170579587925,0.3108377750587713,7.140056453534405,7.718080534865804,-0.264413861228489,-4.825027815768059,-2.585584410239816,2.4874366360467466,3.1255312604392635,2.1680126639079367,5.906681539884865,12.47306805249108,4.853794706324304,10.718174128991922
5.32095772569007,0.5889283031865052,6.1935394983735215,7.652264236160088,1.1245314931866055,-2.9959976128083143,1.6238667760942755,7.92107843426049,5.890507298997491,4.688898381906587,7.993108534588583,15.05937469179372,7.6382400442415745,10.6620809105454
5.987585352800022,1.8941334732964823,5.510123666953133,6.253869471251351,2.2135382526900025,-1.1271539077082249,5.927040065761762,13.253243686976182,11.288991220708352,7.152193267214598,13.81830430782494,16.976319123624023,9.042313498201263,11.943613894187829
7.685312672619274,2.455265454879267,5.689334671450959,4.399951002864773,1.8168039849056887,0.0210706166090428,7.722361877700062,15.256335404200517,12.42387902841048,7.907736760630784,19.714896465997544,17.640927246666653,8.49583293870451,11.130895098637554
8.726957671061484,1.5085927153115053,6.521880604223371,3.408583280338548,0.691873887488961,0.340485903577826,6.349980469544328,13.15537096244974,9.06066125152586,6.444162591812286,21.47412674572337,16.614045323191057,6.607751635220362,10.540598580179482
8.018607937330081,-0.0747476133815979,7.073983756482793,3.75353363290467,-0.465336396879918,0.1938714639172163,3.411673857132187,9.043060934111052,5.298227342346848,3.732629000308154,17.6612962827104,13.984987465605858,4.50552286820516,11.186026444688414
5.756439556806884,-2.5925646160874973,6.396050688595933,4.263691655515705,-1.355472199422479,-0.0235834469675304,1.3374431997742953,5.90149943795207,-0.4587681435182278,1.3847254544630312,10.585695673954028,10.48059754245638,2.892480604403416,9.639830834402057
2.8917652155857207,-3.4165017511498443,4.310069750355889,2.8017565342730526,-0.9082797221361034,-0.138930423584572,1.487968098950902,5.1883605490825,-3.124678287059941,0.443209858572501,4.291557461540348,7.106281072324968,1.69400548158087,8.030170914625897
0.2203702435276935,-1.1160146615861557,1.6607899503932544,-1.774124382791228,0.5914047150145155,-0.1376502764851102,3.306290451671368,6.093857296801982,-1.945991929901161,0.8124949590901462,1.4966977914097723,4.598755560811641,0.4713655639432126,5.96230440370809
-1.8817408491981824,0.662175581641551,-0.1978980878887009,-7.990137685671099,1.1924475513218162,0.0154465769076614,5.018504664868241,6.794261317837423,-2.2612690216684834,1.6235657732315882,2.034803716619986,3.151548456366644,-0.976335973936234,1.4189618037196754
-3.0672875676733664,2.958045004509368,-0.3530928679572785,-12.22992832095714,1.3004061914789693,0.426808169010453,5.116261929197926,6.206072880084713,-2.835927923399672,1.993948987065004,3.717888986410282,2.553286845829551,-2.449307206325422,-2.708975202781248
-2.868418279593527,3.719861074913394,0.9534565292349622,-11.36173658114566,0.2832958676043781,1.160996709460821,3.3854914966105327,4.581089142041864,-4.01901721940839,1.4736290035062982,4.398903425013194,2.440612837783672,-3.6574164631309034,-5.045410366450435
-1.3502373725556684,0.5259061820262763,2.3977701959408155,-5.462953631340732,-1.868040023900923,2.108938564199678,0.8129456134250788,2.6933246027305007,-6.6064037742504125,-0.0063369015061169,3.3541552537643096,2.3540667716335224,-4.535475306443543,-6.269083657606064
0.0997508414739232,-1.994189363293445,2.438391324429497,1.8318525703855453,-2.3894697310970003,2.974811183513758,-1.3314857319068976,0.7815455998954342,-7.992455921342182,-2.3104643146255723,1.1832558638680952,1.6941342949116311,-5.208368463575973,-6.245876450702523
-0.8712725742500504,-5.56314947666352,0.3801339253053033,5.90433312273405,-2.632920650476449,3.4003213579176084,-2.399587376192015,-1.5481629015068883,-8.40408067207061,-5.044103790797377,-1.134898256017184,-0.0702878548579191,-5.738163168513184,-5.130600528591716
-5.74900382456413,-7.257212874567078,-3.1353675158636563,4.6034570126266665,-1.8459506331362303,3.158049166054429,-2.614724559662457,-4.455097079740593,-7.978281476749122,-7.397439474461736,-2.974574024908283,-2.9161251729600326,-6.0188491777967865,-4.991720518415711
-13.229172832543764,-3.533013920541246,-6.558642357956822,-0.276163304373257,0.521969665995139,2.323878208428556,-2.627388316498221,-7.115215301189437,-6.163689653155638,-8.323923771549461,-4.160717958710417,-6.015438539942415,-5.912735527660327,-5.02137431676121
-19.20992401911643,-0.2781237136791716,-8.43028644238718,-4.597814153553474,0.7568303636720792,1.3326899247032875,-2.826802150097744,-8.035593831920908,-4.17640966231867,-7.179820448494154,-4.725950914603517,-8.20965849729492,-5.363311804202211,-3.940901777690962
-19.29648996559963,4.611984207043659,-8.212344632105573,-5.0630029658153335,1.906563222238268,0.8301200266973867,-2.948632115127534,-6.238854991443764,-1.8760526705214235,-4.338845824423026,-4.712257563734441,-8.945987831676211,-4.294976825689036,-3.1568604506896234
-12.106431207252866,7.912401317287428,-6.4402987088736126,-1.3698005046587585,3.011412409584616,1.3307370742648903,-2.2529530273733998,-2.213560560828969,-0.596908457109905,-1.1116491203769692,-4.101273640897341,-8.752653829978785,-2.5223361821670345,-2.8662390110939966
-0.6608772297613514,5.504596933692813,-4.240792922262957,4.042911628799201,1.741206052321823,2.868605445397764,-0.1387044750804711,2.253056004803755,-0.7122896795394253,1.1332830419212006,-2.8152555915757285,-8.647741131229958,-0.0222126494872263,-3.949811578011509
9.439936170706122,4.533748171268375,-2.63573719383328,7.963681841488717,2.2884081821387774,4.917759300321043,3.254817536525234,5.200365435401884,0.1277731042277165,1.957384240516129,-0.8408176890291763,-8.996226031604861,2.569512023997036,-6.064846159050507
13.697887328298638,2.5009795797960326,-2.042122398240906,8.362514472757466,0.5158338649621506,6.710010368975127,6.941813309107489,5.6383649333984645,1.5841286919227937,2.0713456738815337,1.494653257209344,-9.025907403638202,3.942045020361009,-8.414766092837798
11.390295577925968,-0.6356617013215524,-2.1581673119123668,5.207440374198285,-2.6792528606179427,7.748970615137923,9.632837900935632,3.926448874182698,2.570675388168984,2.579606416343465,3.3555616980237613,-7.608234709630353,3.053921096497016,-8.533624662643952
5.344422199927347,-0.879991157270096,-2.252134319631593,0.184556301401586,-2.756566447414053,8.11532592885124,10.57549918420357,1.351953750189197,3.4247373063981024,3.938266877234464,3.742279914157957,-4.552577070612946,0.4362553165290892,-4.395712957714133
-0.5914231618918113,-2.1804635946749955,-1.7217445634121686,-4.145861326269469,-2.7030718107149383,8.313559375374187,10.055291810384947,-0.6093285826567549,3.43937260502404,5.567818462925382,2.337341401668694,-1.0297873533411543,-1.5456627761255373,0.7484895165562464
-4.082739902578117,-2.8515751271771004,-0.5993188195115295,-5.463267768150384,0.2957643327902843,8.815957108428407,9.140523517737684,-0.9272121017022026,2.413693548704288,6.440796491763127,0.1581947291593106,1.3954431173556583,-0.2333748071971433,7.39897943189748
-5.022469214654464,-1.2974930337077275,0.4132342829708693,-2.9128120595610776,4.108750182609791,9.7148037851637,8.851541290357522,0.589467025747709,2.6480840826963576,6.07752957333516,-0.8203261821538783,2.1601256321549376,4.991910993765422,10.937476321669164
-4.506867154166023,-1.0763319546833805,0.5203172175360455,2.1120739803172497,3.32603980650506,10.741061414108042,9.405291357199031,3.195143805295208,4.081806556818832,5.041291445728143,0.8942145497608847,2.0617634632407364,11.72546007388662,7.340733033738394
-3.54160253530914,-2.8130932440166743,-0.4022416297720404,6.462564502346341,0.6435837795925847,11.517861010772494,10.118196596780686,5.533122406382237,5.4685552672795605,4.486827203571021,4.89476533532955,2.189157476362586,16.104847860783842,3.1070060767756718
-2.635132725445548,-6.024940244528143,-1.570569205954708,7.168740541086866,-4.15429250833758,11.73643315736039,9.999988439467304,6.374822807348237,7.281963877471845,5.129331466383545,8.826340954830552,2.569218069580661,15.780677459848055,-3.384285640557232
-2.105317656010642,-7.973639647744436,-1.8939833824316172,3.6368090710323706,-7.428913776926699,11.14958574627934,8.521645951078558,5.378304273954113,7.487038977569061,6.488843783925234,9.999846534277983,2.0301674395995826,11.703275701032354,-7.247592721365269
-2.194552701236134,-5.445067095183416,-0.9118394159003932,-1.7105410778443169,-4.667366253597464,9.5823048176778,5.946180784568412,3.2712425377441114,5.791768449818162,7.067063460034133,7.456430852274202,-0.474826477999122,7.142871063742547,-3.605200183930773
-2.6746206781221207,0.7571355868086045,0.812710396104193,-5.125658902887502,-0.3877769303330325,7.13636471471049,3.014923450063684,1.232241459324117,3.5243969581331984,5.404995736480428,2.742637970782355,-4.428605899480031,4.894401097479724,-0.5208744321988102
-2.6317793911491574,8.895360185747185,2.19790104923469,-4.332706322955997,4.262896463321553,4.405719033167649,0.3190308438219273,-0.0582354988521069,0.1055909812803106,1.27305152996153,-1.3031367929813285,-7.7762130954462,5.187850845907777,4.234217915536072
-1.1586991033803464,12.390959347453151,2.5124953788941795,-0.1527128191364801,6.647335638335103,2.304419005138004,-2.08676614562332,-0.8803913511225465,-1.9820924678785172,-3.9273975216186607,-2.745785999454439,-8.565574410270145,5.967254012158936,6.127967161241611
1.4464660633917248,8.361326159088948,1.7738902741595035,4.303395156761402,4.13296734510128,1.4149716946032007,-4.525651583711559,-2.0463390750998345,-2.454080352889022,-7.944001188377136,-1.9141982625659124,-6.679818802963736,4.945073382970882,1.0236383880674198
3.333304558752114,3.1744652618517786,0.4302620533713439,6.000412397550375,1.910898120456161,1.3491217320540976,-7.197927201082361,-3.9981118568253655,-2.423843417990535,-9.146743798375176,-0.9136033355081858,-3.966705955176945,1.4453146932317429,-3.243622587990575
2.4214755730494555,-2.1362698437952004,-1.14642335857139,3.8531915843145,0.8117941774634893,0.8020686466952012,-9.849710488397708,-6.296564226674445,-1.1733991348953718,-7.628523663009754,-1.8724967421972645,-2.624654335074632,-3.3609588272907143,-10.090858377839536
-1.5419913570340529,-4.380924692457272,-2.7577818555361167,-1.1414799803563749,0.0672063745642944,-1.5549976699705017,-11.947978681162631,-8.000554093016735,-1.4644514436435638,-5.100794516395834,-5.42711095396856,-3.4153228022910938,-7.598887916238088,-13.050504990672684
-6.233723733066937,-1.3729681284432764,-4.104594986026209,-7.035630162305435,0.6065551916081446,-5.997861241180807,-13.183594901499346,-8.581684682011733,-3.471277835253533,-3.664099942604431,-10.485971596565664,-5.370844447855694,-9.998916042003016,-8.23022548635338
-8.406555454217235,-0.4331830196167391,-4.693682687435401,-12.023369848496282,-0.4768325965252387,-11.388112784009031,-13.768088648338434,-8.474933271491144,-6.13578865897408,-4.394524706496308,-15.12974797986974,-7.061948370914565,-10.450524222538595,-4.960449712165003
-6.705011058099353,-1.3962747027404934,-4.218235332330723,-14.860992793280348,-3.541026771958729,-15.842321134696384,-14.17605206510076,-8.661147392004942,-10.190750282584808,-6.773769791206275,-17.751123080413514,-7.914100945573159,-9.72851978781658,2.4422293550751184
-3.015454503680597,-1.7352010490240084,-3.00082858552343,-14.986595139925338,-4.847344824552891,-17.886446340303472,-14.564904569996829,-9.596613606329324,-10.314216091001413,-9.259926016073395,-17.710881667880408,-8.193000343298916,-8.822341481398784,6.875440572010674
-0.8659120336617354,-2.8291095254656238,-1.8558069450840904,-12.76522973267561,-3.954703948908028,-17.226626054591904,-14.49102678167635,-10.52472106603551,-6.087284551655199,-10.412152501085668,-15.38589788014588,-7.933029009732895,-8.310588736205442,3.0770251658050007
-2.1607803094764835,-2.985946460533336,-1.340270415761652,-9.539868396853176,-2.3408206926226365,-14.700979747614422,-13.288813498351722,-9.98461037299549,-1.7146915589633214,-9.698184591679636,-11.833053086431793,-6.359728030211507,-8.082545937966385,2.426021097234622
-5.260940751404252,-2.4999251539827108,-1.153651379375676,-6.910893744276559,0.9727004519997018,-11.656392545121072,-10.803271334755442,-7.243937085059816,4.0700282376986445,-7.560594984808541,-8.271585748886151,-2.770232907165135,-7.565979533055104,-1.3676634798562493
-6.316532360798556,-2.7412835101269644,-0.4458968049139851,-5.512773252488872,3.141311184763572,-9.282510678908215,-7.755225346172986,-3.368019952129849,5.518961599289061,-4.964202948824767,-5.551991171862143,2.0031793664100834,-6.333323497938258,-4.062290605100628
-2.7646290913927354,-2.4377194907502866,1.1395312802003308,-4.492467755577732,1.9515052895692768,-8.221855716041143,-5.329155967915543,-0.7473357590521275,1.601625353607085,-2.888973559024838,-3.869642391309665,5.3954401620124095,-4.599653598399206,0.9166966894326642
4.163469246726338,-0.0350827311928018,2.775509419844551,-2.503609055448464,0.7311523876127385,-8.448005164748588,-4.317517417669539,-1.23588520103862,-0.1906913321164754,-1.9932609857123775,-2.9321303155824454,4.900987889227739,-3.1115863320218864,3.410414271902916
10.248088353808871,3.99844405767623,3.0246387393652707,0.5847211697435943,-1.7981038203088944,-9.32077642527586,-4.58292638016928,-4.452959297976237,-1.2300028964899203,-2.385606424477538,-2.419238149184088,0.4257099812994676,-2.452309465929953,7.433916108203233
11.747520119014148,6.383101462557851,1.3368951314742858,3.1092626137087214,-3.955529775361431,-9.837834404944648,-5.28024361138872,-7.86477459755802,-0.5317625442675191,-3.472838008365558,-2.2329413507767417,-5.099012880269811,-2.39814241539116,11.258060095605462
8.484308846392734,5.64997771440436,-0.9887966371738636,3.050888722083687,-1.7049083191721943,-9.113421358370292,-5.562989828744562,-8.745380183105528,3.278533553356106,-4.075783298099905,-2.230811437200128,-7.682435654164148,-1.973758762261201,9.32490961998334
3.858047744487461,3.387200320600739,-1.5748477437120314,0.2092147324337461,2.568272900177395,-6.916435443122439,-5.108021625077577,-6.358436012168345,5.809356088463057,-2.9946187188194666,-1.7901841052756269,-5.256423533940311,-0.194106258112531,8.403498252629243
1.807836286514637,0.5903251907478011,0.927553859572584,-3.1780812813900816,8.954296936938002,-3.906524652152716,-4.079941312463816,-2.419398170793948,7.605887664925173,0.1874456941767626,0.0885974445325903,0.8609943902526966,3.1625522777677384,6.606404027838609
3.4007117619477896,-0.8099179376319925,5.251161175898604,-4.227788405528656,12.296610392971331,-1.3076439808025997,-2.754908546882328,0.5411152837500433,8.695475836305869,4.669121160442112,3.9261011593824153,7.164770288859282,7.375409776777333,4.491312997436543
6.013173634357772,-0.1896404102770038,8.105448561186547,-1.9792950578898427,7.372084385616798,-0.1576694349449625,-1.2966399893653189,1.3512968060114487,8.222240536440006,8.836671489057196,8.873512719101926,10.626912999335108,11.21594026747825,4.283643141956031
5.8073749624370645,-0.4128743535434102,6.737471806357263,1.777253335335672,-0.5514111353422146,-0.6407233654092002,0.1117860425671817,0.908297103788777,6.132673624981396,11.292001633802286,12.81241889852206,10.556946906998045,13.532491475459908,2.5054453352782025
1.355181128220896,-2.390907722284962,1.3609586817811974,4.201024310324899,-10.84766949245316,-1.9960288755314213,1.0620704735557314,0.9068803780294412,1.9658866845138263,11.68330278496008,13.653701328066552,8.409816938125442,13.595549050815412,0.9805044372612848
-4.742159231536066,-3.618676870875952,-4.718743731059848,3.897604710256405,-15.746712348046165,-3.0645266478228743,1.0488272335185314,1.990636511897371,-1.0941788485140156,10.657474524584336,10.85615822300318,6.193195009972635,11.214350927278184,0.1915128231277184
-7.709259889936884,-3.3759698922157804,-7.521560841981405,1.8292379986121707,-9.579509451415769,-3.0420396566115517,-0.0302351701499037,3.193513372596581,-3.0370472115139635,9.074037676310144,5.874055005034889,5.071643277066249,6.829201287685971,0.5599937853527938
-4.4510802238593055,-2.837332895231778,-5.371092208271026,0.0427577987790157,-2.545883749590556,-1.872666606735331,-1.449512250513064,3.1488339777086574,-3.3750158440714944,7.318195625538019,1.1773867442027215,5.120777688963294,1.60598344235697,3.072018124677632
3.7869883837934006,-1.345789303753376,0.0101538878916802,-0.1937438434717553,5.318703131965782,-0.0548165976513052,-1.833485427487039,1.7420450664294238,-1.1792658327412386,5.383430773235874,-1.270761326127833,5.909998654793805,-2.697929182183098,5.448406542470988
12.164547267089633,-0.5287363876249936,5.049177263513529,1.0116640539831452,9.301927139380652,1.8723159005794767,-0.0022763085611877,0.474955645352855,-0.1839145015062689,3.5082525063266288,-0.8869319894297367,7.021258600381911,-4.3141546543808005,6.448056793293139
15.771801339217571,-1.1071041251136755,7.042150002830246,3.0000409127097165,4.358371964953153,3.6824690592896,4.078890779519752,1.138251909632558,-0.1061867602073017,2.4866737263999386,1.6879697838342071,8.088162838211762,-2.3784074025741484,6.084828569435008
13.062880039740165,0.4096355687946294,5.800784789184188,5.418115362879831,0.751373933075316,5.409235036604464,9.027415721409517,4.078729355725772,-0.3441876628055401,3.0900268073750774,5.205717264897663,8.669405332359045,2.327849698355493,4.447196763251901
6.563025583647279,3.2860710872983,3.179312962152061,8.046794046801303,-1.9164137214834311,7.054542268650313,12.793202469830364,7.7329584978807375,-1.6802606230491204,5.065779223556714,8.244990001657161,8.388340606084165,7.440096826795719,2.399211902522022
0.6027741160415103,4.89666332479719,1.29588858767979,10.143497864557814,-3.3814560487490866,8.413929102164644,13.979668839040926,9.864040232384705,-1.4576702076263393,6.830742999448761,9.48198099716687,7.271571026786992,10.14093659219294,1.9821834067119044
-1.822695638352397,4.814203207717874,1.0796037112254817,10.596041141502564,-0.2405024124858594,9.195368619213957,12.77579707081399,9.350257535253078,0.3328299863687773,6.466681166440171,8.207108300968015,5.836291893634725,8.848858714519933,1.6148668092360772
-0.6339611483444632,2.572214653000739,2.084936965638749,9.094054139886577,1.4060231555890002,9.279965544035864,10.76765734037496,6.953352100634998,1.534793757704406,3.347342916566995,5.017965041039267,4.706963839521768,4.3160803512211325,0.300732505492455
2.07727526818742,-0.5029405280249817,3.2698698749385278,6.935029853289358,1.940314105418088,8.845263769337958,9.74024165893956,4.527492113587484,2.6413803438154084,-1.0674344106617115,1.8923609490914617,4.09885960962821,-0.8461576794081713,0.2628761848312566
3.969649275848425,-1.5720394410813765,3.839370171500896,6.11747838181749,2.2723531544991387,8.233487666903937,10.377868308268967,3.5190270591153725,1.621220416147101,-4.160347142296948,1.009205832448704,3.690439172720661,-4.066031374883521,-1.4645368486464083
3.885522226235166,-0.2237084764182078,3.58166137529978,7.286478209454639,0.4533998886002408,7.704586742865486,11.859221272887842,4.049375190926709,-2.058478452938429,-4.190510128093888,2.9178197265538244,2.9912899488233844,-4.713496494479678,-4.782803666482519
2.0750446642898632,1.0700096376373671,2.746780388153661,8.751302548402139,-0.5409890227093505,7.299725790460714,12.625120124157547,5.138101775773487,-4.684318668494426,-1.7489607788987684,5.706601335908724,1.797994140665943,-4.394399984753346,-6.296380304640538
-0.3673708223438329,0.3494457473741165,1.777651936447607,8.035386835343942,-1.449200631680711,6.902033849789413,11.654757824899168,5.602171492935053,-6.725535780980506,0.6397685693480972,6.290585910658125,0.304251206383372,-5.327783377294382,-9.796233190359118
-2.1562371887827663,-2.23430075204616,1.0719311809286909,4.696840846627971,-2.182885356084634,6.390353195915731,9.2092569597455,4.827046126779848,-7.635071185145858,0.4906319307703279,2.997202748920824,-1.124198045388329,-8.23505485651851,-12.65899510222541
-2.3225337684471223,-5.057542025304333,0.8043649278193119,1.386322984867724,-1.079308632112995,5.732301385876655,6.502385160325651,3.025166694412537,-6.606262025755092,-2.698132221289586,-2.851421110540325,-2.170800145736211,-11.690829334484953,-10.434769428301244
-0.6858653931884768,-5.838600200559753,0.8640246084572988,1.545971154867064,-0.4295545072469634,4.973213499332259,4.674636050299115,1.0949739953430293,-6.751057759321843,-7.08002681521748,-7.961961759029828,-2.59762277773692,-13.573565693454718,-9.180897115179896
1.8203568408162305,-3.717162991778067,0.9871111836552048,5.684244941669496,0.881194199651381,4.199627860113685,3.978989453822844,0.2534647270909236,-7.797715682433226,-9.884009381423914,-9.871929487102385,-2.253261199319501,-13.257313878272884,-7.14361260455606
3.404660094427639,0.2419020668156871,1.019154002352779,10.108133257887204,2.137837832165207,3.5447431774353597,3.79816213369317,1.4446524579159714,-7.429008270812248,-9.419844199054031,-8.910016764340579,-1.2491269207942437,-12.395379389537185,-3.077596265460861
2.4441552943232496,3.069936881244113,1.0514971846390555,9.94433003511081,1.419675051197722,3.188928728966055,3.3315434538492017,4.6271224634502754,-6.0879639610754825,-6.129364049009098,-7.466959129396604,-0.138746495362647,-13.389475235368296,-4.1492314782652695
-1.2914724223345702,2.521853766664649,1.239640901373519,3.933773708115596,0.974544319440177,3.253452543259484,2.2544076126254557,8.425726154836308,-4.320930479426769,-2.050913582464017,-7.399292631983076,0.273526318447162,-16.843805393579498,-5.430803963989154
-6.255982329133179,1.3393272966350325,1.4471567265187384,-3.736946566309936,-0.0532025488286876,3.6064747425156094,0.8169782927201923,10.700655029301508,-1.7737898540906858,0.68322390936398,-8.244961547943278,-0.4790682359689526,-20.436518221883027,-3.978823093420997
-10.0923747248362,0.1448473285993816,1.1242913424943364,-6.794342532741401,-1.368173220282508,3.7846918512790393,-0.5369090733314703,9.93512621334098,-0.799420501520897,1.117763872342096,-8.028274242211669,-2.0682485227520413,-20.54160387454007,-6.064604842772353
-11.269522292257165,-0.1493130882397575,-0.3167037090596496,-2.5878344425159487,-1.3345578553619126,3.235044702161472,-1.543507395550342,6.44937161453303,-1.6118010573714832,-0.2687328961663608,-5.692985874139509,-3.6085221970639534,-15.43487097937548,-6.697510976587218
-10.003744787685166,3.3596502509129103,-2.861627256802736,5.255849342914427,-1.6099766551800512,1.7931780758624307,-2.154235666204876,2.315863591031047,-0.7855107003019818,-2.2135748094942,-2.500210645428788,-4.478833626694954,-7.23228658142211,-4.879613599759016
-7.67634815439061,4.989757278744489,-5.586059870887647,9.917871302561627,-1.8887771267018847,-0.0161869863352794,-2.3643125481438765,-0.1376719021954041,1.2657482535086495,-3.529534775711768,-0.8503380700241063,-4.912820675112352,-0.5321722732308753,-7.571602896770622
-5.387971865502601,3.1847769230024325,-7.095399738260761,7.404358503159804,-1.1889595570613147,-1.25003105051155,-2.170786513504726,-0.0427576695153925,3.6849431996566206,-3.5611058594207763,-1.7342039418779345,-5.663301506086963,1.398781218148626,-6.325860818430088
-3.1325215861643283,0.7896062460092856,-6.492391516577314,-0.125439519880192,-0.1654143788381804,-1.2945408939488352,-1.7311060371692355,1.5592948523119468,7.099704412550669,-2.142696703843537,-3.485093014607815,-6.978091772314156,-0.3668308734606453,-0.2421327060154197
-0.393102139034287,-3.888226827315682,-4.111913206213982,-6.665282675463191,0.7195036464850588,-0.4599773955667484,-1.4291825378667644,2.8786686012308347,9.227904942394694,0.602599941812511,-3.1810725823947315,-7.924600783081198,-1.0806177046355725,2.997509991488428
2.6063120466881755,-6.413898372715015,-1.3575249753465295,-7.8077776555067535,1.8242960322743376,0.1966204155343583,-1.6029977496788137,2.9996847868998864,9.932970540749986,4.28510541762175,0.6447435871025503,-6.8911567352533085,3.634554147284809,11.094181450840589
4.545797939350429,-4.226093863498997,0.2991711644612813,-4.104122013726338,1.9736295898402447,-0.2414072802172233,-2.1490239435501097,2.4306411420267127,9.46119872993516,8.099745194705164,6.592924983339154,-3.0051779543342105,13.772307198104915,17.295550152034618
4.158921052873501,-1.2467199456955778,0.3553172891173455,0.3832820711360467,0.8891031525351972,-1.742818252193516,-2.5265710196192046,2.1642663131906748,7.148245620161728,10.826707259054768,11.539140638768774,2.718940475655452,24.513155480939854,15.07797561504894
1.747804423902823,1.471049825990763,-0.5161272177758942,2.195035592264895,0.7514250683563317,-3.3920410862077137,-2.35409357445673,2.3224623664204422,4.576231383750784,11.252276229126942,13.119988318219816,7.573655307017335,29.80050401429726,15.511543327623784
-0.6953275122061182,3.561812837975232,-1.226016274506916,0.9565530383198088,0.6542265937198052,-4.294382312103926,-2.067765787699174,1.8273032962476523,1.5919707878922735,8.888744340579892,11.285687234518992,8.720210875848823,26.85381206365393,13.499191243511678
-1.1890752519354575,3.2061721650650847,-1.2600197802426578,-1.6670625821629774,0.4840046759908,-4.440366973887342,-2.825536453138037,-0.5453692383420773,-0.6966179642105796,4.4882744548620375,7.81066347329649,5.066104634391429,17.917565330648664,7.861709095693637
0.2647936107796758,1.4685996534397785,-0.993617979834804,-4.513650849198575,0.6651631894237571,-4.663469744294725,-5.476792073312338,-4.78827776216534,-1.8492644745489049,-0.1583143920178296,4.619582521384094,-1.8583258657906836,8.171600493470446,5.742724570822266
1.473455613001324,0.2457076355133715,-1.127325465720733,-7.806432032539845,-0.4161152801454139,-5.73973537259058,-9.460797922868927,-9.355184413914415,-3.012930058931407,-3.184622389677575,2.563317433344676,-8.677057112826366,1.953516028643318,0.5131778314672878
-0.0078221502649125,-2.1973792893224733,-1.914966382069213,-11.737536575242828,-1.773924599493672,-7.552358523376298,-12.816708407028669,-12.27715840079084,-3.750587053617965,-3.8117544249769577,1.4143013186601947,-12.169382142663704,0.3608672938649744,-8.333700044963082
-4.549928969562394,-3.864534942313787,-2.9941450040323474,-15.034513212975083,-2.311508545361847,-9.163994873875128,-13.572187065472242,-12.705257927015728,-3.702802906755821,-2.8728624642217184,0.5734695838537662,-11.25643184342978,1.561854512331937,-10.739845642021358
-9.919034906717249,-2.305822583623216,-3.9010487449261593,-15.69914084018504,-2.0289466197054726,-9.693212878673211,-11.406234397339608,-11.511109537766558,-2.8850696134287457,-2.2179514758503944,-0.3837963711804456,-7.6693549246369725,2.824374656047917,-9.537123349419549
-12.992710577722631,0.218569117263872,-4.576019806139381,-13.278723310031465,-0.6165007937747378,-9.086072340499753,-8.05099741098114,-10.477095207959223,-3.622031361366751,-3.326849129051844,-1.617448197646936,-4.758769935235331,2.4220219809929446,-8.70018125302934
-12.091099537249631,4.32108906593314,-5.230978280502596,-9.92314756996638,0.9918446430661256,-8.04526855461056,-5.954947147742844,-10.856403416059356,-6.040794055563199,-6.142895477269697,-3.109445436148774,-5.1364116337475805,0.3376033635967646,-2.0387619658149267
-7.921145259912956,6.601650221261916,-5.782541008119842,-8.641617013896942,1.669164000876131,-7.28586054117931,-6.325034695712493,-12.538104213991009,-8.261114993663627,-9.097445188919762,-4.697974013865213,-8.759685496063733,-2.203030445294272,0.1974572391098839
-2.6568857154290697,3.607250868691811,-5.666731538422855,-10.325833802380886,1.2636433312663098,-6.929937862311687,-8.246231881291324,-14.389319019907797,-10.815273334210197,-10.415138600613268,-6.159292964711379,-12.920526778251917,-3.797960220443071,-3.9446896292446754
1.633587703972541,0.0640977252989725,-4.452419045479298,-12.680644056575508,-0.1906565948605941,-6.582526230756541,-9.574465780680985,-15.283911925777344,-10.749451606344907,-9.681049547621704,-7.421499377551729,-14.271290276706708,-3.910643629106756,-4.238118919515266
3.822469329188106,-3.556816579965491,-2.642185175982545,-12.348046614052592,-1.569128551849695,-5.839576750497253,-8.702347289479606,-14.842982042340289,-7.541181465180614,-8.277768752747924,-8.666502208875064,-11.402385352567352,-3.2903714191699205,-8.368874551013446
3.620307827744916,-5.236953826260506,-1.599069256870262,-8.183308769610344,-1.6409418612344335,-4.587389292789508,-5.633566260539814,-13.352498703976948,-4.857156808801816,-8.147951082285545,-10.026931525582462,-5.916465973212508,-3.3876045950399263,-9.94423918460102
1.3444513215645573,-2.8358490425008216,-2.335361008548243,-2.39391757128557,-0.4848071154546631,-2.844380589949206,-1.616539014633486,-11.168375206036863,-1.9720586047931448,-9.835373383290328,-11.066264289113604,-1.0701844767713178,-5.032541484481816,-4.513713728837671
-1.9188945378896771,-1.7672584013449222,-4.218425946000302,1.5871497263551972,1.5358288237003586,-0.5228469821768743,2.04070387520047,-8.338040671152664,0.5843597036967101,-11.586062176427586,-10.696165329131292,0.9241390352924476,-7.388317351401494,-1.9286083162380605
-4.253948520436155,-1.8182069763495452,-5.038220608440469,2.3283523376990924,3.4867429839266206,2.426646252222163,4.768680875489872,-4.816325497970101,2.1659058359828163,-10.538927932457412,-7.923555360639836,0.6517644031397429,-8.210540356269744,4.0671898191784575
-3.7386251320684174,-1.2445203340214954,-2.729904748221508,1.5340224319620464,3.580961350842975,5.581886720419875,6.590069331985857,-0.9444184071262284,5.268263423170231,-5.195799516893624,-2.922103639601003,0.7939873012931113,-5.446589191645476,8.485450998345947
0.0557731224979227,-0.928477012500086,2.636773022788232,2.095701414429871,1.418651915725134,7.926690018694074,7.532155329952653,2.4634591183826884,9.66441630247272,2.95416912712583,2.653533251004325,3.6113650412566423,1.0178096630911675,7.159371938246827
5.262609783484464,1.207307593139953,8.488624416854131,5.149028926356886,-0.8508025164821386,8.430805310235717,7.446826945950028,4.67380701890648,13.935847692294212,10.234316039001772,6.670905873106022,8.872204392862646,8.925876742719145,8.581900763115861
8.77998000740689,4.153704497312369,11.556968064701213,9.052658505912632,-3.3618236545125386,6.9506998675748495,6.436134740483094,5.744170681949625,18.4779746860775,13.510100772587844,8.14269532088728,14.061072852788875,14.976032491636763,7.178889546028826
8.639569166529977,4.042175777721133,10.415173708085495,11.09829400597007,-4.55289940524859,4.566283473550805,5.230541731602431,6.612095570964426,19.09529164744108,12.570740411181134,8.012739561983297,16.592707448418224,16.93414551183324,6.701289923240947
5.600305401751511,1.6718877791118127,6.539630764817613,10.03469609276851,-2.601913215759292,2.857283740812263,4.810193782957052,8.300921964497366,15.172797655278613,10.082975096446612,8.26418146507153,15.937029800108997,14.96214378251296,9.913844568452234
2.338031025663927,0.140572388483942,2.9634243191328924,6.917600857351061,-0.3606257461468809,2.621682446650275,5.418606161220738,10.867159951671834,12.81937244538127,9.140318997397022,10.03782674645993,13.743242697344307,11.255907875082974,9.561313495377318
0.8884722678410358,-0.7583766491757753,1.75196874030894,3.754464521998834,2.841038418924263,3.1810346267356517,5.991560385546951,13.101137194973482,11.15341887965596,10.570527984853692,12.456228235760374,12.029736869560423,8.373698206657206,11.272551078361731
0.8604497122981134,0.1660989846289281,2.5557822090186137,1.6573510028317224,5.170015429281181,3.006889915577636,4.8671395895041085,13.41532804351247,10.060795277726152,12.375966481079375,13.301182364087,11.315967588474006,7.51807456757358,11.995980586608525
0.2819223845629623,2.32519199950242,3.417963137134322,0.404361046133501,3.854060240709693,1.2165958236810983,1.4259949397210656,11.260066438714992,10.713637892120106,11.745163393549523,11.011274241063992,10.469703581488323,7.926049293405111,8.270558209365625
-1.7810732753539753,0.6485839359567409,2.8872779254237653,-0.5183616331049936,1.104630270684516,-1.399898821348275,-2.827993049254142,7.803391722877322,6.818940874200711,7.76094513627033,6.201896389241745,8.218324160940421,7.645139978083435,6.819561082208807
-3.7016224440077177,-2.202927373555536,1.3489587979177458,-0.9593848714380048,-2.8979021578975344,-2.8586041341354465,-5.020775454238275,5.140190349220621,-1.6751334301028642,2.3501459877067865,1.2982105654928404,4.644450344845973,5.033594305608406,3.0131384822022547
-2.752500069914496,-3.3025900993999784,0.3846511708493839,-0.4358930978516115,-5.388871667066891,-1.6786751812622631,-3.173395487175284,4.58282826432534,-5.334461783482619,-1.3233611646550507,-1.4097164527768768,1.1662523726503888,-0.0458760887614122,-1.142881978962749
1.7398899753453525,-3.418026965181098,0.9703137172767662,0.8066214339570212,-3.983660178186144,1.668446570525766,1.89562081829205,5.4984471825728845,-4.930291977987909,-1.503056014222833,-1.5334712477043264,-0.824865227634529,-6.03687018323128,-0.5468241109649248
6.909712253452668,-0.9167344707834324,2.4188054332297977,1.567489898538579,-1.5390609291121282,4.920223482119331,6.838576082417928,5.805183939755462,-3.138568828479209,0.8444499916171024,-0.6271877341876837,-1.161815027671694,-10.522776118312024,-1.417426503135392
8.490913469103374,0.6126135281552709,3.1282973750640384,0.860122828333219,0.7658540685839642,5.762479082485564,8.208984841629253,3.823929346900715,1.9715088513612984,3.0832744720473086,-0.5924299738325829,-0.7686286888176794,-11.55034752458094,-1.9675767065207488
4.858367529063003,-0.5061895441851323,2.3151306636030524,-0.763908918565507,1.5669102645826705,3.670590502488533,5.093718413998083,-0.0887399999191889,3.2062617568161595,3.217864146236902,-2.000529123259001,-0.5316576069381873,-8.721227823377935,-0.8364193423714467
-0.9697509028540964,-1.5892274710714696,0.9183565710798892,-1.4057726880157455,0.0003995729758787,0.2508380708141307,-0.2580746920169745,-3.6335455622115433,0.1397233540802147,1.3658451088877794,-3.800211128819009,-0.4828482697570382,-3.4648776939461787,-1.7641283173849591
-3.622829649434237,-1.834406698571172,0.7341035367167281,0.3734807808733049,-1.0341157867791058,-2.16823377576627,-4.283834796059701,-4.430459266982187,-0.2715177040379959,-0.7255554330739977,-4.458063795455072,-0.087990864541938,1.7199055433500563,-2.1270158082445776
-0.1170034238588033,1.162070438039726,2.638565355551449,3.901211594555326,-0.2284944666368422,-2.3779067055733862,-4.803148569337125,-2.074789255611329,0.5149441377535326,-1.4076849902662651,-3.3138761312574414,0.8567778336077427,4.706789179453513,-0.9807787715249304
7.308912802154508,4.947321895272821,5.65843928469024,6.718538529401668,1.5960080497968328,-0.9574477736003288,-2.354180683520568,1.4521415768460029,1.2557930136867337,-0.4424835777534004,-0.98394030157564,1.8147964035686772,4.988226046776731,-0.0189763924761405
12.992675252856715,5.540854477393045,7.774713025613644,6.760738100317065,3.592072572440258,0.6341637552313251,0.6842273597750723,3.4368097749408437,2.925104878414949,1.111663461087134,1.2797674515554744,2.024047337115638,3.804051713836355,1.377874950015182
12.757583739740014,4.03404323095902,7.649925607478408,4.333101066226057,4.313890168272854,1.4761910634335695,2.140146942062045,2.704976759263692,2.5745907965844506,2.0429291250353065,2.4980337089696683,1.3224252870731648,2.9626288809362755,3.626590903035496
7.533852110989182,-0.0746713566718495,5.645412936316281,1.9177079526476597,3.5668020081827327,1.7429960675647775,1.488697234234618,0.4908343992849187,0.0402343315966196,1.98023187726122,2.4407470006345293,0.3811744532284158,3.257725282974364,6.154845011233932
2.4638794341787555,-3.893573210726121,3.283079743174859,1.89968704788197,1.660718539660036,2.063264137130271,-0.2343506950236702,-0.8289558225516038,-1.8706975654156104,1.449426891800036,1.5855206859454274,0.1334797218713121,3.840090658932737,6.845428230061016
2.327100937888892,-3.675755822081064,1.811674709853821,4.287548131222653,-0.369390515903607,2.561230315350942,-1.5633455219434254,0.0781777088158373,-3.745674324483804,1.1609921312158944,0.8050865079829936,0.9943955246072224,3.120291627129662,6.006260239940087
7.335819286716967,-1.5872047359669048,1.261977728708569,6.525079738105875,-0.9485336530859998,2.636274366558279,-1.6574607652751108,2.385862716382892,-4.991388718398918,1.2842213728368623,0.9011093500614322,2.56213882576882,0.3605991142716487,5.028971636631591
12.909826975098389,1.0852387985175054,0.7331707804077636,5.600688842772584,-1.9539200502849872,1.6318055696087854,-0.6082311503064903,3.978010360137549,-5.101269387471569,1.3006898293181344,2.0229130945953058,3.921223984801689,-3.561268932479658,2.0481423816261417
13.49956985056288,3.034892692716109,-0.5637464313103564,0.6464565310418875,-2.7412052298953062,-0.3966239047451375,0.8675862067657591,3.372559386658496,-6.2308361699014885,0.4662156781817224,3.2826227352743844,4.165339239739513,-6.919054211414967,-1.026343349002398
7.117960763042501,1.9419954162218205,-2.565682344765623,-6.158796723627063,-2.656151621335498,-2.622857203147304,1.883403583846578,0.9193335402041414,-8.173506858966462,-1.5350130775433677,3.093446138885346,2.78641209742402,-8.622793263514863,-3.516003043887024
-3.145042342355484,-1.3747181513626727,-4.503613346271087,-11.102263582713242,-4.398612785305457,-4.1082943321425365,1.751417285374024,-1.6697411453048137,-11.17225757300465,-4.240234411502423,0.3297954254279132,-0.1103765503687668,-8.95336260667685,-8.299785888386
-11.608130391011006,-4.419403202321991,-5.619689045897945,-11.616180146125824,-4.966045046469228,-4.478757216391716,0.3013637592606497,-2.824787974385845,-15.7161060408219,-6.62088183997767,-4.469132555713244,-3.709538135515738,-8.941474528670566,-13.428327466974162
-14.170772188908757,-5.34228774445831,-5.719534259129348,-8.02049841623087,-3.080268156048941,-4.007243120976032,-1.889467094451632,-2.235360313368661,-15.883559815476248,-7.72733973225817,-9.006770492087455,-6.642218465442212,-9.199258262005618,-15.11717334210261
-10.805937347662976,-3.067570742943354,-5.151105450513098,-3.070800680137726,-0.7448706402850809,-3.161172483982133,-3.6132334167280025,-0.7511334925354358,-11.402723023841146,-7.3006994896523985,-10.633073466881456,-7.588538785875169,-9.461076224117164,-14.463575473035585
-4.813768279485544,1.221646408660502,-4.399551313538092,0.1902150443726027,2.6954844534725466,-2.172914426977252,-3.660789736528825,0.5575641386277237,-6.331532099432804,-5.868649918104952,-8.271553586932665,-6.152712912364484,-9.170038338386,-12.387441444332136
-0.0479169046527081,5.053627959028515,-3.756532331331199,0.5346008318505602,5.739110785096282,-1.0367631908208477,-1.6581120546881585,1.1852663967539412,0.707272644346649,-4.238307541109265,-3.273563631505769,-3.362168458538311,-8.273109440109984,-7.129761516069529
1.4114308070839852,5.80133320277722,-3.3030960705392367,-0.9500333078373204,5.4190813036548455,0.1990464739615163,1.547294950085622,1.2290415787849676,3.345059296992592,-2.838134610763914,1.552660497081893,-1.1884323197827769,-7.270780272949878,-5.116612060545329
-0.3231089444728372,2.93897720048602,-3.078521679588586,-2.135322893199532,2.9609310456903506,1.27401853120582,4.358359202610427,0.917002748159125,0.5850923913186907,-1.5269212585170298,3.917215020799,-1.2339173135784227,-6.547205166969119,-6.160988085642916
-3.9545538089467978,-0.7466929629772383,-3.1676301102851774,-1.6826761198993792,1.4127494854737528,1.890182362540037,5.449912543297113,0.2626822863710734,0.2785691033433581,-0.0462479287700405,3.39077247153525,-3.5458141026976047,-5.877849806092496,-4.775929567755066
-8.025048057282099,-3.78394283080958,-3.6003317223600884,0.0859786436340876,-0.3250711885058447,1.983542722511747,4.540262930390157,-0.8256764605095737,0.9406071098277364,1.374816073746885,1.1772615117857974,-6.559743586283293,-4.761233056904832,-6.054997038733216
-11.199986094307588,-4.442276869819341,-4.198503011553291,1.82855280855718,-1.2151118403806107,1.738055967075202,2.3559544626765887,-2.2163858158741183,1.0286206513034502,1.956138932959666,-1.1559241971056808,-8.27487807035958,-3.180972785359603,-6.122084544427524
-12.231661952411676,-2.499619366643044,-4.576872881655559,2.5614566442515314,-0.6661855095917746,1.3184444751389028,-0.0355762156495158,-3.4541463910404056,1.695211102573671,1.0071988327030468,-2.698647041168118,-7.70367229160818,-1.8343094200672847,-3.0161594634072624
-10.336123303796803,-0.3315151355492125,-4.352701302397399,2.4700259904150985,-1.5101004905584532,0.6681781662244117,-1.870851204507325,-4.040623732365462,-0.3390378999815573,-1.3140559516048795,-3.254288745951442,-5.424822858735713,-1.4586164050632655,-2.978297551177567
-5.950206430139741,1.506719934274919,-3.413090253659374,2.4927099299115514,-1.82927498024996,-0.3257052449700919,-2.8614575733935883,-3.8193031563410007,-5.255678207637081,-3.895224706195567,-2.8596213351662345,-2.8988745300393437,-1.966077161864176,-1.3480212540090537
-1.0189858126665134,2.453151835682468,-2.019427736711447,3.195556083197749,-0.7147964985047635,-1.44782565082259,-3.0053929614637696,-3.0790166403053547,-6.473466901005918,-5.390811060381942,-1.609921802379918,-1.2708869833762204,-2.3936363307197484,0.7634346321012245
1.8828582468584063,2.3431046688478787,-0.6595013158105045,4.075746851651261,0.0127472742118495,-2.0316075869916577,-2.424766837799707,-2.28828254923592,-4.286160499403757,-5.165248921741829,0.0459448364662415,-0.700951961907645,-1.806570756868548,-0.8196002091045824
1.2446181386195976,2.179884226117053,0.2362276553606785,3.9837123922848185,0.291003219744636,-1.3843879505771526,-1.3778971393698505,-1.7413418360245116,-2.3692841113782954,-3.657976093235722,1.201013933312205,-0.6218254471358531,-0.2114441456687803,-0.9696503338252048
-2.135220381724819,2.465884847571564,0.5097683448385228,2.2914651786154434,-0.5776884983436691,0.5353222650969909,-0.2493084770367204,-1.440145763276357,0.5705327032413758,-1.927241085357876,1.1093275751822054,-0.4611803109601875,1.516534520358837,-1.4733322792069563
-5.4649133846435465,2.188921623995105,0.3037110382569354,-0.2771036798653288,-2.293502350091231,2.836638561272782,0.6538531511751378,-1.240895902162207,0.4847427293330061,-0.8462549390984009,0.0593043095399501,-0.0998837772528258,2.606312623695516,-2.9510500968394133
-5.80624664729244,1.3380212227814057,-0.0649913323634967,-1.981376110007416,-2.4985308596896174,4.172991046235394,1.3284418458439142,-1.0153865956574997,-3.351088191929606,-0.6307535247598217,-0.5970506402649001,0.2186654378324561,3.15328744135446,-0.6630190451279707
-2.2087541129420654,0.3342420135295502,-0.2864444851844241,-1.4005112185929949,-0.6909802207184745,3.660913211648679,1.996569760791793,-0.6388063556025925,-5.462635439502811,-0.9636866174822512,0.3351905250915186,0.2469961139604475,3.76934197111212,1.782394990135714
3.4235967441740685,-2.126467561332778,-0.2215841801977774,1.286649788259372,2.1820658285173358,1.512989760257701,2.701935922425243,0.0757967448768317,-6.776662858069172,-1.4326398363280353,2.4532991992370343,-0.0469701316495014,4.494621557502212,3.444874283872286
7.452107491671573,-3.731535600313283,0.0105468366192256,4.192530110654749,4.246734688233457,-1.1082883981013818,3.014096336319418,1.244171599303054,-6.360206530061299,-1.8268522500971496,3.683420232760894,-0.5179746950320621,4.289823177426643,6.004561085969419
6.937587301828493,-3.366119585293027,0.103411855441837,5.034057003048211,3.5126907608846816,-2.870477597707421,2.285757856179338,2.5997773202406758,-3.142286179677035,-2.107635963302189,2.0064078766523887,-0.9789471354301904,1.9214547327219584,5.960963913858876
1.7426403336745118,-3.4584309314175496,-0.1741099166649713,2.9654125469864985,0.8951615798360066,-3.0794646085489927,0.3536728956550586,3.40006308579376,-1.7825916282234024,-2.220585261576752,-2.441470726271863,-1.2733052058466114,-2.4704268728547287,5.029106864393022
-5.201860365933799,-2.297279344736532,-0.6758884139540035,-0.5184063697275807,-1.4992904524232549,-1.9727896767330424,-1.9941943950176133,2.883247380138857,-1.9306514945458584,-2.0075387678873597,-6.9393124570857605,-1.2838245304100229,-6.769839511034759,5.341655716557713
-9.740878680446674,-0.3663432678719142,-0.8490467635187204,-2.480037167685748,-2.292320730310136,-0.3962190563895409,-3.3818192470872788,1.0258070315487493,-1.153055616548171,-1.2905786827219412,-8.070119003985589,-0.9414689687493824,-8.14279593534781,5.479277827081751
-9.215547876488367,0.2703425515224745,-0.1361179318942909,-0.7338071813456524,-1.2592213219846633,0.8217585387835502,-2.876977132970492,-1.148683859244903,-0.2583189651237799,0.0059747351703127,-4.4185718289707046,-0.2378487212521145,-5.243212576928308,7.4138638071595375
-4.131098216058176,2.055853439578365,1.463985020650138,4.3157041331865775,0.4422772255550758,1.355893474886093,-0.8038158768039976,-2.203396215622897,2.837036990735205,1.8228619678982287,2.2455268284407115,0.7904925593347452,0.6004771573735603,10.415307296068436
2.438417351195648,4.361377042200442,3.236811843256364,9.735776453391994,0.4728897469734211,1.456585743221311,1.4697847354247835,-1.4463219347620786,8.585611235031584,3.9856254015854,8.301331369826503,2.0839007464300217,6.349643235212004,12.67254921022722
7.223107539911714,4.033969985108383,4.279929452824306,12.130158661157513,-0.8653966543897149,1.6282500721957147,2.669693244804676,0.4542781374609396,10.640548169686722,6.161802459796837,10.9347658012843,3.5293059190957017,9.531694171369423,13.874276387802585
9.038093818124985,1.996348596263525,4.316513749549677,10.142216109121168,-1.6157096042337875,2.1750982277851163,2.678944455038704,2.0588506435673173,9.15440314022746,7.7865448281655,9.893508846899522,4.902285422374618,9.810742067451796,12.076030103692796
9.18918806453444,-0.3025154377791256,3.998623574797341,5.391324484702275,-1.504389416903706,2.942171882173493,2.534485253405082,2.445306552974804,6.947490984260725,8.18136376737706,7.077099207240561,5.894384220289063,8.603328643069478,8.952748148099651
9.79519671638595,-3.994060498140023,4.305365636899649,1.1036179406503757,0.9056739301055592,3.4349820034540066,3.3394710840697144,1.9572269903358064,2.6361505345110534,7.014062863104007,4.637605213689496,6.284027416823719,7.393927470731838,5.449205039012723
11.587163461747704,-5.134694930279871,5.536570969915321,-0.3797227779314558,3.62293814706796,3.229201600969043,5.113678158267438,1.697313870875368,2.374469005559417,4.837763071729448,3.3838928537380597,6.124763795027764,6.519334652296158,2.741867202641341
13.155628831621396,-2.147705384404168,6.879555933936347,0.8438050177580778,3.460199049357217,2.3623416053226283,6.686131227575124,2.3358725498054684,6.805528037463952,3.109595110046101,2.731277311287076,5.74214359767136,5.471362168685341,3.5273719651151394
12.269563938677209,-0.286826029751254,7.040059886060745,2.7543576120305517,1.4924227046251004,1.3924573322212894,6.743748943963897,3.489874510144639,10.158326370764668,3.338326727118931,1.9052057821839057,5.484063243066384,4.083076891027317,4.968035460533461
7.9920714985491745,2.4760610145020414,5.405691342610705,3.29397543230372,-2.338735125131256,1.0307829834602744,5.038695869383725,4.27187849513756,13.869638776936949,5.829997092865397,1.04736892252414,5.420472023834586,3.122087872447484,6.221525556232312
1.6263483042385158,4.15636624144028,2.6674714172756366,1.8736892818252049,-5.277672578732608,1.569312545153438,2.617256104899085,4.31991545380619,14.184844792836238,9.128610162824485,1.1346531133123086,5.260001397091887,3.603628223146475,6.403372705878079
-4.311849928927823,1.6782631975050328,0.305328129063917,-0.6337334887439767,-4.067936876270508,2.524411502904195,0.8920351021007584,4.118543566744422,9.946373020914317,10.888086609916114,2.8393565234649536,4.552474830453605,5.591413678504489,3.2122322425066034
-8.022023819713775,0.8104021085627436,-0.6104533146011841,-3.042180872759384,-0.8279199163054718,2.843858009757472,0.4726928912411909,4.257122958864265,7.0821127343197015,9.661724061481635,5.484009544149618,2.997558393128165,7.78924154448754,-0.8500168975232207
-9.420103629230503,-0.3614929754539973,-0.2427691761008392,-4.85214729426084,3.2438982387731783,1.6563901130893504,0.8292402134980446,4.509946999582061,4.554065991054417,6.091497599634992,7.175302874356246,0.629690170558066,8.36849878195438,-5.2378420925979325
-9.451618053716802,-1.6778417958372875,0.2474628573602055,-6.260853931575342,5.496375315885892,-0.9288335406581004,0.9847187562514916,3.871300477222897,2.401760975865092,2.33444429143164,6.13918080169724,-2.190007224197023,6.251169774709476,-8.525185962428548
-8.700990209784933,-0.1320183696142108,-0.2774501906150379,-7.497753975537416,3.6430627420908994,-3.6572761841760553,0.4489393093668883,1.629158383051231,1.6481821409210182,0.1313055921858867,2.1682188446043207,-4.894776073838552,1.7548634803139302,-9.646771304455203
-6.886821603133679,-0.508234551494451,-2.0395014777248868,-8.411292422854768,-0.0075171528436563,-4.9063392630325335,-0.5169111287801962,-1.64726119773679,-1.1908300654751198,-0.7311444999021193,-3.079775338026249,-6.878095719353365,-3.7358496945028943,-10.973475068268783
-3.726043515807299,-1.1019315381787624,-4.287681470213603,-8.748093893629445,-3.336213745284106,-3.933728315819611,-1.4390500620860374,-4.349580028928461,-5.927114639570342,-2.063397526992819,-7.2460564092001265,-7.712058536304295,-8.537284818890214,-11.552071728591326
-0.0578335743313838,-0.49173393508399,-5.994025611322414,-8.648873571696203,-4.124361020642849,-1.5845375483870765,-2.2840408589721863,-5.200825780805858,-7.545457173953296,-5.266670877301802,-8.947652853213924,-7.386248538812087,-11.232861500689769,-11.58771439986647
2.225958485238183,-0.838196637182643,-6.610841784792678,-8.616380515889166,-1.837987725101524,0.2577555344433513,-3.4942215136870693,-4.43599282888045,-6.353389456876696,-9.546078256019596,-8.563855142214562,-6.39733771364249,-10.924057919983827,-11.536199911157912
1.6233713364792497,0.4132045388280071,-6.282661322542232,-8.880402933418402,0.709086789721005,0.1536067877861646,-5.386774500371899,-3.587553000694742,-4.76068917500267,-12.1457917650096,-7.52820695669187,-5.503619775040114,-7.441253523428825,-9.7563256833016
-1.5135364448247446,1.7360084240549911,-5.506515328028549,-8.907480160980814,1.548158197343983,-1.696099652626982,-7.590302281781474,-4.035888992940441,-1.7741899932029044,-10.614138640701226,-6.880766958890765,-5.212262715822198,-1.6139787946549955,-7.251052504488604
-4.998721963014767,1.3191838128716449,-4.709510009118826,-7.774421786165899,0.3664671555435663,-3.6205236965679672,-9.160687633495646,-5.723289821884061,-1.137277732472432,-5.191504574842343,-6.487153633269125,-5.390287565365078,4.694188105052183,-6.191844631981361
-6.432667854845239,0.3770554800834467,-4.127567136507286,-5.191434444246522,-1.6183058184330348,-3.933987886191666,-9.322365560948592,-7.278639378114956,-3.359485639564076,0.8551511978665591,-5.621004683083889,-5.395660217665389,9.120760186350866,-5.87848087729994
-5.023806966478347,-0.8414541125012469,-3.9126885271883305,-2.1225522146097817,-1.7271458840255212,-2.4215928929692447,-8.14328232593623,-7.402517598698166,-3.721628451041374,3.4487108773106687,-4.188526961874,-4.695443931378673,9.833486627938615,-5.648555668225995
-2.0561021269031823,-1.2267759661009812,-4.14103684716159,-0.2054057786457641,0.5715730287615852,-0.5304368210973252,-6.500371683341701,-6.125304605543494,-3.033772350361424,0.7730522851898463,-3.1750847428310065,-3.4366377425574943,6.524048287378123,-6.464108750550676
0.2901715255624504,-0.3800848536408482,-4.616350396532122,-0.360245123746572,3.133258001419214,-0.0817036007709841,-5.374453195460953,-4.70946317240276,-2.1221523317191497,-5.284395992847528,-3.691045712950702,-2.395618749202536,0.7557077159309475,-5.120880740938496
0.6731869370945169,0.8260679476604282,-4.7518365620935485,-1.876671918740625,3.9151376950433066,-1.6453288850411196,-5.13338805741009,-4.342088114601675,-0.2324174705182742,-10.486946315050243,-5.537189559722025,-2.269413078623,-4.623471764906872,-1.8226213929845865
-0.4929913521514777,1.3608196142478215,-3.8376502474476952,-2.8883658041202214,2.1184764099022733,-4.017190770499656,-5.420859914403195,-4.959791733356563,1.0583885514371023,-11.28664068219692,-6.88258280056799,-2.92030285094564,-6.807713173824849,0.6854832820377501
-1.4820683312949643,0.6200316633423744,-1.5816146639032225,-1.8390814327054732,-0.9693012673715542,-5.242179571530462,-5.635404967390183,-5.377225744624434,1.7489529239599488,-7.157526250934694,-5.647990520647883,-3.301379714300308,-4.496657674376041,5.194327991868453
-0.592302619560779,-0.7739476363903793,1.5561824711903118,1.3517359638896171,-2.947291808402942,-4.264360149444873,-5.445911374723062,-4.558949681233657,1.5155281845655868,-0.596574779004108,-1.4465692250879885,-2.224914420175452,1.2857279368463743,7.846737061311204
2.5292578107280974,-1.589833509255874,4.568122856918837,5.318675761768223,-2.4925117005119874,-1.7768265867698756,-4.883505826117851,-2.740986433765788,-0.0839900507749605,4.8440062841787626,3.761623330768436,0.6179908513741736,7.597886362594881,6.919983959121291
6.343847097311632,-0.878852673672651,6.455787655076428,8.208196243061044,-0.0573538119521604,0.3973790343115482,-4.098114038041816,-1.2859006103572463,-2.391120778299682,6.73946631435216,7.02286255078976,4.237169436788477,11.165606012202392,7.271080560955354
8.06384099065584,1.1576977887332245,6.667565571475153,8.63054633334558,1.875767165519053,0.7740762144486273,-3.1997495372312263,-1.4143014011497623,-5.681180055017088,4.732317482521724,6.623705026371513,6.910623966373883,10.305808489541256,5.532246363722031
5.37940738195068,2.8609186064513032,5.193689027343551,6.064601300222169,1.9292403229460289,-0.743476090709511,-2.354183647994383,-3.021681994261317,-5.954881513906698,0.1434474961983084,3.316155279077252,7.347082388597185,5.954488037354456,3.883292796760238
-1.5655321690388302,2.456191522614026,2.5091985598736675,0.9320912060732622,0.3817638047012544,-3.0076036372339847,-1.8496927000352457,-4.663631808643589,-2.793072382693128,-4.890144915475286,-0.3721224958071274,5.59409098258667,1.0173295423599509,5.7866614622382615
-9.37802834142524,-0.4363993064403637,-0.4256034657901848,-5.31941543656907,-2.2342195508209555,-4.641796145601092,-1.8412070872199704,-4.685026632969817,0.778774463537719,-8.124006209402957,-1.997526749736551,3.0343185788241875,-1.5982240884274743,5.897621148375929
-12.907951333827368,-4.540114979210251,-2.266866653780551,-10.335400943741826,-3.63095307383992,-4.953540630765635,-1.9790747958815536,-2.4810494648376498,5.798376111115616,-7.858600796492432,-0.7229040224891481,1.4774953158379995,-0.8949454466079247,6.118126680234127
-8.583962015940362,-6.45750129667645,-1.8151633153178808,-11.689667849112055,-2.798786610946162,-4.075416067428223,-1.4751614804234645,1.135758428562843,7.986942510834669,-3.7430980689138913,2.4310390839625797,1.9861018626412417,1.7648917281635566,7.223283433506418
2.6243807339062366,-4.084948417787652,1.131433068662573,-8.3469907294831,-0.7964726803230071,-2.491384589779639,0.21657811212645,4.648787828434159,6.6658193258245975,2.6755621973301995,5.47052411871371,4.233497816173411,3.981575062160124,5.315362703693348
15.11794142650655,0.4219027356622471,5.301033447087588,-1.7105723580346073,1.3624814136064194,-0.5928304090346961,2.7037893396441217,6.945164328284498,5.764505867416987,8.430997108148565,6.7132937927814975,6.801001969815166,4.300408283662961,3.736518152016644
22.02016927575089,5.247087257917411,8.515036788863153,4.881762162131768,2.7858483880903444,1.3468564235539715,4.768562048020577,7.92221480681396,4.146939465876593,10.765608256353966,5.757575721496821,8.160001104646787,3.1959564417948165,2.85503336741719
19.743190267456345,7.021461780778404,9.105924877236868,8.182905516185356,2.692085505956361,2.9686830913288533,5.362309736258547,8.20278720646028,2.206835812693565,8.868317116752907,3.658266696980304,7.625676467692839,2.266636845734736,0.7874074613977002
10.332762615915216,4.036731118459003,7.096474857087035,7.141089348469342,1.530558352518915,3.818034337654224,4.559618099731317,8.311027298850844,0.4087182023811443,4.311746422482195,2.141721473646021,5.633058584045442,2.446324795851874,1.0438116477490005
-0.2117801190061619,0.4392623117829718,4.100891457192082,3.423536179312874,0.7193338667542776,3.6355051927115234,3.4622669662836945,8.068299279284755,-1.5966804029260515,-0.2243205123157463,2.229620554089003,3.223747910169804,2.9447629964213515,1.9246350375995969
-6.270020610778834,-2.336158213728277,1.9787641250957124,-0.0253912638904987,0.0252673816838029,2.6356697396236672,3.089336007311951,6.752707796301203,-3.522106670237996,-2.885674425290827,3.252738911984494,1.2176830658530975,1.9513603738317735,1.4926456889078743
-6.206584210091414,-3.103183120761829,1.3850024051243484,-1.1686453236924486,-0.4664501143223796,1.4366000246832886,3.3874797176620515,3.8950099037149335,-3.9423895208847273,-3.659023154059236,3.234287576643518,-0.2638956739948996,-1.5469886908827202,1.5994192312462734
-2.696188951851637,-1.1679082859076169,1.438195042677794,-0.1023031551891975,-0.3823102996893051,0.6724092321547919,3.411452341866552,-0.0088873288532562,-2.623687449149984,-3.801290786841312,0.6065396878272704,-1.595478488796597,-6.578958058153928,-0.9017906129625064
0.0140956766524302,0.2703170103210973,0.7125503469455925,1.4153829183886888,-0.504185959190249,0.6305880543236335,2.495581768853132,-3.5628154977548334,-3.202856505286652,-4.4076993786882745,-4.104470231962642,-3.0213254826010205,-10.793131305140198,-5.075944312577735
-0.5831636302412102,0.5353439712895385,-1.3936040883070442,1.4775654298981582,-0.7775099299086355,1.1832332087841153,1.158206094734038,-5.337545746249711,-5.507566451900984,-5.436340266095015,-8.251153266068684,-4.211775216411538,-12.302869805039911,-8.001772444958885
-3.872474324031237,0.2281008336724036,-4.1112240390598505,-0.6744682291647592,-0.7978518465391877,1.968807235620588,0.733605954865556,-4.835178644421706,-6.555996779507705,-5.910575658745152,-8.976212772609324,-4.443917519282204,-11.07471944178657,-10.536583968711682
-7.265356440739476,-0.6365716979307097,-5.970080577485536,-4.348955171926482,-0.789120416632112,2.6092741423595363,2.056307060996845,-2.7512435570551355,-6.953176310680619,-4.939703795963361,-5.528334782513612,-3.286138465848381,-8.689026057722574,-10.10189393697662
-8.49928562541301,-1.118432973485877,-6.013989212031452,-7.981969555065268,-0.8080609299010385,2.841172259856882,4.528219640216294,-0.3755135993771206,-5.273963143776515,-2.5985333806770705,0.0422741512485886,-1.1731697922424464,-6.892687758098459,-7.384614125990403
-7.162691024818212,-0.9677357589976286,-4.501417351966045,-9.995554480287383,-0.2609319338156384,2.5964269248616207,6.5344645301258,1.2967790091541307,-0.8717032908527824,0.0476472519704209,4.421165442483124,0.726979827395962,-6.376497186882389,-5.276704908640922
-4.526014882854776,-0.6453339286371109,-2.5736863549937974,-9.455393236863811,0.4587322395408461,2.0578590294578927,6.829295470247149,2.0403818765934583,0.953592259298505,1.740690700916785,5.431727680325885,1.3640656744293933,-6.725388862446366,-3.3858434910602258
-2.217955170983183,-0.2564057246251288,-1.290083430335364,-6.388267832441857,0.6910406313016565,1.6055049768932808,5.576811137849777,2.251828218103175,0.3974500497769661,1.987450605468771,3.2895224943377475,0.6881981577152279,-7.203082261158823,-2.4323658144643905
-1.014244461156788,0.2715808606116939,-0.905054831366452,-1.78254147509708,0.560662263536672,1.5879449021345315,4.10964429866473,2.489996813875245,0.0602893757505297,1.4130436804017648,-0.0919117819667878,-0.2618239843514121,-7.376732305800587,-2.515518278191815
-0.6262214390995879,0.8319282548511014,-0.940111312553908,2.7443116512633834,-0.3151561090537497,2.040032564665606,3.7247396688031977,3.0937479170994644,-1.1368642818703936,1.219477436378277,-2.780190539953449,-0.2350217127241869,-7.100328295037567,-1.6492773487123067
-0.3922447262145034,1.0650600044245184,-0.8399889471649404,5.613138058877552,-1.2613264069023045,2.606611662340228,4.686002149155072,4.0172762155845065,-0.6328890568836638,2.1762253118719523,-3.912901840409297,1.1387688783018932,-6.24690039037286,0.4838302887230045
-0.0472229514824702,0.8955216564842265,-0.5160449594151139,6.079617055670282,-1.084322570530516,2.800116252554628,6.2667659923016,4.870091478167838,1.959484478914457,3.9847570270867143,-3.5457675772239026,3.063996954794567,-4.740144006101484,2.0037938053144657
0.1694431823261668,0.635978173698746,-0.283392400758202,4.713759120593338,0.0867716735355264,2.404124754807094,7.577594177403486,5.180838521799203,4.153301265444134,5.58851734566649,-1.923727355331048,4.382145762187802,-2.834218281058768,4.203898441885697
0.061216529004449,0.2921586468349158,-0.3509991296384642,3.138465802879223,1.8538350462720117,1.665059909241875,8.226113848301253,4.829116090385176,6.582812592661132,6.177691184967702,0.8005569072947467,4.652801068250766,-1.1290395695448474,7.301272564179829
-0.0256379198282772,0.0050040454435053,-0.469349321111951,3.024432877921264,2.7696972740468286,1.0814453112323743,8.206598878802517,4.317310046984748,6.375629865340574,5.968436360844923,4.156142364199125,4.403541016653898,-0.1302085894098432,7.007647230678584
0.5898741258592572,-0.1300561670882961,-0.1469316862195162,4.91916097045576,1.6676781066592214,0.9642954828534918,7.361648910235809,4.459826420382224,2.917466288945479,5.966602663618895,6.947301493251743,4.311097264508154,0.1710161303625774,6.257014685346532
2.1225345490168506,-0.3583308318713205,0.7720632648000141,7.755346936814949,-0.4023430219434412,1.154320081432057,5.239538228505078,5.530198306178971,-1.1851035281068898,6.847755697082346,7.620248975135571,4.2477432499114105,0.1474204333055375,6.065864239879037
3.782329847541234,-0.8792037736259134,1.79156342577728,9.511361127637072,-2.8590961121553846,1.1461661043384952,1.6676905918729537,6.619026218893892,-6.791334662256787,7.981165925420699,5.344034672952322,3.3091578853487977,-0.0390946577261672,2.042379913012505
4.232333774018587,-1.0533921709161873,2.1083257570215785,8.654184680694605,-3.649786417817762,0.5139028800450323,-2.5672614727690286,6.062822252851396,-9.238212820819584,7.63317548602426,0.901316814724133,0.8718843881564329,-0.6811899955865215,0.579531983775184
2.7999417567466187,-0.4948203578224771,1.3636978624605067,5.329530662427143,-1.4594546172660914,-0.7201293793993768,-5.834913516178856,2.900063172079612,-7.832327899056173,4.3887408968220285,-3.512869858866562,-2.45497696091396,-2.013034105746577,0.5331253569197304
0.3138222824739562,0.2798916815279777,0.1023432262471102,1.3803685495536868,1.4779949459897497,-2.069416917444768,-6.7323691152959215,-1.8614926421729248,-6.623617667306159,-1.3290423726855387,-5.613402578375119,-5.092665608509188,-3.493925898278036,-3.2274033577022534
-1.3708118009864163,1.7143379722457048,-0.5547403281769094,-0.8488546185745753,4.958204279709624,-2.91408031968536,-5.22906680955097,-5.543671863908283,-4.363926032136612,-7.023656493924236,-4.53035271589162,-5.811696772746377,-3.878610579555641,-3.945973101865643
-0.887696018154136,2.467985660017994,0.1799921934102837,-0.0335294472204981,6.235797275986087,-2.9029223721590247,-2.78266949511129,-5.7563720442365085,-2.647476433737707,-9.60081122692364,-1.3476246187985303,-4.798773620030088,-2.283585621904411,-3.493104787568707
1.4336628825484272,1.486759499469077,2.025327951576465,3.366729508542416,3.542760424412224,-2.1409600567213136,-1.2333693515739492,-2.4712941861202733,-2.0315642141676844,-7.551444687108674,1.7519290000537069,-3.39148597160003,0.7664980669894561,-3.687485180143932
3.837071314063608,0.2356035768890194,3.731671352614343,7.520860004345312,0.2901716444637759,-1.0897745171752895,-1.435656533629185,1.6922914918340697,-0.7958406061738883,-2.1468924760352444,3.0834774781596046,-2.773323216987384,3.550645965060429,-0.0485331521872702
4.692574202681068,-1.6348836920118903,3.991853151886092,10.355813486100368,-3.592298112172472,-0.3219985763100599,-2.82071710133138,3.4137717960760767,0.5287888149740206,3.3561535764300494,2.5718534742413066,-2.975405419173417,4.628570693011838,3.85342194689932
3.9035918557084814,-2.6998511190110484,2.4364737425199428,10.590047638106608,-5.628739510720869,-0.2976566479245948,-4.178233831755255,1.2800933369906051,0.5168394815387143,5.937286879486269,1.5336436899929051,-3.158792271946938,4.144992620330438,3.9065707122027655
2.846039380506584,-1.757392024882766,-0.1080710431035925,8.175383087877433,-4.078942741623436,-1.2055041227652057,-4.826932042747577,-3.177569133145713,-0.8238815777600583,4.753244513373767,1.3469575368472526,-2.7846678234256377,3.521441689146055,2.4195197996449376
2.907631641152088,-1.1055381898976164,-2.3049930075944687,4.156853268107851,-3.3425030061444523,-2.83762948802486,-5.080411713301618,-6.881384868333512,-1.5111715496745803,1.349284968295791,2.148316038496267,-2.3670963096470814,3.739861823021585,0.3474857246889045
4.037923612140402,-0.5641811285752365,-3.32725942788457,0.1740323049651899,-3.285030936902129,-4.547937365416169,-5.684399918351971,-7.743762289582197,-1.761152494318006,-1.850760824607912,2.717150326526884,-2.9686832434733166,4.040384969800225,-4.328162548159323
4.716567929832381,-0.3255951671617046,-3.3219393942753026,-2.2368480402521023,-2.82005183535129,-5.446214880043488,-6.872900031627372,-6.115844806602189,-1.528151847077117,-3.3808994219585085,1.7151030321651175,-4.919316943162865,2.618753488487215,-5.644230895225191
3.3966421234005555,-0.9861743049341016,-2.9684606305153647,-2.3770257741803107,-2.44136091718536,-4.880205371954478,-7.9720775415463,-4.045782484374035,-0.3738962956832479,-3.4005621758785605,-0.7998345771693565,-7.076002234390584,-1.154618949021696,-2.488405477592772
0.062946255872319,-0.6696028310637574,-2.6530794009264245,-0.815920579506864,0.0163023019553217,-2.95613430900724,-7.915364162284698,-3.280537496611454,0.0615709410962439,-2.9140658886719244,-3.0688688538756974,-7.487915167405635,-5.2881782208807735,-1.110250255348222
-3.582714451383138,0.560963821368944,-2.141752514085425,0.8724086208987263,4.735589066170958,-0.641597042832208,-6.205382289473336,-3.9344954648307535,-0.137720227756166,-2.579323753008566,-3.047301437191818,-5.020402091436482,-6.327479490047864,2.870640016307055
-5.508242024872812,1.9578937809199304,-1.0739673017820763,1.0988898484423668,7.358078021505072,0.8034782805944776,-3.474947062278413,-4.856948351913892,0.646280435028056,-2.3124346795184305,-0.4101529331732187,-0.5393917405980249,-2.425752471914027,5.911192980926748
-5.018740804378629,3.131069087309412,0.3202552010408883,-0.587568357924452,6.378028001747261,0.7665620117433551,-1.1237171750526675,-4.99943803031231,2.18778863118735,-1.8503247564180183,2.7719612735854327,3.4802709860971603,4.507490895907225,2.434518124721334
-3.1468124176762338,2.848132131542076,1.1800705997119962,-3.0228605864523885,4.143773216987696,-0.1462189386788548,-0.262232528017785,-4.287329934827461,3.23184919501916,-1.3717823842632129,3.5907772576578765,4.75864723513361,9.87944883324598,0.4533682667489013
-1.4455487277255958,1.537678946715507,0.8330649221561188,-4.082633754881776,0.3626048763675973,-0.4862528083738251,-0.8059009125256509,-3.2956655037296576,3.978624926836116,-1.3338870720295724,0.896567571439375,3.013238212538408,10.078431518884036,-2.138030570514474
-0.4287532731512424,-0.5930116875253133,-0.3541963084515718,-2.126267974377047,-2.559319899149627,0.8749075959792467,-1.516615641823252,-2.3881873133399107,4.062819858149616,-1.7326353209723455,-3.462153211216302,0.2283654996937461,5.520994320003632,-6.114656088736819
0.7452810389440536,-2.6271606481249727,-1.107300872773088,2.709796709937871,-2.3723266503303355,3.691237237739733,-1.03934125203563,-1.4068623240138205,3.198296486188571,-1.7846839054011738,-6.085403535816415,-0.9336167313044824,0.2484535821517912,-4.456509807124219
3.012889158322752,-2.0845647290543603,-0.4122218811803115,8.269178469709157,-1.8618043784290133,6.329399674891608,0.9013973264963316,-0.1668798031307776,3.852360967366891,-0.6095937059116885,-4.970802687009591,0.6785361741640852,-1.6290630384659632,-2.621018667513199
5.895588957242195,-1.1320208015298396,1.3731031955991462,11.4537891435068,-1.9463187070682004,6.93250121015215,3.1949181189399365,0.9966751597003328,6.022439120287575,1.690877152870879,-1.2470980458637229,3.75279096745341,0.610531077008396,-2.586947261682724
7.441812709411767,0.2770711841994209,2.649400249821303,10.07489868912248,-1.373335022883105,4.879798082159224,4.23014615053037,1.4010303217486726,7.017092972670936,3.7621595931239264,1.950222765868156,5.633018867499256,4.097252953558584,0.2643227716390488
5.917627910283668,2.0846430659154507,1.9747730631057383,4.383578790231371,-0.7750523888371913,1.339833486761127,3.2173701316219283,0.7622601285210777,7.237318603527028,4.01353595623117,2.3701075980313675,4.5715263883598105,5.459803858502779,1.8654338897053264
1.701819529389458,0.3621893736437396,-0.525626721066919,-2.7663398829328347,-0.903207620654549,-1.5641564876740688,0.8231917301757576,-0.3467273485279634,6.263512786341323,2.068898553751656,0.5331388420022822,1.1962494381246105,4.120405095246811,2.294948479590696
-2.568897172526623,-0.4397110277121542,-3.090743069708825,-7.450699843824566,0.5771337436301985,-2.284850317274474,-1.3388922668340406,-0.8912751802960486,3.525485985928424,-0.7382667709925244,-1.0813811724551368,-2.0345762613364347,2.598691367821079,6.124286495099418
-4.004968360478967,0.038878894756952,-3.729967496866375,-7.132901716415433,1.7851297593536817,-0.8280857750308606,-1.8311545522738195,-0.2597420011517997,2.4344814935848027,-2.374698100087431,-0.5483440302299734,-2.88170452455949,3.639343096145498,6.748712050741084
-1.938069100830424,-0.2983361777394107,-1.8850730970129852,-2.477493708297816,1.2510752938607144,1.512744730708535,-0.2445308808612232,1.224802971102605,2.917074117034305,-1.7804557468919873,1.8344262155107216,-1.1333663992661736,7.125461183426164,3.387583808262501
1.3837125037153353,2.371823514385353,1.0914916153704883,2.8596581243590977,1.903308787280405,3.242203528148373,2.6498533879303867,2.61001401157902,3.504401647740492,0.2355913446240576,4.1801146455485725,1.2951393028129683,9.917207231375764,1.2932825465624438
2.584711125511209,3.049534601651594,3.0244596386011646,4.550197991270082,1.5055707049548783,3.5663139640455714,5.3053571976117215,3.0903832771560475,4.934823223512813,1.6176527063757304,4.984504718342323,1.9823738282175265,8.817008030905457,-4.452326161932955
-0.0801237946031889,1.112638712247101,2.6280876448679003,0.5271660236459725,0.1363370215013018,2.539120188902361,6.091108245632283,2.5732982990714888,4.292254265205216,0.6535409948272055,4.296620588415658,-0.0129202822590897,3.749979576637728,-7.867308497171387
-5.3379977560216805,0.2147385462483104,0.4475600125109955,-7.570810074526584,-0.4140017582685499,0.7100895264983538,4.124751712557893,1.6703395966064338,1.2819091728277774,-2.750261993059845,3.089636944288255,-3.3834745755501365,-1.9596614962419856,-5.306730430506316
-9.94935599068578,-2.795995299849049,-1.6696668283143128,-15.540080038572176,-2.434698841299691,-1.1804013493763694,-0.0304365831804958,1.2329294738967578,-2.654248336110644,-7.039461203217181,1.8527869861614188,-5.618662024385252,-4.4743211079813925,-4.577031941718801
-11.167913956659351,-4.770202525118978,-2.089784633681088,-19.47777247198765,-4.673655063806348,-2.337856555142876,-4.373464933550395,1.7669782680803827,-8.32060444054049,-10.126532667959715,0.1140726158668172,-5.040905448419732,-2.6923161655984584,-1.3075237899037149
-8.566930343833029,-3.791092630473877,-0.6727744669798379,-18.20273982858598,-4.481878806714459,-2.1773745869360197,-6.540331170677787,3.040850542108409,-8.988399171718672,-10.705993501907276,-2.612510260242804,-2.1975137946317838,1.1894615100534018,1.6217202740093717
-3.992752902535885,-1.984551629744846,1.185709615320147,-13.524976141784006,-2.3459452621544483,-0.7677404621986299,-5.397335517633918,4.143561372320514,-4.032549077620417,-8.796773015582513,-5.603972933284736,0.5971218817132637,4.136096894549354,0.6659003334773703
-0.0695476883059296,2.1081836584280893,1.7734564823787142,-8.496192476774542,1.1927100518689482,1.033538829771063,-1.8479368919485808,4.105000917592111,2.25432982280662,-5.269847222481939,-6.888631392266711,1.301903599556792,5.172957987275005,2.4199543813474467
1.3548765175653008,7.806723318566641,0.5448952357857877,-5.3381701605396366,5.861383567009332,2.190875789138966,1.992504489931889,2.7864512597065105,11.6388974451345,-0.9747266703392724,-4.637654950228503,0.0747768013832326,5.87256354364383,3.4656416377394024
-0.1828028009740547,9.71140121997128,-1.3907292827472428,-4.665825418216716,7.117442722415043,2.44278555901068,4.59240992074903,1.3142043517240063,14.510952735799249,3.6658795387220993,1.168816545162168,-0.7248059549748458,8.123947010567845,3.4216018158288004
-4.043579974145896,5.240147005824429,-2.25274039742677,-6.118427130396023,3.685552995538796,2.546913408882336,6.065505398112136,1.4335234002947974,9.712552276767491,8.293307502434875,8.233226737257926,1.300610548333243,11.621130421462404,4.963978793361063
-8.98480506192545,-3.625220747273012,-1.2500507623508237,-9.185172599796129,-0.1048911392584206,3.3268431891976675,7.4639058919865295,4.023746051920227,5.934550562801241,12.0329486467217,13.089390625943796,6.058265704958312,13.73268998037043,4.670491554110613
-13.463689477366778,-16.881053964260765,0.5573790234399074,-13.186204989658748,-5.030597327653092,4.412860251181465,9.100187479897084,7.957359933548936,0.7944393410549929,13.529702962220307,13.177023439000772,10.470064346998749,11.969065362988053,4.083178490054994
-15.924290253486063,-23.112753022351185,1.0659002825370187,-16.71901117985363,-7.079235405164599,4.1883687883076846,9.757072816639075,10.478662457596888,-2.2869623878898246,11.814959332670464,8.480225667467229,10.75160770554051,6.614584550246013,3.442002608035525
-15.37296702735548,-14.715976802171554,-1.0027768803134671,-17.770679897551524,-3.308225807646559,1.3422219879744066,7.737919098617617,9.077554450808927,-1.92980230399963,7.285896519303364,1.6257250509847587,5.644708427521136,0.8504276733513709,0.1723288788079625
-12.055138978619071,-0.96054157679852,-4.809334549432846,-15.002391602657823,-0.3849109009791503,-3.411256342567448,2.745066727445609,3.4596200100357013,-4.321186141752865,1.8001064467597168,-3.7417753116698567,-2.2665895470825808,-1.911956968783505,-3.725067465782071
-7.573240110201729,17.299122332921108,-7.896279288806998,-9.14817416239468,3.155305706085677,-7.374613512149745,-3.363596278914049,-4.008232569807486,-8.46023708742725,-2.38284835205398,-5.355984370321096,-8.430427259178417,-1.0687169542049908,-8.431348648286791
-4.019882475896687,26.55833206776247,-8.122787101731351,-2.896405362749226,5.4203717238828935,-7.968897989974355,-7.796414849272322,-9.785375808852647,-10.024215422719031,-4.024961095454135,-3.857952687311938,-9.828542082169648,0.6005978634480229,-11.574005925269166
-2.576173731149151,17.378059870838122,-5.3817136990943055,1.0660183914180177,2.6559483856809614,-5.01476603245602,-8.917820306580936,-11.438980512594291,-9.670808590081649,-3.5528057212170445,-2.2172265701087923,-7.108187783511049,-0.6034704150023416,-10.659854363289837
-2.6875684624115106,6.581740754106731,-1.6297728876786692,2.1993933494039126,0.9776672583472886,-0.9536591195422126,-7.2891061295041,-9.053827700353551,-8.77248937641185,-2.456998176964923,-3.310312253555569,-3.638596108987469,-6.002677467505,-9.120454543836944
-2.6031429602118887,-4.355517997752591,0.7417390541850146,2.336638939587468,-0.8423964111876977,1.2664205395235584,-4.853546444040674,-4.923197424039998,-6.586042609385189,-2.035909041477332,-7.500147261601214,-2.5281901623486824,-13.335952229880506,-6.091361299611049
-0.9019700041347036,-10.256383879320891,0.7462482263404766,3.647583882122485,-2.5866270129129925,0.6144430775772101,-3.2399842362407103,-1.961096184930604,-6.05256620500279,-2.5379842917859,-12.272939952621329,-4.277783916997354,-18.630052119205203,-4.219452457798286
2.2935915992959046,-4.820398069731668,-0.6742124750670904,6.30932882824246,-1.2481209831637958,-1.5501635722404536,-2.7909905327318505,-1.97474902090088,-7.466467060019719,-3.2924233536887826,-14.356893483669296,-6.909106156640114,-19.39467286335779,-5.374016940254927
5.478814478979334,-1.4513572103368997,-1.710633082257388,8.264152599133872,-0.640323888481686,-3.1723143160025984,-2.931294719328111,-4.756476238067691,-7.35949751583459,-3.5320701691256997,-12.54509826750348,-8.071358379026215,-16.37154868966795,-5.304575675269187
7.115413879006329,-2.0569247774456114,-1.242991014826849,7.394604476524709,-0.231991401608235,-3.4546867804842414,-3.097301375109464,-8.347874740794303,-6.334058099758384,-3.0997210834701505,-8.716895002223364,-7.024763814620627,-12.544733787879808,-5.8918310504973
6.908464446142784,-2.6596405735601563,0.4509637412713907,3.9570942113722873,0.3876363477507201,-3.137865974881386,-3.137437233012072,-10.26771719331547,-5.537364798261514,-2.4539156600079792,-6.111813516708772,-4.840316248681944,-10.561163047133824,-4.831162959711452
5.884507775917644,-4.247443024743597,2.2309644128698807,0.7638218809959199,-0.1819131177579599,-3.1403318329845966,-3.006461953096636,-9.086374172283644,-4.470953852715995,-2.077721990884964,-6.41334289100919,-2.990627786808432,-10.866861591748483,-0.2171589392808927
5.336508193748848,-4.127682639113687,3.150035027093302,0.8160106492003045,0.1120036773750845,-3.3243418744727684,-2.485856708486544,-5.459414188504631,-3.9372578488905594,-1.9245566583530265,-8.294183458022157,-1.918256390480149,-11.893942387153835,3.862394578341214
5.756262155723576,-0.5248608395608427,3.0552276549984967,4.642077006046257,0.9638853459159076,-2.812381424598112,-1.4862855821450012,-1.8390750721906808,-4.084356714888775,-1.464132212914265,-8.710962662182371,-0.9226180183252132,-11.714193699673691,9.776575804341446
6.765848115087664,1.9506522647444733,2.4326672786191037,9.89949382905892,1.2501921388711732,-1.3631805227574605,-0.5257592725734703,-0.8155031816625957,-3.667335939284433,-0.2872950619230039,-5.700256130476188,0.7622435792510203,-9.536416018332208,13.290588673235783
7.95420614818423,1.7758624244760657,1.9459520512303532,13.560485747513344,1.0786973406054796,-0.0400383374844643,-0.536879894089136,-3.113364375030983,-2.844851372325744,1.3467589009348302,-0.1153380851495384,2.997148173863849,-5.966572271013384,11.433416698637526
9.58262332600134,1.8448633609573672,2.167327980998806,14.501401903255289,-0.0631251011718063,-0.2102477322644489,-1.9089680402081333,-6.803132574309551,-1.05801512332001,2.618683367338896,5.171777495362264,4.910046709189015,-2.226700887806018,10.079404304849954
12.301154368691172,1.3251968080335608,3.48726854419818,14.039620954564011,-1.5903138355495785,-1.89087846518612,-3.767684997386038,-8.567021371373887,2.002893238830568,2.861927676818105,7.718329419681318,5.930730343294012,0.7483243832536921,6.085291375138147
16.112965133624016,1.025113984690868,5.887289156306132,14.107014573629073,-2.0565473811431496,-3.3593843060622355,-4.50665538780228,-6.227523885974431,4.028280301430968,2.1817871944129763,7.337646081415862,6.465420877203908,2.678289994007578,3.524261922229824
19.706040344642727,1.661817345218525,8.604779771745672,15.089780608043794,-1.2110163035094406,-2.686438116602922,-3.271663906271133,-0.5530647378147222,5.106661412012678,1.3365424066734803,5.816994685302522,7.425573440854762,3.780536621924547,6.133947123871341
21.026613125586387,1.0180296868546546,10.216381760445335,15.560640676727797,0.0713636938045858,0.2620172688912845,-0.8871131367794121,5.226939186592574,4.036427640158758,0.9938221943235276,5.077447325366123,9.13819019018106,4.44359639856064,6.9085754514368665
18.805471459040312,-0.52927657685816,9.502727430596352,14.075299388856523,0.9897133704275132,3.452222914989079,0.8777076041583634,7.907405267651814,0.1102412594590726,1.1451006546695195,5.6157092288578205,10.88415026756354,4.982858417317278,8.897457920855908
13.76099920665848,-1.7266246335175226,6.592757828156158,11.04615676768323,0.7576774292339574,4.440955527451081,1.042730172244994,6.764938359029564,-1.7782286329123889,1.2822827283185028,6.516742670567261,11.619376172781092,5.525605130959931,10.2306108217288
8.34989249224828,-2.267394001686416,3.258662543393939,8.633756178051176,-0.344044909881012,2.5730347015084,0.3218171365734292,3.928029310631276,-1.8619499346226032,1.0907043683812994,6.686916029651471,11.093757926298746,6.016564270122689,7.334602001550957
5.123588549984037,-1.4223631603656464,1.7593047307661074,8.649930771825325,-1.0062120229306015,-0.5304552878659266,0.2128263787933857,2.3990986444305094,-0.0618514021951326,0.8427093678917963,5.922885640042065,10.106498426857616,6.335960666527235,5.565618765259089
4.938395574853985,-0.0743413726112987,3.011148569872564,10.546235982382417,-0.8800354501644694,-2.581432138519169,1.3015999083553549,3.516346284673462,4.838625358679768,1.0404959253439454,4.887410213434437,9.586246580772553,6.44202209872841,2.8801485201640915
6.423759417957809,1.0642868108333423,5.71124983615616,11.566103893668558,0.1459398655768294,-2.6317734545591627,2.7011224753244747,6.08144618202784,6.343560421935336,1.7492947866040556,4.311001787458359,9.506715204266223,6.385555329275748,0.2908063330515113
7.109775536226678,1.8724338587268932,7.333621738816639,9.066661886524058,1.4492872240947727,-1.5431768564231163,3.2272424739069123,7.791005342870324,4.48964402177923,2.4328995991380022,4.390730161645447,8.85229715763269,6.155605020419365,0.3487869386504469
5.304665485228841,1.3700091448537624,6.205974307352513,2.9086138360021563,1.8285996687067565,-0.7277650669262608,2.8648119010341877,7.484231892593172,1.808105764145896,2.5123378435332318,4.862115666707388,6.7037208770372505,5.5326063579776354,-0.5630359055560697
1.2685727298743874,1.1812300512142635,2.8187458954599576,-4.276399690780854,1.9927043640995383,-0.7143006566289705,2.7066624745834225,6.047769384970299,-3.187258617218402,1.993231840216218,5.340006436590045,3.2847587980437307,4.165624959622982,-0.952471247831898
-3.163665681853121,0.7902988942643163,-0.7969966562656965,-9.167982683800346,1.5387968269671093,-1.0133439452496296,3.363360344275267,5.209401987907742,-6.164553002664477,1.3813588741734657,5.349278304583214,-0.1601021226750649,1.8531702848280525,-2.7507398579416016
-6.139526744898214,-0.0920306244269669,-3.0007378673503187,-10.32016318411292,0.5573130732827096,-1.124592296280241,3.762527913253297,5.522078769129086,-6.813226576194562,0.9085073843846868,4.114192669780749,-2.5612026375418804,-1.2523640123562745,-7.737865993909681
-7.294679170108282,-0.0644954278163397,-3.988650246190785,-9.044028371773344,-0.1050168387195163,-1.28960228854406,1.9794778975855776,5.585613687285969,-8.859649688124094,-0.0725445814628535,0.7128936111958009,-4.098117166750757,-4.743726059513408,-12.51283488237016
-8.0625632139616,-1.1005438706084565,-5.473181950451206,-8.064429204396621,-1.8166043803775345,-2.069686100511346,-2.543231656772523,3.302708248043479,-11.36251457721492,-2.7444014145798423,-5.1548109518679,-6.088373446652511,-8.25549647586425,-19.03341393360553
-10.53543326141316,-1.1575958621742009,-8.93928620120346,-9.277395744663652,-2.6285869485155886,-3.3271303022558136,-7.765614540092272,-2.0085881434977644,-11.996876667688458,-7.698434936094049,-12.423189873078057,-9.7651628400748,-11.6159326451636,-22.22494070507917
-15.658172423449969,0.3537226070666828,-14.031418181582971,-12.415401511087998,-1.5910902793142427,-3.930508268901104,-10.347980586805484,-8.618238380699008,-11.01840595909135,-14.013706357166674,-18.85079845767241,-14.995699764955166,-14.659941000333948,-19.7359820555564
-22.044487610937043,-0.2533011604003081,-18.43367965605777,-15.39277831359696,-1.166339398258363,-2.6757919157554007,-8.413885523541069,-13.412617694734884,-8.934400942252557,-19.39388109077392,-22.231255839042436,-19.975661266246,-16.89441169241952,-17.270974146121738
-26.378190888896015,-0.2957351898994295,-19.337275906934416,-15.76794667980893,0.2655966448180308,0.4794217668078708,-3.145916146850372,-14.051408448582857,-5.246901047040079,-21.305639158903517,-21.62871377320283,-22.119364234513263,-17.417879288617666,-11.21242203815547
-25.355164898940615,-0.5027608073377352,-15.388090270431736,-12.24677722388682,1.3044114297184448,4.164805119884665,2.281722322948045,-10.48662453965994,-1.634873288906957,-18.29593061430509,-17.566954156563103,-19.54951756091552,-15.310412781182556,-6.394278561388875
-18.013730443731635,-2.197271488508196,-7.735969609698003,-5.4871200523114965,-0.0015341057686442,6.627662973025966,5.32161938014535,-4.782316857121373,1.858689586131199,-10.694033361402948,-11.199284678584412,-12.303071884867007,-10.2991874995114,-5.274868945061683
-6.829873184097416,0.5439254773832638,0.5030746864002609,2.0403943452415447,0.8212710382410314,7.061123660637502,5.745594146655286,0.3839805007118499,7.716115801731783,-0.4963163969862023,-3.5392503714466272,-2.594459304531753,-3.235187631498171,-1.1047850508664558
3.39374653771808,3.882860835734161,6.003432877212596,7.11188889628059,1.944202164222327,6.007394931648101,5.074436341675572,3.2849293834801827,15.719955598523695,9.298414164472057,4.40058172797562,6.057038211108761,4.009836531161952,1.98777908477853
8.309868627821608,4.059471780953841,7.089259200363891,7.427546711976483,1.2896157708887466,4.579427715114633,4.691727713018281,3.77040470236399,18.250548697408394,15.634375816404033,10.985550679027256,10.491080608448932,9.271172842319928,3.790107085170488
6.634992347211679,2.834848154970693,4.537758662546949,3.105119855826402,0.8866899798120349,3.370973407970688,4.643396555453009,2.8396488695684354,15.094473214087186,16.506143292925273,14.080413899907022,9.534612287522286,11.098677710997954,5.29818732044872
0.7330412217774551,-2.4910343063135345,0.8467788402589917,-3.1035403054308617,-1.2364221902575292,2.1175965705735607,4.100039418352608,1.7399305581994753,10.604627380124947,11.972491419757816,12.411266751607144,4.6294808867427975,9.49382328726862,3.9336390998655215
-5.208019221850776,-8.042684908327796,-1.5065600948362885,-7.38148915843783,-3.796034908335455,0.3379212231784763,2.667245260970091,1.2668182283553548,2.958228540766537,4.489325699655545,7.096029581774815,-1.0337597222723502,5.931973873111232,2.0553046595725046
-7.964799890579954,-8.066551122883572,-1.5986118637947655,-7.348612890068267,-3.4680080768538013,-1.7985376058477485,1.036024741112243,1.5833672785666124,1.179664935400244,-1.995198154873961,1.637782622806391,-4.410216497128495,2.6167852112466434,1.9213581242788944
-6.949631742389556,-3.870256941736094,-0.3332825771053862,-3.643802208305196,-1.1449418125912896,-3.3243026902138557,0.368625383645849,2.4559001275652435,6.370432575455292,-4.026612549672223,-0.1373619163612147,-4.281685572606698,1.367826963997615,4.059360045547248
-3.761198562984674,2.1442266385187945,0.6327067436531664,0.7514522780642352,1.0657564325291984,-3.257116993907573,1.1678744056402195,3.579023775976744,9.48297827420378,-0.6249086017998593,3.235081983676082,-1.5991926368018312,2.758144528754187,6.965570245643958
-0.410392931955414,7.656425684299737,0.36317072549447,2.950528981444833,3.2850677307056717,-1.5848252626055412,2.797928497089828,4.718792536617535,12.663860870536224,6.0853888064394965,9.742998598428294,1.6098940677826477,5.944991211994747,10.008288270822195
2.0942749792931465,8.117829252563373,-0.6926580659669526,2.309830096887552,3.79268266613185,0.5233401401877842,4.053306028690727,5.638236121139876,12.696330256096058,12.12451938621497,15.305305589318309,3.75189735391912,9.2084044396277,10.913148725931435
3.812875823038702,3.716726649741661,-1.3035892727755964,0.4950868468157523,1.7800371253999678,1.5649914497838182,4.147499973345546,6.000322164076124,7.984234942896521,14.009367372818588,16.56437962257769,4.378326473923039,10.846277344763209,7.813389790637477
5.0246424791621465,-0.2966995375224231,-0.6832980300473963,-0.4073439756712815,0.2429630795763902,0.9123237145963116,3.2104344244811216,5.46310453646764,5.031209187868668,10.696203194152105,12.906773428102923,3.77891075382,9.975914462819375,3.984481901219207
5.596161345866349,-3.7967454003964862,0.7920220238723203,0.1571939285065724,-2.0903874894022487,-0.6847994193583418,1.977967695826209,3.9657088160033434,2.792030054745364,3.9795924583480513,6.402041061221112,2.2261248195624432,6.919670016459776,-1.102533163998079
5.148196558314453,-4.732681377802976,1.9720973423376196,0.9967252803998292,-4.104396780435855,-1.746278402422334,1.1148125064475352,1.9492011903714823,1.715664563771147,-2.70655428762403,0.1023929711513744,-0.1791131583513845,3.041804620667861,-4.540284913589806
3.5961348218107645,-1.6984989754404325,1.99431827450573,0.6853284902615542,-3.141014390480395,-1.2776194665042908,0.8147066063741732,0.2357340327415329,3.0045779575153126,-6.230887312087077,-3.793398804426488,-2.988955198973599,0.0801157290037792,-3.064335317935332
1.329170474167512,-0.1356117265046277,1.0138593043650417,-0.8815413093967948,-1.3167328226653203,0.5016380306610557,0.904337772177982,-0.4338020947196952,3.504692036076899,-5.367212060096421,-4.741725836983164,-5.071890757852216,-0.7757623180104645,-1.638165819086867
-1.113796463289063,1.0284768600654726,-0.0226450797272121,-2.4520202403868154,2.3427343438517934,2.4740145793867327,1.1626364744262787,0.1180965852914965,3.655119022142061,-1.3106073259118889,-3.527265030213897,-5.189813944060589,0.4051146504364595,0.7143648172793527
-3.355777736642665,2.122691470499072,-0.268585564314634,-2.7820819072958898,5.665340016322808,3.57939569063943,1.4663081989241675,1.3843029507227698,2.8452982385060097,3.093714884055032,-1.457961702802919,-3.125685769036906,2.285500278173004,2.7056833298347374
-5.062609250964961,0.7798652104412322,0.3288749550320347,-1.8595079879120815,4.764803095313202,3.5163868304346835,1.6942454540142933,2.518364693582555,0.4326759317012906,5.028144528988321,0.30015258098841,-0.1746129288280826,3.091755020062095,0.818637778129262
-5.656367104893825,0.1737096658626403,1.121239883393173,-0.7445220695523176,1.6230413381814288,2.6843512015896067,1.6423314226927914,2.88460791669187,-2.541449867879715,3.381269379675558,1.0548884570937958,1.7164472858163575,1.820390442444093,-0.6137796196469769
-4.466744780756869,-0.2670281936781852,1.4464596167714916,-0.3540407067841897,-3.100147062198096,1.6471336849928946,1.1546110890044474,2.406288465736303,-6.487573217351581,-0.645321258082646,0.6592986310738667,1.501986913334278,-1.038838285788202,-1.722951775469762
-1.423684255732141,-1.1252569929271106,1.2074926123319756,-0.586559062364131,-6.333830169902086,0.7578438477912641,0.3499168015863958,1.4888874983885572,-8.345530327492812,-4.511964968943943,-0.6078432947148684,-0.1696701748849136,-3.864996401127698,-3.2729793997272547
2.39549889696778,-0.6217403339476504,0.8437350498222713,-0.6542345029279204,-4.542307363000607,0.2182978087152278,-0.3727888478036618,0.6354718559064736,-7.771680563088684,-6.258096934228156,-2.30490332841255,-1.6799285936437371,-5.127789864686015,-3.28392128144707
5.136969102493794,0.0084973298482681,0.8285701470640703,-0.0843549496678974,-0.2329260482641345,0.2531825207313076,-0.6712950773860413,0.0834799496558602,-6.10095834882163,-5.866581240230559,-4.084426814306681,-1.9389751707189264,-4.506426314748069,-3.343915306665177
5.381349484025506,0.5656562812946513,1.2303641780121666,0.7919281194832948,4.533085594645735,0.9682994185961178,-0.6597269833566983,-0.277372276127565,-2.434567217853931,-4.932497030236277,-5.742206384856644,-1.2003460560416386,-2.992235761048356,-3.930676471758733
3.199651112761636,0.9176180214201108,1.7114558892119265,1.2934600852836908,6.580049147282778,1.9630918696860604,-0.9316019687817416,-0.7052537775371945,-0.2706071243692674,-4.956035945493582,-7.039559219394754,-0.5113615868961148,-1.934315596675688,-3.310470531265557
0.0961727105907996,0.4665481629238364,1.869177930274283,1.0825094951728502,3.628175939378565,2.26286673499159,-2.068443097812235,-1.3405169351628672,0.1845146676779836,-5.862230284884973,-7.557657923527792,-0.520559147829907,-1.917021698842461,-1.3286664770269498
-2.1124497088442027,0.0506099551213625,1.5652724147784198,0.2505397618906855,-1.3211935239558903,0.9573133192737516,-4.000121721901252,-2.0824798308608408,1.0339700968649752,-6.1543268875157295,-6.860757507139027,-0.8999272376325749,-2.456799754788136,1.316450155257676
-2.4843697082503056,-0.3149472921897028,1.0154239529393578,-1.1208499114968404,-6.133903631115042,-1.8467787163809175,-5.805488507644888,-2.648359899068481,1.4358249980270283,-4.512431087337973,-4.900697763246747,-0.8505187750400225,-2.6695580966811825,5.040717614312775
-1.2621492821708171,-0.499549795756451,0.674313503192927,-3.1075428197388,-7.5721809702967775,-4.706078773690948,-6.236047421497503,-2.71459900622105,1.6822443105097291,-1.2102098009844615,-2.2447385347292155,-0.0015243364698349,-2.1267411974914303,7.152678302046453
0.7191439126373531,-0.1633646907751526,1.0332172945956302,-5.423983344949455,-3.89820137446152,-5.707343752083553,-4.647114380399106,-2.0658820023898024,1.904058335133636,2.080127413963037,0.2002922456391296,1.280833951437593,-1.0406392584378814,6.675935628107774
2.7711361963097847,0.0459897668444779,2.367405851370441,-6.936501905399707,0.9450939345623638,-3.965109730527789,-1.6313151014173073,-0.7508025228589901,1.7422533917909455,3.8578915247105847,1.790936345142912,2.3996724648373675,0.2579335090898578,5.836410563321841
4.582104347604039,0.7211588368422226,4.469354921550815,-6.167487913870044,5.6186370356748,-0.4521454369813131,1.1919977289297456,0.7910855580980893,1.2777845035153088,4.099139371601971,2.5202613260547557,3.181990538438006,1.801024355295692,3.682672821809792
5.983637080658222,1.4387135824405166,6.555171104076669,-2.6756989498322685,7.133308629041364,2.665548597229841,2.1682392265161377,1.793839955087015,1.0836436483638032,3.993685178938384,2.8137085975118103,3.937927821262267,3.809265781653173,3.7097074119850593
6.761989022848014,0.8933943910717348,7.579967148052128,2.0493839516766243,3.5568260937280933,3.6837970809688088,0.7160578491944678,1.5560243360168382,1.1702114039413845,4.513331618998855,3.0029472044677075,4.910973210942556,6.1155102835390185,6.084474939014743
6.806303052588614,-0.6104767534207751,6.918943059573065,5.395987093822903,-0.3295710630721,2.578472394012218,-2.241264639206232,-0.005086805205785,0.9970144723450765,5.430791801661766,3.0623881289011976,5.7921857919495725,7.997076869596913,7.859315909646799
6.370798177197717,-3.539017769669965,4.939157221745944,5.72691235733118,-3.831968083205605,0.7814605675564117,-4.847888470868451,-2.1081304345709846,0.6789246142745851,5.826440202745957,2.8587423613774057,5.894616123402102,8.766636334228018,11.678636232103644
6.048830121874715,-5.5119905640588645,2.893334754160577,3.878880512354492,-5.013721805791872,-0.1436687085672829,-5.497973644297147,-3.5292214722637,0.0492293921025451,5.398885085488672,2.5456715333543656,4.856938841263279,8.511077435385843,12.3865928604683
6.377953474483661,-4.163088019150488,2.053855384738412,2.522305122125175,-2.326601371967487,0.3414484876682309,-3.809594773508053,-3.4775434353722545,-0.994968502013018,4.976020672334684,2.550687212956575,3.151905448197269,8.066463091007535,10.478665222470994
7.4054038564459645,-0.4850709457827341,2.705998109949533,3.808316128373512,0.055568146066503,1.6679042571543476,-0.7658896862127875,-2.210667732584937,-2.130748086581695,5.548657390492409,3.089546596704153,1.823117105774358,8.121124372893668,10.175764139073529
8.588205567498385,5.049076539289295,3.851755734102916,7.399048811651099,1.8104309453662464,2.914453478331673,1.9742590792157413,-0.8294218697094777,-3.425074330533946,6.893203041018651,3.748672341150602,1.6238463268506038,8.376690743157333,6.205846943166355
9.086306251117612,7.927428615580092,3.9381414170604856,10.672614346613416,2.284304814898107,3.4802314048779834,3.060152600608589,-0.4257398967330488,-4.430197448765663,7.429862110512758,3.687149652214345,2.342639276479943,7.75025842903765,4.084353898701881
8.191286223986111,5.605385642988293,2.054948092759417,10.902852793473327,0.8385808590503088,3.157017434040668,2.1259662287010173,-1.3407538008996482,-5.0523001426335865,5.67103451884384,2.37859543826788,2.966395578174229,5.528023218092216,3.8663264387778806
5.609943075319421,1.8770091877513384,-1.370704787785698,7.458295596751071,0.3854944951792674,1.920640299456409,-0.1242041697691149,-3.1161671192478337,-5.735794873036692,1.8395923534595229,0.2148377117935638,2.56514434177474,2.3182839291294925,-0.2022281899831131
1.5249613530039454,-2.353733815221085,-4.93357542834417,2.1723667432251546,0.5661990858348324,-0.0201355462868235,-2.3637541004374185,-5.008417985212248,-6.350299737441727,-2.060449307402493,-1.6342137532790133,1.103454375275135,-0.2146104017375876,-1.5415982170688824
-3.467376311990904,-4.079722986547036,-7.322515109441355,-2.230555516342818,0.4969505646628498,-1.9662004107606637,-3.3920935708692497,-6.46742004408847,-7.121204569471305,-3.892571263640889,-2.0397760745079268,-0.5547959381863734,-0.6509237245060859,-3.167991523445189
-8.448295268980132,-1.1871708161253138,-8.193051658747223,-4.122757949461388,0.6967769051865891,-2.8556478810853605,-2.865753515149436,-7.215047272429217,-8.11779470445894,-3.180498125779792,-0.7569904597275041,-1.434760961099741,1.042471520596223,-6.676749010261146
-12.321287849607812,0.9057946615046024,-8.153687753859089,-3.741136059563999,-0.2582149025004049,-2.0415151548248787,-1.589908988795642,-7.10593098430212,-9.810960073279489,-1.3555008172195355,1.3674472016005552,-1.2908409681877089,3.5217122889068406,-6.749514551214302
-14.092525315017228,1.8931657736101992,-7.978960109189742,-2.421658534120752,-1.5206814799959685,-0.0796662158245453,-1.0295688785466268,-6.124766331538353,-12.345963121843,-0.3440299303206302,2.961633580143854,-0.730420817324557,5.105028716928956,-8.456477302846832
-13.281677249691,1.9377296950563383,-7.82113538262567,-1.3286930355913569,-1.139610339088337,1.457184223092554,-2.176235074618745,-4.531287566446167,-14.102455144052485,-0.9478045800124448,3.048309211430478,-0.5429385103711581,4.86260365501596,-10.38067267189808
-10.285133711799888,-0.8053599195015348,-7.1464149967430615,-0.8680595783627609,-0.1144139409602558,1.2805505014576395,-4.56519100747127,-2.838467440365946,-15.131881827680456,-2.4793168835865345,1.676469938830394,-0.9008392076764268,2.9371445955787863,-9.085642037178436
-6.40918165328236,-3.2344918425442115,-5.425205322236138,-1.0206954693115335,0.6105663770527927,-0.3177786187260381,-6.382842580444986,-1.479218005779785,-14.92803105652476,-3.732413209905985,-0.171442747494666,-1.2123070611437754,0.0950047871976096,-9.13281240413217
-3.3835717667806198,-5.749719479262664,-2.8931585034249565,-1.868585079315011,0.9754705370783864,-1.550405375884992,-5.819746710635286,-0.4658315021652015,-13.01993161552584,-4.138761113346192,-1.3472725819633808,-0.779938433585528,-2.903235450895295,-8.046329423780609
-2.4722749192836204,-6.773038483040228,-0.6192574743575108,-3.5557099838585486,0.2816044478629917,-0.7398873958196646,-2.645272270850228,0.548901720958952,-11.428152422817297,-4.043588653776965,-1.4325833960711805,0.358991874019182,-5.611502999869316,-6.535461821121712
-3.655998566196587,-3.7052306241497854,0.246495795642744,-5.736897618513865,-0.7446565438183106,1.9924164443350776,1.4279852608472083,1.825414122585954,-9.952318049594734,-4.100467166662867,-1.0480407788122932,1.2465647483370788,-7.841641109197241,-8.800245609904945
-5.495396120592432,0.8723981254644346,-0.5982886350011256,-7.277210355648719,0.1384980554242226,4.637911660006466,4.049106170554097,3.185931700947151,-8.405746324902212,-4.601263441576748,-1.2707387914777826,0.7304494642243355,-9.49760459683594,-10.82841223807733
-5.969776502037547,7.87529154860802,-2.3438475904018787,-6.805715605478383,1.668642526574411,5.0150275784390885,4.104641698986853,4.147931331563228,-7.200521645599113,-5.387171445588848,-2.624467593943507,-1.4989766701386031,-10.520812547862306,-12.77129719877608
-3.910132987451704,11.293051250528144,-3.728746522958545,-3.840127862495194,1.8353606388969672,2.706295128310813,2.463961849438533,4.3742332773771295,-5.574345588038575,-6.232930664784448,-4.567396468447583,-4.506743963166429,-10.97894558348392,-15.02017631132816
-0.0528784582603236,6.714635610277036,-4.061388196076791,0.5120929351521681,0.6703661966510432,-0.6230831174941045,0.948968793860132,3.9154023541118192,-3.622153372485029,-7.130815898950743,-6.007342252389492,-6.75390167844219,-11.181362164220303,-14.702897786486044
3.212560372606845,0.9158445983456892,-3.712978427257667,4.054815594540827,-2.1256227433006454,-2.790515155818696,0.598738997499197,3.003156566983904,-1.9709070787806395,-8.131156076299362,-6.382836719847262,-7.236271735153537,-11.645859019736465,-13.715133800263896
3.4726047816341463,-7.38208906823599,-3.6539018013888263,4.979586639880864,-5.283108988737448,-2.981697537577304,0.9475843719048668,1.7296661095462014,-0.5442372701841831,-8.957968947375889,-6.212988912675883,-6.106281543797053,-12.800117028354151,-13.162889639332771
0.2360050480186828,-11.600933322352638,-4.432931763207876,3.195058889133975,-5.362841857273007,-2.1635547400901487,0.9368532614005574,0.1000448236461863,1.417132842931334,-8.89933368918068,-6.478842218638363,-4.256538552389827,-14.514240709379976,-10.506868627655486
-4.32749355132006,-6.127919630117879,-5.478299301115214,0.4316600577681129,-2.146524917326672,-1.7864260406514063,0.3745838080927228,-1.5454782781442873,3.854535251469643,-7.222386677694857,-7.393697404332272,-2.348945452900608,-15.83582238094118,-4.716669503950563
-6.632472680267398,-0.8502457292502438,-5.354854374186232,-0.9900017123372038,1.1343338363534174,-2.237478574427428,0.3178915129901156,-2.308230716481233,8.12189745985297,-3.840128506730622,-7.8520401628923935,-0.298834943957587,-15.33645873297172,1.7759864207951137
-4.171184386112117,5.511444683410755,-2.856847471304434,0.2114726726703395,4.6468935406653005,-2.620469690487454,1.9195527285920944,-1.2078729568248718,14.541789843496538,0.3499492680751928,-6.289625670574594,2.266601110504155,-12.073723260243924,10.424673642391266
2.54616071285642,8.952522222975835,1.8619482042737443,3.443869464964905,5.6844397177623005,-1.953222816791225,4.927383153662987,1.863751092497552,17.4245155868884,3.834277258090111,-2.3042251974760006,5.085543897837084,-6.562178565338087,14.962912286653218
10.088818820075389,4.24344349500097,7.017278459731486,6.709613960614774,2.767523680521764,-0.420913060118437,7.443989624314597,5.573984229259921,16.745794966029752,5.361677208792571,2.475010089878623,6.91198706536855,-0.9077143914261684,8.921672126654492
14.22272691456405,1.017251216137926,10.10782310041118,7.913692961201491,0.9540202649072858,0.6187123095871527,7.323077978128595,7.664040054716523,14.189526297710763,4.6758750461278,5.227415718390617,6.256556529841404,2.248063019469868,1.396549963115664
12.554631717964966,-2.12644001953248,9.474470201031693,6.083709681768198,-1.0924171933375455,-0.1825130971659092,3.962104461087975,6.352465539390067,8.332726934203324,2.538962432718037,3.9484005174052896,2.666733855582109,1.4083352328668752,-9.40237893222876
5.912688685077512,-4.331985312470119,5.433995281380007,1.8336775897628288,-2.5241728643120984,-3.002638538663589,-1.1452828215404338,1.6181176287022936,6.052673771473061,0.0887444013786051,-0.9841176445664246,-2.591482523382453,-2.633275120606541,-16.465335210271576
-2.3141797885736253,-1.3771387388108909,0.1531571564158298,-3.016036051405265,-1.1511912513510982,-6.7333134597352,-5.559893466067535,-4.625586093072897,7.717294277518679,-1.8689854228785805,-6.954303371728145,-7.133195630557097,-7.0851363750601735,-9.564677584347551
-8.24509724048675,-0.557793500263166,-3.680509274006916,-6.350230341624872,-1.111073558946594,-9.808412068454665,-7.671808730323697,-9.622555668467491,8.470032778507143,-3.071467327490822,-10.829124577530756,-8.9554003108531,-8.829928787650495,-2.286287849394554
-9.587227647342282,-0.2407417169503102,-4.460982757539298,-6.788215318023852,-1.1688750738371123,-11.111952011250374,-7.583113592166519,-11.370205797190517,9.886075973166124,-3.5325185189422825,-10.90675465456802,-7.72102001356847,-6.440714798750072,6.751762018244228
-6.577403580992762,1.0415799919650524,-2.446070784538943,-4.411605469167835,-0.4361021940200931,-10.350527174387231,-6.555506170617012,-9.671170851182085,10.12971877907434,-3.291030222249084,-7.717971662515932,-4.895221315231957,-1.1920440238668206,14.341304212231892
-1.4778457954003543,0.0071572305653375,0.7061540926767482,-0.7833963586109896,-0.458027188817001,-7.980560499335801,-5.788245713226812,-6.054341554514778,8.5639076625319,-2.5063358810531557,-3.329518841846805,-2.6835535589583768,3.699234466623051,10.673393472935986
2.886980647912331,0.2124374946225395,3.156384809109696,1.922604580750523,0.6436224996063448,-5.034888764126581,-5.6772237343468,-2.729792731384446,7.325924362262011,-1.6514227224609606,0.1140179663047646,-2.5668916421960724,5.216986518365147,7.462922838708918
4.680066686681371,0.379710478753914,3.9418515466226864,2.29758338547785,2.278144405497795,-2.860056403166212,-5.964968863209137,-1.259637901609409,5.829541090709533,-1.3145274668334466,1.5635211194159453,-4.423783517364349,2.685628247733113,4.493200215631241
3.873823139966305,-0.7606527969675231,3.257999077996118,0.6423704940932282,2.4939043713801072,-2.5488981883943183,-6.260679634905017,-1.706002765913226,3.93653384894078,-1.588409104151438,1.3649198186394642,-6.746955146662742,-1.6274162197231306,0.6562781377754728
1.937608487112996,-0.8539464024889687,1.992160900668864,-1.3538371769379438,1.5555507648418154,-4.202181764906968,-6.267877666484566,-2.7404268241363923,1.8690362037632908,-1.7003007921574778,0.7331850828979043,-7.7213349635930655,-4.023710500951097,2.071556362911934
0.6092282202081094,-0.7978981690222383,0.9827843619113992,-2.0961688979500366,-0.1677322377679355,-6.647098613767525,-5.673216303851262,-2.676845210069644,1.4856465318376308,-0.5333398452063989,0.8104356512833135,-6.428846162941397,-2.058911986723899,2.6021445467096256
0.5562576381765325,-0.068101680009062,0.510753065863355,-1.5369930974139834,-2.504850807829318,-8.09976718791384,-4.148544178744487,-0.7952357975854625,3.03859231340909,2.181317107665791,1.8287865463171329,-3.4300658812884706,3.5299679168718683,1.554239781427445
0.8880883518456812,1.2388089537072713,0.2840810765448225,-1.2588935146503673,-3.2698282689651617,-7.417614017713817,-1.67790301316154,2.009304355529366,4.002482031005586,5.122584366389617,2.899319874430688,-0.3732614711766189,9.185585212363264,1.845098981317032
-0.0473189402716798,1.5805574567376912,-0.1489950419809815,-2.973902328310686,-1.6957686189134782,-4.912334172291253,1.1830994709555398,3.880128646328728,4.79321963348411,6.070108015271728,2.706044735856267,1.130353530188529,11.05791561473086,0.6857965594964928
-3.12231567743936,1.3795069232031691,-0.8970785471914837,-6.724523699070119,0.281245409995795,-2.002525236741235,3.600245020398916,3.582210300425458,2.4385747508609765,3.742469669378068,0.7483752357963454,0.6408778524696572,7.874367076254657,-0.396766864942055
-7.382376023219876,0.7740159829959703,-1.5603851640294693,-10.49509360033943,2.7321570376527538,-0.0455722811856844,5.148407623102344,1.7141396538697222,-3.8275493810195855,-0.7637395427171327,-1.886206612105639,-0.7795684097287108,1.9456457181250928,-0.1417696784102057
-10.478550696875914,0.0318769785071616,-1.5907360516463314,-11.75189124691235,3.910967970372116,0.5837043026014612,6.133282720064585,0.3452653415880036,-6.974722098421239,-4.41696712893895,-3.1349344341281267,-1.3801659632663927,-2.543185581981504,-1.1147488825524303
-10.399615919651351,0.0241894981762273,-0.8884457335066145,-9.62731512529126,2.5493757022074486,0.4410661077423583,7.082162163624844,1.1904333334410353,-7.531499756239212,-4.506155931992566,-1.7234584668128718,-0.167241241367833,-2.692960643088554,-1.552670611609616
-7.142994559055808,0.0584406201208705,-0.042679199799636,-5.756837103561452,0.7563209917597671,0.2589576047834043,7.924599150555537,3.894211415248378,-5.674872372144144,-0.9086967688628532,1.4390582774452696,2.156911750801555,0.9685270534781694,-1.141874514258039
-2.8632851683013314,-0.4609925338340535,0.128142589502886,-2.92056658919978,-1.5687098480584678,0.3437224915131764,7.896945246344558,6.13421833477048,0.213939616925115,3.671204834197568,3.745854687905876,3.6692243934157887,5.082264347272712,-2.026985097840934
-0.2453360448942021,-0.9320401154396984,-0.6040548670658836,-2.6426234309703887,-3.2615672855688884,0.6200944769610715,6.4875432270976034,5.6900402103590295,2.234511916767134,5.881712083559023,3.135194471014529,2.909558258338052,6.308582794488075,-0.371760347591446
-0.3965988424448596,-1.3478950725134948,-1.4909117136554642,-3.897522865983774,-2.9562899617975438,1.0424031034896188,4.465287670727207,2.6952098696085613,0.4228844675018785,4.531323376644195,0.1414866752179477,0.4148025203386396,4.069597623621462,2.8669022770144563
-2.024996405953516,-1.5776620292206347,-1.3330319175436216,-4.096178479560535,-2.272278243447031,1.7867326012026297,3.6901759492818655,-0.1027738386706005,-0.4764284358138507,1.5517763334048595,-2.283561277283184,-1.3463767789593248,0.890451703651479,5.26828764420361
-2.5828920819184304,-0.8718415287360624,0.4728296764807282,-1.4541511541389127,-1.4302859414365037,3.0461357815365773,5.568179609940103,0.4496080922447163,-2.0979772023679906,0.2157584712360858,-1.237006237159903,0.1618390298335725,0.0965406820101861,10.836396599912176
-0.3627739604611406,0.2734833781985625,3.321989284629467,3.394662269773676,-0.2184735759767762,4.780648316414158,9.548514664896176,5.066048074759806,-0.991412990728737,2.193020499364934,3.5397984707046817,5.295414338678711,2.9183499678671296,13.367072489909956
4.229265907249214,0.7020497507824494,5.834121645309551,7.949164053190088,0.144750533698865,6.779159393346617,13.25474178798413,11.08959555173078,3.5997868864707367,6.109157878460337,9.331104991328743,11.53441421817763,7.533923059510812,11.270909229835391
9.167971281366365,1.0061702997556894,6.959839053769201,9.979723799139492,0.4685459720687642,8.920210030720114,14.319451421444684,14.41140219808733,5.518791644681296,8.874227072376925,12.71253408217467,15.10133111193852,10.78333418805846,11.06834132013411
12.446607607797546,0.8969412863080654,6.744448005714958,9.289381200687444,1.647689391208783,11.205323362308036,12.260775866934864,12.663456655043888,5.456785105098856,8.467222812457067,12.353474129524216,13.725918702614877,10.8776407703092,7.33276140262436
13.384269588339407,-0.381898655484,6.063089404874404,7.596451917837271,1.6339294542434275,13.415901648332351,8.625641160534542,6.999278191216945,3.35984787244562,5.573852849158584,9.84938939559106,8.363578224821026,8.645235615638398,3.67409070670448
12.661202118161556,-1.2135273900743258,5.638505706973092,6.820461660859564,0.856598768998612,14.795686319139804,5.320412750387504,1.0346927661441896,-2.077005619564609,2.690823382828512,7.945547920407762,2.469642154590701,6.378529240771286,4.301747786428584
11.366110027699053,-0.7310760919760493,5.327610437965404,7.438369621797506,1.1600275166072724,14.301735200487656,2.8383616128712674,-2.045634816194479,-4.939825244250616,1.7575439428529762,7.883470481657696,-0.6010500765059987,5.599701312017714,1.6097645008716288
10.064600227240646,0.0827388116995506,4.364676121944342,8.327900994000913,0.6675509324779372,11.422811873610954,0.1436460001250452,-1.7675854895260272,-5.347498191956247,2.6262607474715765,8.305560068129068,-0.0067075883627012,5.8778514876495365,-0.8498010749770537
8.603809838475115,1.360880579729045,2.2839682317931533,8.018459866968783,0.2553050790390343,6.868573325880675,-3.759717444531191,-0.2831669559406577,-5.07860002117961,3.616316740980096,6.659656959596134,2.2234889591816227,5.589013429096553,-0.1870811341632003
6.567904323425751,2.1987986766948446,-0.4217874696935269,6.042024044180607,0.8298881350381311,2.3747920351694347,-8.266105867719261,-0.2395454122819273,-2.783781507655082,3.292592322850851,1.7966327161209392,3.069518496912906,3.6283607584529136,-1.1330531515898712
3.830348873603043,0.0759911463323161,-2.56512310990297,3.208718378017693,-1.1152936264066495,-0.3706447472754917,-11.279787955958454,-2.5141193869533254,-2.7640860173288666,1.633885132685009,-4.563693572691818,1.0543541362076212,0.4171109645722026,-0.594218694892552
0.7974269970270598,-2.770131239722183,-3.1882010924607584,0.8059122175112634,-3.294625683158767,-0.8043986142332642,-10.962642030100485,-5.622199558459442,-5.197425991816758,-0.3025985795466113,-8.815353043330788,-2.598293924586073,-2.5079905386922974,2.5761934641006587
-1.6844808946711964,-3.7154320194360153,-2.265452930604397,-0.3413170361513948,-2.957793033220143,0.3713705845329969,-7.449112224695682,-7.084259259459486,-5.705046034629789,-1.5186472576883716,-8.133451485935211,-5.035403630798328,-3.679151838789835,2.293760174897196
-2.63761187852117,-2.48327206542902,-0.5844197750577678,-0.1494245680554513,-1.3749761953741295,2.0483314743291885,-2.9008348303381126,-5.479682164409041,-5.08308878987734,-1.7652605956712932,-2.6819178549618528,-4.132583695061385,-2.5774154484890914,1.8876839036981956
-1.4335514586267664,1.908931493200297,0.9526587920222482,1.0466086379685748,2.1404746065089086,3.6782103112051354,0.1300777205434542,-1.5234409986375113,-3.58980170880799,-1.3457666376785935,4.367529612402109,-0.2237859744027446,0.2550194231484965,3.290990569341528
1.640768385558431,6.93857981671696,1.863271764768001,2.8091267899258128,6.158982705586039,5.411807719633544,0.5306175263551722,2.556123501006596,-0.4847451510588348,-0.5921389934894705,8.957619699191923,4.1377862312241405,3.583413137495995,1.6016509793289264
5.086702726123804,7.961308886537928,2.036097756965887,4.566410564014063,6.383564412686337,7.399157006971677,-0.8812819710241229,4.674172872491113,-0.0958793537513787,0.3262976508435713,8.74227601713062,6.130542199108959,5.908197978661292,0.7754365275708391
6.65166805078934,4.400261155638573,1.391734584163146,5.5127080286750925,2.9766431376892064,9.148651518845782,-2.3914303138017203,4.208653393592158,-2.5555124021149145,1.2443365071270591,4.291764445478975,4.745649976180971,5.877458584199644,-0.636032383169879
4.607240850188532,-1.1340339912632578,-0.1800988791961799,4.880510768398722,-0.6545389811891986,9.755106210496365,-2.823129154041794,2.0628414231507577,-3.641131133226693,1.903750348653034,-1.7198625583380365,1.3791821775964763,2.8214057926536498,-5.59093322163096
-0.8857390242329757,-6.784972666089326,-2.4813539542466287,2.54551320019948,-4.387050530175874,8.821186027226645,-2.144845054926805,-0.3232521259049008,-4.174517187842211,2.098749879446814,-6.442968400270843,-1.4482417857402652,-2.6719615623444497,-9.059419476319023
-7.461068332971422,-8.30057534685104,-4.726898050654427,-0.5963536875668751,-5.42590611237789,7.08624097498091,-1.0225778522008682,-2.006965087805952,-3.449460471456493,1.834457789042915,-8.385412224385846,-2.128517789191392,-8.56757905754614,-10.29243096488328
-11.814516672451193,-4.640479152376101,-5.811442772513601,-2.966586098947346,-2.868637579720436,6.021135076203905,-0.0435416415077156,-2.794818651774733,-0.6826359882861763,1.284387882906458,-7.66736775806919,-1.067950379570334,-12.020036599579328,-8.522399449842617
-11.81154763323866,-0.9821850899797654,-5.027704476445933,-3.226824629248142,-1.8758346518144144,6.67402176437173,0.6150823740542251,-2.7748421329489474,0.0672188786507721,0.6666255665685412,-5.255833064135686,0.0129857554757677,-10.806876723828395,-3.97514643866904
-7.873729833147479,2.0342551319903026,-2.62673394181553,-1.139248968674849,-1.6584630221377106,8.78553572437255,0.9773169427411972,-1.8846064635916375,-1.0104554969743211,0.2428285119247561,-2.118002036029736,-0.1154524279041879,-4.865325460157408,1.4276791423562043
-2.56933817813524,3.18632899608285,0.276162566275218,2.2278892975193685,-1.308364406776561,10.915586464131197,0.9782537878788844,-0.0887888177081208,-1.3532948194131185,0.3468340044644833,1.0020548965679268,-0.973412878641966,3.126135784634471,4.402874014815673
1.2286293408432698,1.354064906990111,2.368448454489396,5.049889797005278,-1.6487064818630268,11.40714223054755,0.4632724397355332,2.077470816060781,-1.6929054357260032,1.1670314729849451,3.2842332550436595,-0.917266856886272,8.851800450687335,2.827660383248357
2.151621071956839,0.618714663625075,2.8687785543252176,5.69866604219564,0.8287996010728662,9.380688749334922,-0.6049394230190615,3.383874804229663,-1.1078309375760529,2.341029853032836,3.7086859631321545,1.0283118123057875,8.84185270309888,1.08538231643832
