AF3,F7,F3,FC5,T7,P7,O1,O2,P8,T8,FC6,F4,F8,AF4
-4.359520646317013,-0.5532454690808386,-5.226188571408896,-1.4661740080448418,-0.654277894318904,-0.5305924168212016,0.5391797129406649,-0.1133065469820803,-6.354775279314164,-7.561730083527966,-2.7479205055478557,-8.01509752847223,-3.627932537340807,-4.243822404246194
-4.477433342332293,-0.4103582732171595,-4.858728987149729,-2.5348550522009674,-2.325273360657987,-1.6841002301381998,-1.285957606561029,-1.1240589621698585,-5.856411360769463,-6.930314295074716,-3.205267413612716,-5.953272316994649,-5.155041127348084,-1.307275890109325
-3.86099266988382,-1.3451170917172526,-2.6010626202216067,-2.7311468746929,-3.568651347563629,-1.946141332143647,-1.41361849164078,-1.923588666939628,-3.435557799899293,-5.638430658640676,-2.5481922170001914,-1.041405237907238,-4.709555724384847,1.3279225345287649
-1.948506703442908,-3.448795082340691,-1.3735416884199223,-2.5002511550511883,-2.617556628591508,-0.5815625042045218,0.1797013915353073,-1.864151311954679,-1.5763881552844563,-4.689392730063805,-0.7039828608502591,3.0164210792764656,-2.244600241755559,3.054717913246603
-0.8057386098616525,-5.57236336062104,-0.9573508774191264,-2.60776627569577,-0.520587060858772,0.5345468964969946,1.2040926496901625,-0.5536853923923589,0.1211624759568709,-4.6777964911989045,1.0205058051531866,3.3448451024759684,-0.2668642926301097,2.138572798177711
1.446255523926637,-6.439204769710191,-0.5788990537837254,-3.1256633815546984,0.6413044494495292,1.1081807424582804,1.094324685745638,0.6436197345008451,1.2170523055750135,-5.206565814642303,0.399801917021647,0.2866263288792758,0.9618105427845034,0.3728240011984177
4.9173250809330025,-5.670242895306572,-0.8217349483530808,-3.12290868545384,1.5438646849041222,0.9002825254344111,-0.7527436395352958,1.9828182600496576,1.2112933056764317,-5.05959012734025,-0.2030568938404644,-3.1166758083480133,2.2879352594304696,-1.2820360882277952
5.681065429815607,-3.84362401264638,-0.3492742589470844,-1.4972223050199425,1.42258332283143,-0.1180210690512748,-2.5285905866777783,2.860017546403606,2.241711187363244,-3.09541553672106,-0.0873840325721557,-3.869359844596463,3.120419468029663,-2.1604543719682217
4.094624290181413,-1.7852615295733545,0.870482512006103,1.7687258165059632,0.7022195531277947,-0.5591683887746398,-1.9181250817675608,2.9935824094992207,4.138063566487917,0.7446654045958532,0.8802388123589053,-1.389212203566604,4.166508935205925,-0.8010293334430705
2.7097597563727605,0.0258496142135946,1.441306849324789,5.156938188910367,2.2588070725009435,0.3798090332729387,0.0920479766668905,3.3137765465874,6.232608721420498,5.119688148612251,4.677234556659391,2.4673051772410943,6.667978882799219,2.374448527221153
-0.3992905969738696,1.367636335903324,1.5861165313171983,6.525346590044453,4.243937948575377,1.7981063323906024,2.755705035357418,3.5979260011091547,8.936684105011718,8.039175487330532,7.783084264771919,5.339793977334484,8.438192902059349,5.383859959281238
-2.5941558302600667,1.8004402727683804,1.4351644443774032,4.690851484792859,4.455368603266,2.538857321412097,3.672983805188713,3.479258498227949,8.511460422482648,8.215881554070119,6.869996405236348,6.220303853311815,6.688149127101331,5.737656023703117
-1.588100412448155,0.5791083946250275,0.7384962235599201,0.3694911655632324,3.028228322587188,1.919395656644972,1.5057484974894455,3.041226065906552,4.611403799974753,5.982197097473271,2.765159141752941,5.676835766685834,1.9815276275629787,2.665923047805556
-1.9407850092612489,-2.699322335555461,0.6920321700891376,-4.276470425229345,-1.129247733988639,-0.1656696704223352,-0.8130391302291113,2.1507976672379168,0.6188683985979441,3.00034224782436,-2.6901594930897783,4.722743483579162,-2.906301403369278,-1.5191515813998264
-1.8748815358777344,-7.250924793684302,1.3231337616313814,-7.048001430660023,-6.173349279203084,-2.539932044530556,-2.780191746916928,0.7286666634362021,-4.345764733053401,0.9802745302888952,-8.013718260392256,3.7966801619390296,-8.271027258626596,-5.530874635102659
-0.2869925177310946,-11.027665753420456,1.820454794137902,-6.944727074704268,-7.310618021845101,-3.428766563525214,-2.996345013135341,-0.261983279802245,-5.794730844673168,0.4713919553356582,-8.975736717289161,2.811917666802305,-9.717991319311956,-6.49959394083258
-0.0565345194409483,-11.810706762079285,2.440326638424933,-4.428696035236335,-4.474276044675643,-2.4761978337063635,-0.7762563941908559,-0.8007491533831218,-2.834121241407172,0.7104917375560689,-5.071245906880386,1.8532614611080795,-6.1788391013086414,-3.4655270337480006
0.4617241448328725,-8.77928868547222,3.088965899808492,-0.8172076999438964,-0.7650369993351296,-0.7232921478475145,0.4618630481218384,-1.042869450785434,-1.0869619329085796,0.5492922394047746,-1.876468389307615,1.4492030677886518,-5.155860665768524,-0.6853221258845639
1.3288815808213998,-3.271530950828547,3.676398543905431,2.5210685112224454,3.3041616684389368,0.9773420241292028,1.4591675844755216,-0.725934913811058,0.5971983242353057,-0.4512695424841269,1.8013159711871245,2.0256626755073555,-2.9813656036588605,2.106629144053445
0.7556774170647497,1.983381694899064,3.901088018212948,4.651637237102445,4.44606623306841,1.6559692915007167,1.816213053219276,-0.1534533108302732,1.6812867633814277,-1.7150498299760208,4.095331515403172,3.235537300009213,0.066429495312797,3.541024818593618
-0.1259094831114325,4.617381642785682,3.666144503837948,5.225446979640875,1.5126114573116944,0.955857606901452,0.3888378245908713,0.7503530992317765,1.2286991681402772,-2.262766203441851,2.715749024286837,4.063776494152528,0.5542263295664324,1.9974099595060228
0.1363250707866188,4.015629738734461,2.813027716001486,4.503695201092391,0.0309588969962987,0.1089669827704287,0.1206467990859961,1.4479217262808015,2.074451795866594,-1.5478852088003592,1.9026563350229453,3.722591615697564,3.3452144772693835,0.901184006109805
0.0704136465162972,1.383341641946254,1.18136859749914,3.276489313765717,-0.5774047514947419,-0.1954315090021291,-0.5227603098340281,1.854004462927712,3.878326321102883,0.2322284763794453,0.4134087806103059,2.416785893618305,5.277231952054601,-0.2753461321411525
-0.3281062237538255,-1.334324244656342,0.5542577780212531,2.510965095557312,-0.9187136446793778,-0.2917548434328767,-1.4739696774338331,2.2675785360132723,4.1471913138127325,2.4580163508518744,-1.4673774498118788,1.1470440209477424,3.5742279729195063,-1.4073035929524262
-0.2728657313871183,-2.696598210578846,0.9748028459472554,2.75425567594111,0.5910277107913453,-0.0201905401818487,-0.748753296950966,2.523371221576385,3.183192975890346,4.5563707997967295,-1.247788132822985,0.7324371496181676,1.7854781240375446,-0.993429095159605
-1.0121350404781748,-2.34582648370235,1.3733710880175722,3.705511195829597,0.6749437984935507,0.6274258884118113,-0.4763388101661054,2.806444400850257,2.430565125230082,6.155196353356672,-0.4252434590379145,1.0549176429831295,0.9524043937246448,-0.6799271992398579
-1.2134759630554042,-0.8275115631622114,2.157649041045196,4.420282783421767,-0.1228345266748039,0.8271436356495554,0.6424045788762579,3.1215983661431186,1.4947284095560838,6.955264285290555,0.5734429459364043,1.2749381948075378,1.1018757587744883,-0.6970153756398513
-0.2221638736850106,0.9320178400718256,2.443689378414549,4.1052345047278,-0.1231600098334171,0.8698955660663256,2.113866541393473,2.225957154249889,1.0945172813983732,6.688652107156371,1.4450461290185508,0.7371111617555837,2.332789626427319,-0.4183781963821038
0.5864936929987834,2.1190044074960266,2.074722305986882,2.8522451429264226,-0.2042755457695887,0.9647631052482192,1.7634281040091266,0.0386783280658441,1.4982271952010937,5.358694290741027,0.7668671854129638,-0.4006890539331538,2.3508345963950275,-0.3147038264973414
0.9881265320269914,2.3848911504015837,2.2825607731326256,1.6214015865325058,0.0709979860331221,-0.0427196695185586,0.9002127787948521,-1.6495637632149167,1.1044312689974196,3.510385151163761,-0.5844894836501261,-1.418991923258158,-0.8444248443726271,-0.2476292796517913
0.8493291201284199,2.011098165112536,2.875184411456292,1.436372230032156,0.4123478609670588,-1.1494912629616163,-0.9439319449611396,-3.0492579736947603,0.084961617898638,2.1011940590285145,-1.2877863239638023,-1.8158395208074327,-5.622653155207195,0.5098556953013678
0.2030702930966023,1.7543878150509824,3.215526144354951,2.4975942166962724,0.2189769868350008,-1.4679064021534212,-2.444478870865439,-3.456342901903412,-0.2359947318501004,1.8716543719379255,-1.0742318765121994,-1.7519225885546916,-7.493270975635994,1.267139851529535
-0.2547822896913029,2.3388047784119395,3.467098288744403,4.002629273763173,-0.3162195704511644,-1.3354272952099042,-1.884842901039244,-2.419410203054005,-0.0613713855530878,2.6654446996687176,0.2789836476141107,-1.7417431469738371,-4.351300982651925,1.5126624707815668
-0.0074960202070975,3.87349945277076,3.837244115110761,4.808563735714664,-0.9663570369435964,-0.2057640577344256,-0.8451920243625676,-2.188289325917787,0.0968081413564584,3.36117312781688,1.8902288589470029,-2.010055453552816,1.6161688673605623,1.884607590365916
0.2680866850235296,5.662276756621118,4.252881978378187,4.325068603787495,-1.4267701496906804,0.8060943813665178,0.6315946387893085,-2.549133013513283,0.4497513034028987,2.658449378544593,2.9908208680641195,-2.2511114118540227,9.125096846515488,1.887915451751278
0.3823708289748207,6.629404409947362,4.045610621862352,2.8878900779953987,-1.2168125415708788,0.7834769036257512,1.662435430071204,-2.7264645482393526,0.5938528722990486,0.1947618755333811,2.9782412870389523,-2.0263310316514542,11.709896257078448,1.2778790064950654
0.4305030222205753,6.080852682037943,3.170679825893993,1.390976594717884,-0.344133479389498,0.2002986653606154,1.007364786183934,-3.129340851674611,0.4549496253338527,-2.9633544369028715,1.9319118554615813,-1.3184536013353636,6.516463331004643,0.6683396107310778
0.1496564034904413,4.228394654676345,1.2434464254540902,0.5850471069345362,0.4947665850266968,-0.3720227939187271,0.4236993912067552,-3.847659423418322,0.5781832989511633,-5.009683208779743,0.4986448789689791,-0.6034813822598522,0.2791367009154787,-0.1333973832754434
0.1278956147670272,2.0885914314257974,-1.9922096822581168,0.6187596046856538,1.1470332160462244,0.0803909081203213,0.0452016562183103,-4.896431405215319,0.8737776822058724,-4.811201988568746,-1.405072769839019,-0.3469325013477506,-6.533323152330513,-1.2962825810497527
-0.1010688824519092,0.8409833529960555,-3.498328829727613,1.0680882451533056,1.0223194208801814,0.881431669037369,-0.6013272839011782,-5.656762394700734,0.6510800494418689,-2.850508335827864,-2.901055848686577,-0.4735839870913025,-9.626421536073536,-2.094302188523033
-0.8447364425901569,1.089439788548562,-3.2183245379559344,1.2879208535006352,0.2231221503712467,0.9631647729829216,-0.6679239189678865,-6.117564092926901,-0.0625727537945523,-0.8097311048532632,-3.584526088256768,-0.4149092326215147,-6.250664013214118,-2.5483780708662107
-1.2485658865387077,2.4925262363586835,-2.541461023163479,0.7842833590388096,0.2478994023742055,0.3208183504411735,-0.5962436762199719,-5.149716586939377,-0.3355922588812335,-0.107123875602384,-4.189361064325357,0.252127877234801,-4.454526253471485,-3.23082927986912
-1.9459024608782367,3.9737609160450704,-0.7373827828863003,-0.5559094465257113,0.7852564455388686,-1.6574474883312311,-0.907350587659714,-2.457618784860289,-0.2545179880403358,-0.7000743521556974,-4.795783800009744,1.2127673576616085,-3.941973803928208,-3.61340948621088
-1.8099028121812144,4.38982110231426,0.0180786522399302,-2.3905963130769594,1.34137057126322,-3.0439282157776084,-0.7479789773638592,-0.9827615473168776,0.7036225127655511,-1.2559089100713443,-3.975965295800586,1.5516192566151972,-2.7290636714885816,-2.7003946765452924
-0.1772402595468663,3.275321172743447,-0.4699051817844991,-4.008958042008367,1.5661300318909244,-2.1074817895174736,-0.2892389179389706,-0.5418318091377375,2.8060906291698955,-0.4898180039074198,-1.8437331985792151,0.6424276048270006,-2.159926464656575,-0.9501243087900172
0.4980029789623702,1.202573301842624,-0.1895634404428607,-4.628748829352529,0.1229654615305906,-0.4805638281646002,-0.1994681241460157,-0.4940713672607061,4.350084308591223,1.6546609071781626,0.7751624247447265,-0.9799254522620712,1.0746105344717372,1.104467833077471
1.6162033201012451,-0.5238011808004686,0.3778247404405951,-3.86124542511761,-2.086038435586725,1.9974048449727808,0.5225251347343643,-1.4811595968839697,5.455595663231078,4.103654525335505,5.280142760837666,-1.6958290748404208,6.577956018417816,3.631309475781353
2.350003538439008,-0.7128993441599842,0.8709633812705116,-2.080005972007476,-3.098025499894129,3.5858765476189407,1.1828653951989223,-1.6508036442194651,5.445986770059977,5.814607441341398,7.435582550454609,-0.0160990668590557,8.029839988459589,4.039361326992487
1.2034733741721255,0.8578402985816291,1.533987635223324,-0.3362982266774539,-2.4122982307475342,2.4502627467577787,1.067950034403106,-0.9899992058186968,3.854302905224136,6.700034472196038,5.462843542603723,3.956207684109353,5.369246768210402,2.5087058007783707
1.3367097483355974,3.196466891879988,1.6198562598448245,0.2773991970754839,-0.3079122891432433,1.0298711117006458,1.349645313009228,-1.0229654090819005,2.8502662075777607,7.329184361645094,4.117702272976482,8.146639572773417,3.534497294123867,2.607636276067266
0.7292996875280795,4.696428831375682,1.0673460453773649,-0.5793203578639945,2.0526556567971856,-0.5439453944470456,1.172947726772542,-1.408688672792227,2.2064531264626823,7.810421084240433,0.8514953686265605,9.789105421963349,1.799029580205986,2.710762375250608
-0.6586926129550038,4.204915372903136,0.7352477525770057,-2.2025465408015137,2.845804235499521,-1.6081397037775131,0.6589151416785867,-2.0626892615384294,1.2271029504422402,7.2218622027006365,-2.1492561032497304,7.511848166091051,1.7178328567579142,2.616816173003979
-0.7065602212682769,1.802906142067342,0.4785496631319159,-3.3833503526220783,1.6999628116786325,-0.7556590386887305,0.92554194819509,-3.209084389721229,0.2985307841520603,4.418104909721352,-1.2757620319717828,2.5279659883430483,3.231882402595709,2.82908048994802
-1.2779422585182212,-1.272605158903878,0.2335903569006835,-3.379143173403629,-0.016887345868836,-0.1084490458993249,0.0818866839081752,-3.7700219155615593,-1.8595946936841248,-0.487479392263463,-2.142204199863999,-2.1588463742750985,-0.3892556827385441,-0.4860888739649779
-0.7441588454196695,-3.4952846280059893,0.149388833830458,-2.463715313229881,-1.3278879313424938,0.0632902843940779,-1.4394015985157866,-3.722975240837581,-5.364517840599223,-5.56833277367309,-2.8680091550072704,-3.967628455043679,-7.029456248666984,-5.009080947135357
0.6852868569038797,-4.044268530067276,-0.1935362401229657,-1.5463059936526449,-1.6768254769454063,0.2096023969147956,-2.1560309340788537,-3.1485110328433272,-5.943300259025511,-8.291097932824037,-1.5544606062741533,-2.566059773157331,-10.253727634178109,-6.413723031357149
0.6720757285712183,-3.2068106453937686,-0.7779148222109062,-1.2336357567437002,-0.9190906029529944,-0.4253861828714154,-2.5374075125732367,-1.7497925937912375,-3.564654220003564,-7.553677492664375,-1.457169419135085,0.163100924470104,-8.672360048500112,-5.198967979850095
0.0323929123476402,-1.9732576334009664,-1.0820017269847098,-1.2676017462238702,0.1160676167590137,-1.0656953663102406,-1.7461549746236675,-0.8990330823953975,-0.6829019647957607,-4.646141204929057,-1.028422266726308,1.8574629129689784,-2.4942287833535315,-1.866482935878508
-1.697737750408049,-1.2408729633165685,-1.1531516612504216,-0.897696960013965,0.6597379044043619,-1.3818185051452778,-0.1131284482669001,-0.5897623738833946,3.661345888858473,-2.116114161860178,-0.1885063963667784,1.5281605518504184,5.507758474408036,1.8717483760787303
-3.03118720134819,-1.2689807307406014,-1.1048170248491638,0.216901170166456,0.7994408521204607,-1.4683869929817603,1.0140938803619666,-0.6397271815414626,4.92811297983232,-1.504693297513871,-0.4390050342118645,0.0010645292042203,8.433813573711685,3.015552481436268
-1.8534181040962807,-1.709761709606581,-0.828416804345068,1.5374640688646355,0.4532264170413724,-1.1116909088632292,1.0235400607294531,-1.3980521276233562,2.5096881989433206,-2.0649388312239525,-0.4837728516368003,-1.1962303566670842,4.506928258069146,1.5150691372457703
0.0660432594036786,-2.0292372591005927,-1.406744166110148,2.119326814191089,-0.0524652300879623,0.0917450792934856,0.6691230211742956,-1.1529508513054836,1.6961779080991677,-1.69303877632799,0.6840306668006779,-1.2980484566168269,-0.2944408367524014,0.5456787129980927
2.376298868756353,-1.9001387996801231,-2.9233537176897086,1.5458732583426975,0.0470822647107366,1.896731298763676,0.8119173060737499,0.1241186593329059,1.4551026686267308,0.8112875449947046,2.0861533676266526,-0.8111398907121918,-3.314069425423584,1.2457095917968843
3.3563600592828235,-1.3249240360368733,-3.850729637327636,0.3477051932346819,0.1414633861704459,2.8241712029467725,0.5859334930909845,0.6390945319707141,1.4683673395111605,4.339157972486733,2.4563851205803147,-0.8235994156605795,-3.0664010183267694,1.5553402273810917
1.6783356463781265,-0.5519568307493801,-4.378280079783114,-0.5285255039413377,0.0224918713768816,2.5186853681388177,0.4766774823794004,0.6880890954402178,2.571538416855225,6.306852747634236,1.7283921459131195,-1.943754479628133,0.7116668912156205,1.0689435624881698
0.3081822171683571,0.0480910793560411,-4.298146857160137,-0.6509611770477055,0.0319810305803342,1.3756077710541268,0.9941799735873462,-0.3128667629201918,1.3335431100320776,4.976163661349128,0.3350325247550776,-3.838297233378096,3.192216790067889,-0.0350481650610822
-0.817641603717037,0.0984320934996652,-3.271976226089607,-0.4773070779140429,-0.847549361483012,-0.6226049673874967,0.2256312328009632,-2.757343041449493,-2.2590276090453862,1.0998166992646272,-1.494722965938183,-5.61497276168814,2.6030470708324835,-3.3446556818105773
-1.4534923883221098,-0.6161733398413451,-3.183266123698453,-0.8127273590998896,-1.587452057344472,-2.0254899123523145,-0.6481941385377481,-2.696944571565236,-3.9543750689673023,-2.6155444698496826,-2.1469227598383305,-6.545749986003286,0.5331916690539521,-4.864186290991875
-0.7987501479674419,-1.9555308429312817,-3.983273127270284,-1.9318299776472472,-0.961385024739846,-1.7080567223643164,-0.4335180194627684,-0.1000427508546234,-4.247290519034994,-3.709978377093434,-1.200540927686087,-6.514633567498626,-1.429093231825606,-2.318542121806304
-0.817850674099874,-3.3835214461074106,-4.071147538462311,-3.262686163752508,-0.4361010389830091,-0.6238342597910285,-0.8993774559888232,2.8649340176268554,-3.5137210730530923,-1.8743295234313653,-0.3385194080407317,-5.986571874351274,-1.610663179966428,-0.7381248858548596
-0.6571213308952807,-4.234067239526533,-3.7675118568922543,-3.926419156823828,1.1633097177065852,1.003324488231396,0.117911678136089,7.0831752122336695,-0.8815455331844988,0.9929113740108272,0.9572910030127844,-5.681580155882418,0.1414892466977757,2.261782150442663
0.5022996788009266,-4.179849132890948,-2.972505185366761,-3.557809037124969,2.8318233173743157,2.2795188396731514,1.8264570851099369,8.502725203651593,-0.4992972904962907,2.4175714840059244,1.923472624536233,-6.176523864703756,1.9802150822259343,4.849685789758945
1.3955508873258828,-3.5451464864694797,-1.4070528294894913,-2.5907547300184737,2.1779959341862978,1.5192129620054464,1.2763801618536608,6.604063142691666,-2.424893697042993,1.172623303050157,1.1946418294915473,-7.533827471797378,1.6847228314573068,3.083124066347479
1.6178071629514492,-3.141673034423709,-1.2777262936436269,-1.7749740238540952,0.9140834739320738,-0.9020159006370244,-0.0063452166737623,5.862125594772047,-4.195066739181433,-2.0861246263719373,0.0175905650544942,-9.070976309239512,-1.18307604940941,2.433155778280721
0.7601296821503118,-3.660577122568776,-2.639199933481105,-1.4610845773953431,-1.5881203692677768,-3.827679874429088,-3.0919328921396363,5.344415808891977,-6.7138234473906415,-5.561606114132434,-1.835136951655792,-9.516935004629032,-5.241175561894985,0.778863364305111
-1.2503396252814238,-5.04894149617012,-2.973595919732928,-1.371817735029861,-3.8484760493549377,-5.07649034490561,-5.58012446935985,6.593966869702743,-7.295509417998443,-7.590324580113236,-3.2094218121317644,-7.709918891042356,-7.130307276676177,-2.0470486137834096
-2.4802647378960128,-6.395100008309213,-2.659553295660872,-1.031618315311671,-3.0841047350799684,-2.980725802390665,-3.7329501744557017,10.470147098902116,-5.490408844493758,-7.5061453373397296,-2.3112131221982786,-3.537564208185895,-4.757428818575377,-2.200290482557884
-1.2913235429585297,-6.51333708156967,-1.0434222791456251,-0.3516646524780307,-0.9924132646080128,0.7320497244846227,-0.4454508838507508,12.944583720929128,-4.496906994811169,-5.740536013308831,-0.2918167368301004,1.6273518158470583,0.5018451731207579,-2.007926443763009
0.9564277489325,-4.860097461628777,2.430470457896904,0.2480405358469912,2.0116857431929205,4.471972670361603,4.281259489263598,14.48304556537017,-3.675356700275032,-3.3776180509261926,2.3143627442141206,5.591373167584313,6.847448858372531,-1.0192894597863664
2.917692702894489,-2.063298711136749,3.538113611055604,0.2840137570693628,3.996476495979975,5.521915317919358,7.08872055467477,14.502968696783864,-3.579037508208272,-1.5407549844116746,3.743831302155333,6.833787078258904,9.33656630475171,0.7432367166271385
3.0218636740945835,0.4476419117926731,2.3277274706087794,-0.262961985414657,2.7619176146997164,2.758056858083682,4.44322594369311,12.118656284910218,-4.777300559171623,-0.8876224015006651,2.594410404786964,5.682766508856416,5.839463720118612,1.04678959780391
-0.0280081052002223,1.5175003708922363,0.8567795044474559,-0.882523426925,0.3609700190136242,-0.2046596909113298,1.102248122794859,10.414987767507917,-4.731787265936563,-1.3882431001554345,0.7606997862439244,4.071342376506929,0.8181505570768199,0.2872129250674622
-3.0921536243556558,1.1896358539031295,-1.7957191316425567,-0.9928723470955704,-2.049783533827957,-2.455525989813434,-2.581420872404566,9.062231327702293,-3.631841683802236,-2.477705534247063,-0.9384830738853824,3.9252527386540335,-4.42523973967514,-0.4294611390103094
-3.91313162099434,0.6349338103529218,-2.4814161908597714,-0.4682984075188616,-3.142409124283992,-2.8944243423065186,-4.525265610935707,9.226995450249277,-3.3070749650667506,-3.491143002765101,-1.638517057144571,5.534702553560072,-6.314502452655095,-0.7753888765537224
-2.484458145326935,1.059128565146464,-0.8216952319012257,0.254005389026203,-1.8218486071579727,-1.121307195622494,-2.2724591473664733,11.666596800726255,-3.367383852967589,-4.069449194766101,-0.6684175469077371,7.408559315199838,-2.804440899486626,-0.2441454828475848
1.3845391761842578,2.522869661003129,0.3407716025403112,0.5577322504752291,-0.0330336992531778,-0.0513831054671332,-0.1795477052172688,13.049048954452855,-4.139854335265179,-4.220249029884032,0.2219811457209853,7.799893564476893,0.4552778249603688,0.7825774800863898
4.104092249196736,3.787579436920847,1.7708097670701886,0.1566833359845283,1.045634113857863,0.4388854367829741,1.3246601186217497,13.77564891752132,-5.958011645965895,-4.024377105166912,0.5042801480319329,6.482511945850665,2.7882493123994894,1.0716962588988177
3.4242317244757,3.4162781699643943,2.181591887216846,-0.6906979945127301,1.4736687369927683,0.7399649465271402,1.7554069343781091,11.896735583569225,-5.859556296935028,-3.340333598834231,0.4840984978871961,5.043784917964759,3.473563175206128,0.8534511552140507
0.9705463672010102,1.1768397763579517,1.096245662381559,-1.3850463221497114,1.1567069695441008,0.5731213267349008,0.10698608737373,6.539930315543243,-3.803674681008251,-1.8801458546224423,-0.1717057990102529,5.341969227279634,1.0438966234998364,0.447639455928199
-1.977535360806374,-1.5517683344273152,-0.1231283316129903,-1.4068740131289998,0.7564613820533356,0.8354928355288597,-0.722952570873525,1.9209085642791,-1.4428016509895905,0.3673526306096706,-1.1333630108045691,7.570817362430517,-0.701454457741435,-0.2104638711055433
-3.24690751004975,-2.797458876821156,-1.934379062344144,-0.6492192838412003,1.207043546546252,1.0710223025893026,-0.5800675193983346,-2.5528295058809665,1.8925328246216773,2.818624616875524,-2.192336793619229,9.814240487596006,-1.6336393613738405,-0.561200268366901
-1.792131093149619,-1.5727865560596213,-2.661365382625256,0.5281637061919411,1.2715023248567523,0.5506510999842454,0.0044667266895146,-6.84472544250286,3.738399484881336,4.520756472433998,-2.881006411738625,9.591887279015758,-2.0371614620131324,-0.6652356094588863
0.5061542733064323,1.3474367280320343,-2.0322322242270303,1.5295904751666112,0.3568151392366138,-0.0257051051386181,1.1701558875049594,-10.145578419432924,3.760983668130512,4.843559798487991,-2.5625617165242773,6.015318189103317,-0.9850508441052376,-0.716508754386481
1.7095936084697805,4.068602916250645,-0.6432593778335686,1.895554161110342,-0.0335507975039886,-0.2932838517300994,0.8030187704863001,-15.514906342353042,4.287573137023769,4.037949380973575,-0.4550211230847656,0.6093179000355224,0.5627131701266797,0.3708372310760501
1.8600745193577903,5.021409476647046,2.048716229048014,1.5806541026436003,-0.9679377968481752,-0.4229149927736866,-0.4621765563905396,-22.82310781654704,4.706416988233335,3.072634460209083,3.122939414373292,-3.8956947751008735,2.7969082788269453,2.171555142858315
0.869458618836349,3.99591594564805,3.1855195269508,0.939188468384454,-1.5108946520501452,-0.0998098447299838,-1.2710068830231604,-24.05217970025088,4.964501695568388,2.779261282562576,5.319399767675579,-5.668083693382381,3.6225965479806455,2.5451837912522124
-0.723029258784631,2.034830046675208,2.6278466103415425,0.4180671108484124,-0.7558112325404227,-0.0332880199790931,-1.6859763682199016,-19.12459285953837,5.345465434316753,3.0160677280985926,4.62918771291934,-4.960422761695848,1.5159033637328012,0.9481462411228816
-1.3078382841418497,0.4612102247720133,1.5214227132964255,0.2114363888903754,-1.4596216132470223,-1.080050358392475,-0.6287623073855655,-13.038150714808635,4.62039730207992,2.641243922921735,1.732332983483252,-3.531891727223849,-2.081677669907255,-2.224925880038592
-2.2393320699043464,-0.072765151464484,-0.8726760590787016,0.19229944418705,-2.2342348267287373,-2.296365924203717,0.6811195375385847,-4.006167851428715,2.78154850173016,0.430473380042208,-2.551799951715505,-3.045751023914039,-7.714156372837975,-6.411625021882589
-2.642661896309657,0.1782617228173113,-1.6575531118118845,0.1782643198494002,-2.111586541118475,-2.6475064881069845,1.047295226205583,-1.9171153595710375,1.2270674011950635,-3.77395819079577,-4.894644203789542,-3.8954425589788526,-10.134974317034342,-7.157817280568142
-1.2791092648541456,0.548721956406403,-0.6412215524185468,0.2300958567859954,-1.7133212439518557,-1.8859958754983808,0.4639526277276523,-8.169316851084004,-0.2355033656890694,-8.664613942566188,-2.769692336104444,-5.282893028448424,-5.431587700255464,-2.6645610472806527
-0.3320679086643301,0.6534728116672426,0.4010582075673667,0.6193255159752877,0.5963079780183527,0.3756095944744591,-0.6294613036008976,-11.5779771947244,-1.307155504571848,-12.212706032607455,-0.1774774274464592,-6.178585275285778,-0.2401542553430159,1.3846723431406591
1.6350376535584443,0.6859456134829407,2.1753234042742284,1.46263240424642,3.366732715237944,3.1221645147764487,-1.14049559645521,-14.483195465919335,-1.674723076572194,-12.981655545396588,1.5740738394831448,-6.173287291568572,6.714791391850838,5.449205806188799
3.037764163006372,1.119884457002929,2.7312617151799943,2.437256032713744,4.042142386867615,3.937834240310499,-1.0958062833994298,-15.500316850293803,-1.5193013216792368,-10.962642742589018,2.4972597712649014,-5.585727665880067,11.299368639351496,6.785582329799953
1.82124267558828,2.1080072489024397,1.781253814291873,2.969528460710892,2.7160606017502085,2.6417080765358607,-0.2606418162666353,-12.745807068309167,-0.6058326122575304,-7.325124957766784,0.5935840391748084,-4.976110343472773,7.561789495557988,2.686695917889549
1.4528118653308242,3.119261186457428,1.4494871327851315,2.786275565894848,0.355659242242272,0.6833073388600321,1.3389583482522265,-12.291803479747232,0.1721898488567466,-3.4222799210973047,-1.299733472498064,-4.645504132973118,4.153974341102884,0.9979662077260258
0.8908426934532867,3.1822528172657893,1.2755246444001993,2.256841020913205,-1.8173216905152176,-1.4945511835407597,2.8060561633787486,-13.4080015988562,0.8204244065590336,0.0289536374193861,-1.3173156824051664,-4.510673759709721,0.1948786673241817,-0.1372051977128106
0.2247561963183395,1.6139914187286093,1.8508799407201972,2.0982788424967938,-2.1085411242194065,-2.2675153602094884,3.373224326357958,-12.173488231419302,1.2477967673961956,2.971642062017032,-0.9852876154342642,-4.292849929861288,-3.838479322324477,-1.4033684662380854
0.7639602141829157,-1.314750142898693,3.556940153542437,2.6758033400286605,-0.703925694402395,-1.046957487306056,2.7404786046034006,-9.386182625676486,1.2081371250515538,5.450339077046063,-0.9337517200750688,-3.736106300794481,-3.4983877893417565,-0.6775785815163069
-0.4734062455930291,-4.341439084139047,4.147974440651525,3.609521155216699,0.2913533220463041,-0.1526172574780965,-0.1555795571524315,-7.019579047366244,1.1546673072343892,7.206002913586552,0.3549152725751668,-2.6896129647869484,-2.399236291277706,-1.7121051350629637
-2.643649644972084,-5.912822236382819,3.755222728664145,4.129246347982465,0.11725021107498,0.3488008744524487,-4.285001555171393,-4.597558480944193,0.968331854312402,7.8789492452496015,0.9292968329027312,-1.0957434747421395,-1.7360195900761424,-2.5751302849707693
-3.428543773115728,-5.164088802615224,3.8691889744841608,3.843235723361458,-0.6853081637998419,0.6507963259491908,-5.809643705894993,-2.11738785539678,1.9094113442232536,7.5385969187465935,0.2037114997371435,1.0211430688352137,-0.8479096315144385,-1.9475160037594677
-2.6620119214823594,-2.4839039030290757,4.105231029636292,3.128436645587172,-1.2962226128748326,0.0298984084850722,-3.9947411138845177,0.1020263774515103,4.155638669500535,6.876725946353495,0.7234203759617759,3.5481716038638647,-0.4178305244921656,-0.7714504671769963
0.0418810999614316,0.7382309832168417,5.792093634302541,2.732418158072657,-0.8454534167603155,-0.4468687242822029,-0.2633654792583654,4.94980344043,7.140680270130741,6.76695301040072,0.814836725996591,6.286414616107473,-1.034872464300436,1.39476422394565
3.649944490338617,3.0085156700338667,9.271646692696343,3.0080102404725078,0.7749465726842955,-0.4777244015705451,4.459176726219335,12.564110592990676,11.255938382003016,7.58646233341304,1.328364172242512,8.942796044391063,-0.2136690665475304,3.287591004385485
4.966610294358622,3.655666847625203,10.071765982319263,3.584994777134655,1.958214008018221,-0.4461307440153798,5.947737856201393,15.574186443784102,12.814190731235083,8.958619298851474,2.2263468030581293,11.080458960253944,1.3253554250766386,3.319228833773748
3.135745664160737,3.1705845301455065,8.282440956479835,3.800019697851407,1.6375562593564266,-0.045650440117495,2.5318100632788183,14.09655734681712,11.508321481186735,10.14431939922282,1.402151286576064,12.105627344417012,1.8026946678250972,1.906781167670463
0.0687250874393499,2.737191451191431,5.682935808325083,3.3841166138430703,0.5043604368143579,0.5407643864939271,-0.5411814053735202,11.569378394492048,10.514259430128655,10.66133699051503,0.1225014516575193,11.44955625394893,2.39820024325744,-0.2256273222755842
-3.0153375008450904,3.2732499475557333,1.2679590805207896,2.654529339039564,-1.0707358690685278,0.8115070812188168,-2.8904894877478964,6.350124578699481,8.966619928700329,10.52877576086206,-1.6246624289640834,8.967529872240206,1.113748609295586,-2.448569813894374
-3.881254095904957,4.647511963103867,-0.5446952672445641,2.0359655416262923,-1.7583097075898504,0.5515911739904595,-3.5830348953861564,4.471571555657719,7.587577606525418,9.969301868393758,-2.1985141764109715,5.273860894640317,-1.1679353990746408,-2.588510677368881
-2.078426387229163,5.663749830954081,0.629994034312033,1.497207139972925,-0.7292583445394728,-0.0072434221180269,-0.7969191121301957,6.588467921050453,6.835377982322494,8.970258454254745,-0.8752671026295977,1.6135084459574105,-2.0185577103869194,-0.9052150161797274
-0.4009770661569348,4.903797104324315,0.5671806811769277,0.574719778918737,0.70520074284555,-0.3997022934534681,0.6917961491741786,6.667586378681714,4.702601348293775,7.220819419299951,-0.6726142161854739,-0.8124346778306482,-2.139504049322341,0.3112187975639885
0.2423700939569283,1.8913320582644568,0.2455731231920831,-1.0157415505989582,2.068647316995144,-0.6046957612052278,0.9744173339800308,6.079400218309158,1.406905776907761,4.520820796608492,-1.0629170816068116,-1.6103979163342612,-0.9720003659505536,1.1221858967245415
-0.0691054744798167,-2.28053983937815,-0.1373778003074363,-2.860345962016183,2.449584048812923,-0.4040027560649679,1.1795887790320512,5.105981662151265,-0.4956805016638095,1.243977103186762,-1.6154176392198258,-1.3851946830181086,1.063571366928712,0.8444263330923472
-1.090411454683072,-5.421914915842335,-1.1715115528377336,-4.035572379240847,1.3512274374044664,0.0531022011471752,0.52459830518828,2.8943687062414254,-1.1603986462691622,-1.6621362127484351,-1.8450141165670613,-1.1408548559988567,2.0537553649575218,-0.2555688196675033
-0.5454234675825239,-5.61535196953037,-0.2671470872986781,-3.8787812279302862,0.3223445605253064,0.19266860221259,0.4303413403204474,1.4516927431629387,-3.1160200452469997,-3.250334229793465,0.5126544802013581,-1.4135627480645785,1.3916297207054489,0.3457865196660424
1.8619876999282383,-2.570506826319368,2.606322549908584,-2.60534366758986,-0.1123327948534529,0.7006657088798997,0.54269107243113,0.6403080053758273,-5.983794042106644,-3.289361536341444,3.941488527309848,-1.947951446347533,0.4758138956864497,1.854481013062468
3.375576484599067,2.0357155231884123,2.468757079635005,-1.1799242176293738,-0.2447076711283719,1.1275714826932,0.2341467686763791,0.1980623072804674,-7.890512384011545,-2.497978076731179,4.956947784133465,-2.216736552437293,-0.6672822993288359,1.880419907513297
2.941947169800365,5.561963614165668,-0.4751180034890111,-0.5697029916657432,-0.5420916665990557,0.6982643578077188,-0.4791909197780484,0.5437045963395928,-9.144405832482969,-2.028704795526707,2.495221411155143,-2.229756899070992,-1.9000085205935056,-0.156211083832473
0.918955350543458,6.093049810466964,-5.030262600199236,-1.0508814182852526,-2.278086219511163,-0.0164618360640539,-1.393747253993625,0.6081750999133381,-8.274775296480652,-2.568110485906426,-2.0839981116737407,-2.7427125643715287,-1.7208777933184434,-3.947849225308406
-2.6314679052128254,3.615600222979437,-12.35360171163499,-2.1147471820072283,-6.109628313691124,-1.7522376994592326,-2.043946105671683,0.4403331124632482,-4.762735188900784,-3.7920546746320896,-7.032405333049968,-4.5495964828923805,-2.797869775436429,-8.47951090452177
-4.452461042837199,-0.1592356265840357,-14.707409082940748,-2.9442117311304,-8.210834362759488,-3.026930232907067,-1.6632270769074522,0.2359512978127343,-3.020140430285561,-4.664680329389634,-7.759168840716377,-7.490806673593301,-3.609154802714431,-8.62080252745381
-2.5994130741325843,-3.1254742379488354,-11.610154030751543,-2.998926841806858,-5.825866056565769,-2.121880285279833,-0.4469273512732087,-0.2378135805555903,-2.806473528785111,-4.351987473216663,-3.2004454386894925,-10.182770800812069,-2.0486671110989505,-3.2954461124556835
-0.1683916776675239,-4.171930334339926,-8.002568841039809,-2.284498821841759,-0.5877584249437109,-0.3255428063949748,0.8414768225988148,0.9389310252874316,-2.138020318421823,-2.952452516163715,1.2087608945624118,-10.861940778798935,-1.1107078257582017,1.4666098713495084
2.567240284001396,-3.5718581102495657,-1.9995422711009971,-1.2237594065787896,8.059685750198614,2.493077014088314,2.2188190377644283,3.888212189313165,-1.8881143451827167,-1.3802672473563165,5.038312317656232,-8.692089273869927,1.7226935710607316,6.1143783242076974
4.049382142545993,-2.2575150346839106,0.4585888603355056,-0.330462459171609,13.049918289297793,3.891732892043286,1.953658222757836,4.540105538600255,-1.7718949295903177,-0.5084546209805678,5.993308916823673,-4.422561927560288,4.359550672490678,7.483757986199967
2.240882767301824,-0.8625284972446146,-1.5293702357177583,0.0520588140827276,9.165191203952697,1.9952720624850029,0.2181241262092322,3.07355484415616,-1.690169159760338,-0.3949176520531843,3.1147557446561,0.1449522085838737,3.9547985498179647,4.345238571593589
0.3875530622004864,0.4926040677783638,-1.7168513264406835,-0.2084966573997881,2.9535099859872345,-0.2456051540063522,-0.5250382079392668,0.2764267559135643,-2.653823227168399,-0.36781552985566,2.7468273455160768,3.3646412903853102,5.442482592341297,5.511026062165668
-0.8923716852500753,1.605021023023017,-1.5558147446934043,-1.1877937501714229,-5.2096378271233,-2.495992061990954,-1.3517597943443287,-4.8050836642783965,-4.670539100316285,0.0784659314458595,3.602941238351195,4.586389092783593,7.307220072711131,8.307039382740061
-1.3716112583938782,1.6802260884683218,-1.2931719865664484,-3.043867675544828,-9.526243542030508,-2.835128104248423,-1.0697631657605893,-6.603972476384566,-5.667098678969067,0.473917824765385,3.447046708588392,4.060526292259928,7.181270878415874,8.354133817576011
-0.0169556228221683,-0.2334114332904704,-0.0702608370034397,-5.875193485047582,-4.819184188713848,-0.0722806680023924,0.9257949737214104,-4.861792579877046,-5.713712520788887,-0.434958626762727,2.876296158223083,2.292185666270502,5.685344486704717,5.946369287815758
0.901090776133769,-4.082999727951368,-1.2469408603650858,-9.265609962774477,-0.4265566263651213,0.9806699755033598,0.339037146592952,-3.610556337391489,-5.928101559436918,-3.492821974410674,-0.5070053100427878,-0.3293632101321524,0.090369240738131,-1.67452488662627
0.8434235168547769,-8.132140760444962,-4.8154311413420485,-11.915695081013798,2.1241979585161928,0.5347819920970893,-0.7433582693221523,-1.5989036817882152,-5.88368544124131,-7.980728104450776,-5.1248873023152415,-3.2933515201013623,-9.041543654672813,-11.53980221807969
-0.2066400166859305,-9.74778706893505,-6.695552053031345,-11.96671451874477,2.5366783986944204,-0.4294446391063078,-1.0514915055273149,-1.2278288841049574,-5.444206138212529,-11.6728474956708,-7.043313208853271,-5.626262964485342,-14.570816512118352,-15.191465842693288
-2.3290737098652734,-7.2849549077531215,-7.366620042705444,-8.18898371676535,-0.8732552653250713,-1.8589985393216808,-1.6084274044483742,-3.1508181180816357,-4.669359138175415,-12.28497109187772,-6.335826515608897,-6.176362284776875,-13.373007162634917,-11.571626813388336
-3.783368266158113,-1.5382089241336203,-6.856741568844584,-1.319604892943541,-1.2965723925568755,0.0358955646386218,0.8713313854094138,-3.3107478580733685,-2.703166663943986,-9.214138140266527,-5.082353968334264,-4.547594536286397,-8.419901636953258,-6.6838273059887845
-5.027353113469387,4.553192164519096,-4.296370696926553,5.689792878344656,2.360278513820206,3.6265780663947935,3.850286087820832,-2.279198566621405,0.5663072389754463,-4.095162731223697,-4.081610495676812,-1.802795621754175,-0.9454794712704258,-2.018434063147854
-4.632666564422764,7.808914670488555,-2.2590739027843885,9.18667646345624,5.339311534451984,5.133909395910493,4.264373528336767,-1.1125517591139982,2.4544741417518243,0.3576386548322396,-3.010081480761752,0.0129502455314494,4.589555154156234,0.3110054597666557
-2.0752876686062462,6.859252246640871,-0.5437605691686723,7.323986670166137,5.164443086636528,3.542173662120244,2.576374408910534,0.8633843940431746,2.986403435164054,2.299349551662548,-1.748198984028002,-0.5366691367766911,3.913951558879493,-0.6348348076062634
-0.0011924302733269,2.8527578685831223,1.4267080129850815,1.6795093297425794,1.5106048873755902,-0.5110600436164207,-0.8457688382470978,1.7787279574187076,2.961806969727557,1.9128855429012184,0.6355037544935339,-2.832055103759764,1.3386369829022011,0.7772356421318642
3.4381611730440294,-1.5116433392007664,3.143934076546248,-3.522218095006984,-4.614021445950901,-4.502868401176971,-3.7362149815323975,1.502666550257855,1.7287881229357327,0.9192555452448464,5.019273346000967,-4.306648118350065,0.9393553828192244,5.529816693600235
5.94140014036013,-3.7298171480092943,4.846445604260542,-4.3073162824249,-8.104357189293356,-5.576636226993421,-4.204144365994753,2.158440655723425,1.7960158766321956,0.996338934400459,7.172703949168958,-2.316863847300702,1.8163704646066008,8.496363203885043
5.536037816879506,-2.788641522379942,6.440112102215072,0.113740900630388,-5.643694961238396,-3.2227707446006235,-2.396808321651716,3.3960627169282103,3.2755737692564564,2.48689463076089,6.217669956010934,3.602049217266486,4.888613996002178,8.955818221280857
6.505035416851921,0.6337948153932369,7.702827548454505,6.691085701725011,-1.3243348341437824,-0.5385058125413318,-0.2439513736599826,4.879429894700529,4.198508152296885,4.36229988577222,6.587731853243659,10.98283389628592,10.20151252128677,9.299904230150265
6.561594240851354,4.890555994595875,8.601621427171644,10.780723040835142,2.05352073656316,0.2145722913426369,0.4623274955602567,6.964388650748593,5.100361624288193,5.267698127341001,6.160878091487866,15.94642213652427,11.85437263562852,7.801330519774637
4.123217821114101,8.373213389242451,7.104248933391517,9.601783272016256,2.743118175486182,-0.575542583793047,0.0818391217696948,6.855572843307303,4.421176766301621,4.662273577359009,4.345969095539994,15.89935536980466,8.267149102452555,5.042443541384224
1.2702876883285985,10.17964845228815,2.9160408734758287,4.205324638833892,0.3754349826359697,-1.5115001521358329,-0.3188729158596214,4.357746813089722,1.7582232301639642,3.1664934625666312,2.366005385194957,11.297650514340589,2.3462079781451823,2.397562323556281
-2.626918843849361,10.152823743921266,-0.6924686891310176,-1.5639220834593992,-1.431440830909306,-1.3660760179891205,-0.5007656595277984,2.683560290527234,0.522790339014028,1.9660139959575889,-2.6967691720925524,5.104638209523344,-5.090947725955627,-2.6740341960812075
-6.961464117008867,8.459648670277083,-4.124738170500133,-4.193591770304291,-0.1050930934792804,1.3005786844530216,0.9922245214895944,1.2839573763934482,0.4230164510237782,1.8199305905078944,-8.988881300977997,0.4644896310763844,-11.156016954111267,-9.3986988558682
-7.554421656207802,5.206987633149904,-5.040589106844926,-3.1318622711391875,2.689850054162532,4.509324160648034,2.721006512141035,1.139372834815456,0.8832969487919295,2.440733941166137,-10.114145028106002,-1.4602019866242983,-10.515942390399095,-11.764968990802984
-5.042071278455188,0.5252484059621878,-2.524649079750622,-0.8363727099765867,4.091401593798093,5.217029086025329,2.3570219222149653,2.9305033674629364,2.617069852501277,2.7167666967612725,-6.425395916069109,-1.79517622485373,-5.93448409050138,-9.69553216571509
-4.836648432670039,-4.955095080882392,-3.280151811927532,-0.3776190597862623,3.2182982708395147,4.278805108077968,1.4346301065802962,2.4833115851412484,1.827914447851336,1.6462159216515424,-2.9858754951729023,-2.390099473934169,-4.673240845746867,-8.485444795868398
-5.180111844079996,-9.82682752843437,-6.836592127960642,-2.747030787721455,-0.3792126144063181,1.7348495918664866,-0.849683156077181,0.0063675543256708,-1.643061540845964,-0.7161803823858239,0.8117657444827748,-3.9494662351933942,-4.294703760800382,-6.484132806762702
-4.866930027273414,-12.373991138765122,-7.55154392581593,-6.128761091912358,-3.816398903705257,-1.3151334376553332,-2.897893721068724,-1.4159877613415397,-3.163417879879066,-3.12130877170323,2.1909606426679256,-5.523332015644762,-4.024821921514695,-3.948004346003797
-3.344884985723249,-11.626657694175751,-6.415607341501041,-7.598505777641986,-3.733612240529387,-2.2255660373918413,-2.1917731082836096,-2.487812289878552,-3.3799237427728865,-4.053168345641415,0.5853523629450509,-5.635018186820686,-3.1327139983451966,-1.7789194857382236
1.9743352436664507,-8.149763940007944,-1.1991340861920292,-5.65227646906663,-1.3039925344150012,-1.2292250870307235,-0.8385439888742916,-2.529904238310228,-2.6890946828796376,-3.040105354020016,1.9847198806890691,-3.816202108088428,3.2795984013462207,3.5567658747141566
8.971772340764218,-3.790942155380833,9.368077191712857,-1.401803933082986,1.5986730196962349,-0.5885663195075943,0.988253818851889,-0.9984217462719884,-0.2074373308713396,-1.183982015166812,4.313943151329446,-1.0823547880518358,11.24591259218879,10.637476663667998
11.913328522761375,-0.486701941138719,13.054425584986625,2.4427609231711926,3.1717083393880627,-0.4392337809613807,2.1660677723877684,-1.0265393937542855,-0.5039372540736224,-0.3170154175740372,4.327332725213737,0.9742322056412912,12.804012644836623,12.448012989142496
8.997970269066444,0.9301447260143688,9.905705548420537,3.794183147147212,2.0980752191481704,-0.9843207551299408,1.2453466489159597,-2.4682992670958885,-3.6860689365746544,-1.4458960130299623,2.6633089720036995,1.4820523964841854,7.527648689078702,8.62473866271418
4.498236471048346,0.9986608356359774,6.452388163276484,2.728978333998498,-0.232381459829076,-3.356885306358301,0.2562538844699551,-2.8652673030821325,-4.4344299164845,-3.8784373981313216,-0.6083169882026662,0.7708151641464909,0.3309130225340686,5.533974534690226
-0.4089523798063469,0.8867900813055911,0.0173681191794467,1.1826541048390735,-1.047479294267481,-4.18946402344279,-0.2215991814798986,-2.7357249886337285,-3.5048178345288767,-5.8414779462735,-4.3141539754092975,-0.2247116001252536,-7.170960567617827,1.943923815869194
-3.058138417077739,1.3729987558629482,-1.937692699673215,1.1984300225916158,-0.2752184383730486,-2.546074488090972,-0.1817923735364675,-1.893351475543745,-1.3463102437470975,-5.989423301994602,-4.582800100555514,-0.8503170162235705,-8.503680575062255,0.4395365919825328
-2.0676516016036213,2.360169422464061,1.6638454408926242,3.213628796625251,0.9859473833426872,-0.3352598664312198,0.6303680374181245,0.0823221442538478,3.052213277795768,-4.37523850759538,-1.8053391603489044,-1.0235023974898745,-2.8900601495573293,2.011881014315298
-0.91380011976422,3.1207253776677,2.2397744906667127,5.7170330337625686,2.161920458620026,2.727585132534783,0.8218055978100882,0.7337934885115663,4.1446368706317465,-2.058036791051517,0.2793671595327406,-0.8469413215505668,0.7432079181328409,-0.914869972729202
-0.8204959685371028,2.864668805200438,1.492364002631393,6.465050799821999,1.3908527815565035,4.734700634147115,0.2365960624423566,0.0763813360213191,1.7759271583449463,0.0791495960700423,2.2754130344151995,-0.2074736764138265,3.131363774858208,-5.974579941698265
-1.7537971725562882,1.1344929343409262,-0.3567614536609523,4.24738826510513,-0.891881593530305,3.67214183637713,-0.5263772648038595,-0.7237930990743843,0.1691945519630928,1.9881042384057963,2.5103330134937365,1.0716411541927613,2.433518514295406,-8.878754015048877
-3.5781091928179825,-2.110961930049825,-4.673733701445933,-0.1717868545184675,-2.814325047953915,1.222608126865944,-1.363527542269683,-2.208528827348684,-1.8397702102277556,3.948351424053168,0.7403359039073206,2.698758432973836,-1.8040915444805492,-9.360179906679734
-6.387233863703821,-6.525154286850025,-6.896429576515921,-4.61410250931147,-4.38264577007326,-0.5027628542898492,-1.72614000776431,-2.861922511066255,-2.1887403600267774,5.582361045992158,0.7637098449745718,3.709157978228852,-1.923093492443052,-6.238078677206303
-8.77879833511498,-11.32064009334466,-7.193890555405213,-7.035169561287663,-5.689188027189029,-2.120316936394509,-2.0714386716360886,-2.508869590753334,-0.1509895516435191,5.650151416655294,0.7095057076300503,3.0272772486787005,-0.5578432804395332,-1.9210222626523483
-7.797663966574489,-15.20947489722423,-6.061316881229939,-6.81548132398312,-5.03349553142634,-2.268029577392269,-1.8654226359903572,-2.362767536013332,-0.2829178674149227,3.067566249253666,0.1801409988823686,0.435487344395657,1.0109934972575945,1.034231747280183
-3.055327747305689,-16.61692805138292,-2.428182717197789,-4.847146040752193,-2.547429220734246,-0.7574596267763142,-0.678867865165654,-2.0480002618035686,-2.113659936131232,-1.7690978051043444,0.5748259413072072,-2.931816801727823,3.6934736000134087,2.378002869158217
2.427837385135504,-14.333001018717376,1.053804395964378,-2.514431466683084,0.2418013129700784,-0.5865022445250714,0.4174303514176261,-1.9841599001000527,-3.398651425331293,-6.753949361460313,-0.5596230025188857,-5.15109268219161,1.2670626564532417,2.112203473879233
8.826514744479402,-8.36561425476541,4.575460264531043,-0.5451504491746704,5.247795699347901,0.1560254357674504,2.5093560927469065,-2.3327982998922616,-4.884019448890574,-9.394208078754772,-1.378663633965964,-4.822046467640266,-1.5251978101614334,4.238538910778622
11.400458159522058,-0.3990241857884431,6.465872573662229,1.3176667193036788,8.497507630200076,1.3283199831370327,3.5803587035766693,-2.18953720367296,-4.204636657790307,-8.645663286206128,-0.725206817660762,-2.124937727671305,-1.8305625845999416,6.006549725543237
7.620155141754987,6.678743541430503,5.966696389300033,3.691783303565705,6.975823137911727,1.0327151651461963,2.0464759783242443,-1.6539419662936905,-0.890809266580595,-5.642419224184863,-0.6418259089769094,1.2482219739287874,-2.389845071447916,4.385078273999955
5.382855109386764,10.141307941983166,5.712829759173778,6.6643356807042125,5.18626553693877,1.2037400543574803,0.7223793046404268,-1.3508502554904136,0.2217138292634006,-2.6495652575034505,-0.3590536575123174,3.269380594108694,0.4775718658342978,3.99822223057635
2.796859507438829,8.929638802645009,5.082670771245478,9.440812064329569,1.0970039624239996,0.5840483034124643,-1.8931423441654185,-1.1549033177137749,-0.4672831849798463,-1.169447263854428,-0.6501947740266036,2.939942988277867,1.2452011583207094,-0.5527874958679382
0.1526279456852682,4.294471038185227,4.44696141881908,10.78913601344546,-3.0338228661811373,-0.7432069801218919,-3.716573743241613,-0.5245161184002399,-0.5778379233121649,-0.8768101537278863,-1.3249204661900729,0.8009497745568037,-0.940763953987843,-5.310796322960769
0.2579589964760292,-0.919059526303549,4.1941679826050144,9.88367057985317,-2.8221668289056607,-0.6656106779981117,-2.1886110396696083,0.4875596315299402,-0.9729273560855518,-0.2517686758143078,-0.7794481018726308,-1.6980383804240082,-1.2505149990987117,-3.7205782924333546
-2.18303841839075,-3.916346016383176,3.9033724891757817,6.9202828705830886,-2.3139752346121174,-0.2521715291185318,-0.93011463748551,1.9599465204204276,1.2109092463229307,1.789050875515704,0.290264120897213,-3.3001449594805248,-2.0176495780750163,-3.255324532103544
-5.8747540805276985,-3.474453286452804,3.828291024755816,3.107027022495197,-1.6584371122090942,0.2360235757151011,1.1838629506753908,4.028459876198603,6.462757829092904,4.807694759457666,1.9731048168182164,-3.563482950350619,0.9730761517982256,0.0353714860351002
-6.98048900516442,-0.4263050358805058,3.4479343906307824,0.0513053755375705,-0.4072323652121093,0.3830139812531131,2.919274021501468,4.720797289219711,8.609562472583598,7.236676350939101,2.603059268503592,-2.6628488891881243,4.876150309122973,4.010163077381036
-6.170388710385862,3.075995480700354,2.7530819387300456,-1.104426158920538,-1.0513006353831416,-0.4539692723296721,1.879834109407858,3.9310522653075433,8.059041087871773,7.781045519216406,1.2518657833363855,-0.8615371125724209,3.7862050549105577,1.9495295350737731
-4.398248548514287,4.951967185215016,1.0553434650058646,-0.3044218430621317,-2.724176267795256,-0.9323317924558676,1.4465116058680898,3.675763395288775,6.889762743545965,6.511111049058096,0.2504073581328658,1.6496415529731523,2.112636869131759,0.5831330021616836
-1.6076319309651848,4.380589330239914,-1.85598606459616,1.4328013237124742,-3.2968596222383586,-0.5524767292560179,1.10025033173255,3.554646358011183,3.837715036732677,4.723118803772985,-0.955712256763706,4.431678164529677,-2.3267071258011773,-1.6037809158683776
0.3994403306454961,2.15112531776038,-2.758334113264669,2.7007596997690517,-2.6632388803484486,0.4501878905185557,0.4813152335252296,2.98288845623171,2.831111375532493,3.79371652946436,-1.29544148804896,6.555000976134826,-5.819065010514503,-3.795721924766239
0.8310481378016448,0.0603176232477622,-1.6338482089648607,2.6462868379232862,-0.7936725767196524,1.394135167660839,1.0337869111593516,2.2332408435766644,4.155663714911137,4.075860338690388,0.0271744675164741,6.980666101376354,-3.251155687164689,-1.7609061053859574
1.556535773691146,-0.2350211476745762,0.1191384223896692,1.5091929287730714,1.8868060348363684,0.8954415479076119,0.237352829179989,-0.3086525605312389,4.406102077057245,4.736576432525819,0.1634057112295524,5.391802483616168,-0.8114399332393365,-0.1754860226644494
2.876405340810108,1.790410642099495,3.261872988008943,0.3474782882637157,3.928662813785585,-0.0356046834043198,-1.4057857160150842,-4.835991617086816,4.43951194334976,4.574672311156789,0.4232189400504428,2.672305383769295,2.6410962789900654,1.7893353416497426
3.2802921180489646,5.286884616883539,4.317798669072764,0.1449880714672424,3.965711392805263,-0.6321149931281922,-2.129708409222634,-6.666637063881937,3.6937333893893176,3.058778726033625,0.5347119745976648,0.4203175114788493,4.539531514949067,3.1815630603851326
3.0148045348708328,8.641443867939786,2.9714922123961105,1.0016770235399033,2.290735424257655,-0.9660361794829092,-2.6818227354330326,-5.869497988183229,1.6568893808276666,0.7177315205043655,-0.7512278355774248,-0.2262954103826278,1.2117676884847193,1.482383893873783
3.708167852799712,10.48552809312314,1.502350795361745,2.058737149205923,0.761086785424201,-0.5220985646503032,-2.604592094938068,-4.342074220638296,-0.331611137183966,-1.3776336973233771,-1.1195272277464647,0.5409071916902057,-1.0684223372895,0.4187935042941184
3.810583485519255,10.411678994066186,-0.975875392790034,2.218845516243769,-1.014217126035542,-1.4361275434341003,-2.5372064400050287,-1.0134241446373382,-2.544233363073136,-2.504933876992056,-2.241136681976608,1.4305934135683094,-3.9410374505003767,-1.5702962435011676
2.9489135481138,9.000802907224184,-2.698894219610577,1.0610242977623088,-2.14044690200343,-2.9381930142398693,-2.4074123517969213,0.5923989397700454,-3.193954884490226,-2.7135940599379733,-3.0788528204427577,1.2079000854199529,-5.640238368155726,-3.381328873339031
1.5780377618231212,7.29816639134775,-3.3651638949542546,-0.8229670926804458,-1.7453506957360805,-2.784595354684749,-1.512519711701568,0.1875870331071673,-1.899757549161397,-2.4177213149854597,-1.4632178461837633,-0.2343166925672861,-2.4909694520708814,-1.9508680457816283
-1.868573650226356,6.201620982794323,-3.850609801741549,-2.357678280927336,-1.3142633323786628,-1.7205231185916556,0.0504133835001594,0.4594192608245855,-0.2429465668484298,-1.64844229646671,-0.4084405798259476,-1.8196497321975256,-0.8802894022934493,-1.230586340585459
-5.785629461064277,6.114921153586379,-3.6188812620008055,-2.9143182437845483,-0.2029449816418214,1.720692058365282,2.990545555040605,0.5802916242546744,2.3201662838322394,0.155578847618381,1.9377338529454469,-2.2609113576906674,1.4942771515601172,0.5061595754106685
-6.409025719461577,6.893205416463202,-3.373420878685531,-2.8131719410342653,1.27433947884348,5.122806972616839,4.499821041963114,0.8250114781662642,3.5450412144384478,3.467905681015485,4.189298417581126,-1.1669645756297538,4.401427930146432,3.106361773439867
-3.9402250122757065,7.929214084433418,-3.112768912801652,-2.9380055255502797,1.616436284555289,5.040694516435741,3.539216464269839,1.4910305948889988,3.084326187420196,7.740678437009337,3.334038666855692,0.6838735495246961,3.880271296290541,2.840137597094266
-1.292205389381377,8.326411147073774,-3.015650928294525,-3.819669828123624,1.0881084051372762,3.667014478745718,3.143423229167331,2.3854252448504347,3.3415928487950888,11.269603082251525,3.01524646197005,2.0702732500314385,5.019998382677536,2.48582373645265
1.254942268847149,7.246246206648736,-3.2724399618357407,-5.06118866451664,0.3695866713788335,1.3235536333806408,2.324617448376629,3.6970623560796207,3.761025921654207,12.222363100918887,1.6555109590431103,2.326918797081179,6.208995914199439,1.7380133828490854
1.6713630281978789,4.427816647129916,-3.2904169231237246,-5.675278660742695,-0.3792128446330414,-0.9682086086054968,1.5915712802182609,3.765915083831708,3.2169317962643817,10.027242381930618,-0.6498739319688225,1.720559735812328,4.468181469361618,-0.0605411739972018
-0.0919609057910123,0.5878594751661481,-3.167255827955813,-5.033578686872097,-0.4933765093684676,-1.1043339450749772,1.7636758090102034,2.488353717702888,1.9352308944088488,5.863804250977669,-1.0383625523218436,0.9743544259361556,1.9170606208035676,-0.6571815997608133
0.189728706649281,-2.7402291605601565,-2.9092183548377903,-3.514958390507001,0.4251897038960227,-0.6879134136953452,-0.6097296544291682,-0.1455620161564989,-0.3988493642617387,1.7722090240699568,-1.4784401608281208,0.5068099687275236,-1.4680146736993154,-0.5502113849911615
1.6017812102995923,-4.080902357171903,-2.41501566270629,-2.218513295505637,0.6673162232340382,-1.6612247693153137,-4.44562560165014,-4.653299197388049,-4.030448771344799,-0.842445909911218,-1.5412992379289747,0.120815324194055,-5.713801051549816,-1.0320586880272933
2.482121151969469,-3.1365038081382046,-2.389464272729262,-2.0156305427808707,0.0807193906964046,-2.5613590213164086,-5.945290205704077,-5.687838049058514,-5.73757008225576,-2.02195888012295,-0.6456694864049151,-0.6618611178734781,-6.8932471830951725,-1.3843401505607908
2.7284740417717,-1.2704630378221111,-2.853594519795148,-2.854345613494134,-0.6457307147570844,-2.5877435237429625,-4.864690367237159,-3.0014879841985875,-5.4063550979787385,-2.790894100216166,-0.5814462845047756,-2.053979799282713,-4.6641066641157725,-1.407434371127391
1.0734352676567025,-0.7633923425658047,-3.3868619387771948,-3.94681810907456,-2.043187775980291,-2.744680928900705,-2.050553624730864,0.416176971394219,-4.900285950006983,-3.9903936287543686,-1.584716285144499,-3.772496535489104,-4.011205130682916,-2.1633956433213783
-1.181426255995997,-3.182760654129794,-4.151181236893689,-4.573992158177614,-2.798649376735496,-0.9410038873425856,1.4908860586581043,5.8759960501857496,-3.4529841742372707,-5.50629018649666,-2.9505305787703158,-5.242435331153885,-3.7801050861873535,-2.3250232926656813
-1.9385250998613373,-8.053550496369837,-4.354007551336435,-4.668815277773762,-2.1103747392358936,1.2392073043908325,2.645960417141905,7.351267154413578,-2.551688291227305,-6.480350464305699,-3.635358106768016,-5.960117528942684,-3.1845971753572644,-1.6479952837149667
-1.2722255920305643,-12.9564932123603,-3.8890140201784673,-4.6549296047625965,-0.6823573812234738,1.372606039596912,0.9072797633512736,4.141382131485896,-2.430299051304312,-6.16554688169971,-2.513894070926504,-5.740146933487552,-2.5175471273143266,-1.0352212628985946
-0.0344286110410115,-15.117486883025128,-3.234545742612256,-4.841120144217854,0.8348510438042813,1.5548485494529116,-0.0828457885418218,1.86088045366292,-1.846603082792181,-4.6075569403814285,0.2386243237974697,-4.799465344909306,1.473312019573466,0.5229304177497632
0.6255241696200059,-13.317966848364552,-2.1641504355048164,-5.095220031868692,2.4595222099248355,1.087339130859378,0.7322442257246452,-0.943515060979702,-1.1884059068618746,-2.623598583653383,3.83077830069284,-3.717087633168749,7.710679466723036,2.645076619252018
0.4082888226051231,-8.654301179615464,-1.502200776208401,-5.114834928616425,3.1008689292715257,0.2023510352352692,2.2608414593116173,-2.160578934836368,-1.27213976652952,-1.204779826530645,5.710910637851084,-3.213079201499216,10.12900015661803,3.594032644780053
-0.1031295729838607,-3.6093817141507465,-1.333794841123435,-4.877214876132832,2.087689128039004,0.4826335462779593,3.4515116445828404,-0.8578793208860623,-2.06504566114145,-0.8912831591150727,4.464119925465906,-3.717210118392181,6.963076508269911,3.0548749958903985
-0.6435674694593676,-0.2676226118736693,-1.0556848674721315,-4.640445442694572,0.9509928657996228,0.6315036249708164,2.4501285252538128,-1.9123675213468536,-3.092831372546886,-1.5785677642864808,2.1560589728462083,-4.975534704572752,1.6652567287046849,1.5999420544525742
-0.5259112272683834,0.8932453202002648,-0.8753257060070277,-4.43559991465232,-0.9307557299478382,0.256301252729545,-1.249107114209164,-4.768393825761369,-4.5350343171261285,-2.791080535865902,-0.5637537563708296,-6.130325579343642,-5.281077508402326,-0.5901056545005738
-0.2800349057245781,0.8338683262089699,-0.511846521294799,-3.6883316742243046,-2.589737605489939,-0.1583585252877883,-4.322050217962776,-6.511262459268811,-5.390999314675666,-4.095222531485298,-2.19937797340683,-6.396530950447467,-8.17421426244462,-1.937590253429076
-0.4940013131819582,0.8151353085336925,0.1107833036140856,-1.5986801273644993,-2.404622864300801,-0.6982430177422335,-4.046321259712653,-7.850295221204688,-5.525465997436442,-5.28795451158584,-1.3420270120670963,-5.8055109574243815,-3.952933831563745,-1.3562997562058687
0.0596599424041281,1.3829192619874568,0.4863039791999977,1.9004487325370505,-1.2692843293014184,-0.7370153983645595,-1.3956853363083457,-7.639483268186379,-5.851797034035347,-6.272407800247635,-0.4963716182460314,-5.228374826230484,-0.4738092293935168,-0.5900664040659436
1.0268667066135508,2.2271829063245328,0.6752756557213133,5.566129051720827,0.6708148228139427,-0.1912558015366423,2.643856641106714,-5.321597475509913,-6.114202118232043,-6.849716885906185,-0.7736330975361745,-5.483682049061155,2.3016447897335954,-0.4927859772204
1.8072871256438725,2.775325823552473,0.9849465922471006,7.451743401587608,2.3190384691382286,0.3916321745643076,5.053632115131268,-4.28115550531299,-5.316255471371666,-6.722731334568247,-1.1027491230204964,-6.3129867777881135,3.5682311281399004,-0.4835862869691698
2.101654249533197,2.806710832387324,1.3428541098060465,6.412220691954081,2.3535529813269616,0.6482096292538981,3.1648984570085075,-4.259628217942561,-3.4596991424821604,-5.759390522637959,-1.523697114570849,-6.320646743540928,0.9174024909440136,-0.6026022775424411
0.5784646659470866,2.5466342723551403,1.813746613944675,3.226035539381723,1.215007573968649,0.179005204824156,-0.9607410276195084,-4.001502660026277,-1.095915033116742,-4.238243943195119,-1.677102752997517,-4.141942760988739,0.1119558308008132,-0.3512025685643692
-2.0834595327678453,2.3013368828448444,2.4520021472099147,0.2062124716591498,0.1030197554231882,-0.3203533921863912,-5.0969853178884375,-4.154620788878413,2.008847159680361,-2.7426466196895563,-0.0619483802426626,0.1503458779102411,0.7470176561045905,1.5701712261206031
-3.812032394010873,2.1030598435978147,2.3887264874026517,-0.5310585005957735,-0.5445457370273674,-0.3813609318499941,-6.498563847324912,-2.902757251153969,4.078470751377977,-1.6869028058671969,1.4981671755391792,4.771380279239726,0.4364939668300444,2.9730543699721825
-3.403719029662467,1.7239856617788485,1.5803405339560537,1.2931561111444836,-0.4359791347083269,-0.0339353707420202,-3.675237163843877,-0.0640915559311304,4.908580342830448,-0.8745430256678315,1.0828769283420798,7.479356124463186,0.0066566173794296,1.977075831899456
-0.5130984565277303,0.9950652255172194,0.7909210298482701,3.996110929514911,0.4563106227794046,0.7653197174035262,0.6776895220784936,2.646452719864439,6.156260729127485,0.4276863034067268,1.10870754317093,7.318557932796346,-0.4703810953472913,0.8584666608207154
3.1947974433747026,0.0672540184436032,-0.1671670760333114,5.411604397458948,0.39598542505767,1.092316912445895,4.421928013894074,5.63613219868957,7.387649716641864,2.8286218036679536,0.4340940069865714,5.316700167995876,-0.790646784148188,-1.4815065205574296
4.751530696006731,-0.6696584635289202,0.3147381810252797,4.628248992183415,-0.4114684819572097,0.5115837187821306,5.461958011666662,7.420627168672034,7.789389613141385,6.076863523936906,-0.9985382340226135,3.5491014718548923,-0.513675470576796,-3.6167134464434345
2.9963913975689427,-0.952017236245827,2.507703088702561,2.4812897339399607,-1.198182666998988,-0.4963471006111728,3.3219544905251426,7.606350211458873,7.486115529335346,8.951477242221607,-0.6054948919190783,3.4525719955321383,0.1470370362485717,-2.7192140951383847
-0.8264655165275839,-0.9456366802408862,4.2921298861775625,0.5290802393597298,-2.620326854539225,-1.4837529556049929,1.0668504695007914,7.909325106319919,6.826636555705484,10.0111255608172,-0.1478761564841099,4.867030550654182,-0.558245531577237,-1.7290777641779964
-4.51317906698129,-1.157092827764055,6.047420464673253,-0.3484677941553658,-3.20329582273186,-2.102900597327544,-0.0537893843749756,7.883741542184613,5.669643610332442,8.665506431996345,0.311100743519079,6.511428528616558,-2.2226328855787854,-0.4823300801337731
-5.457808155942438,-1.9468430821943723,6.936386130555838,-0.3850655018455304,-2.3063441418750177,-1.6649729707667502,-0.3293274566526549,6.937505286455321,4.405859510273985,5.674135457498508,1.17768963331397,7.277589291403002,-2.7935015695950955,0.835488436087346
-3.1098070865135083,-3.028692253707153,6.506662080775186,-0.1735446650125887,-0.953920551343966,-0.5348244323243725,-0.1370047472659377,5.219054511580938,3.098565007453697,2.616097408554051,1.1079354491043878,7.104606716078777,-1.6862674304855905,0.3419334489205103
0.068693849075222,-3.469437655281528,7.227949257968506,0.2546439442386292,0.795850232228881,0.5091250061661599,-0.1950121498325339,4.313940958701195,1.2746158637974865,0.748574334400308,0.1479576972792324,6.753050250300962,0.3626200143806408,-0.0979919725755004
2.4536175693278417,-2.373474679428396,8.87888307205503,1.415060448414867,2.6274244325955856,2.175387838152793,-1.2879209446033562,4.283297855920178,-0.9754087496870988,0.1842617286386829,-0.6347876592791459,6.875182138301941,2.6929416596994016,0.3422983729720329
3.4953623175689272,0.1879863751625143,9.127938961483906,3.454922470269117,3.210015630973233,2.952867717394305,-1.89263934674882,3.390599717604064,-2.7994082566297838,0.0055474960675798,-0.6019000140110828,7.344283811733419,3.5953818277991267,1.210326179055414
3.085810551947142,2.847563063143923,8.28140187190132,5.4627466377110645,2.630402819558196,1.9485028631400323,-1.179786287361439,1.943918428921112,-4.187931826072087,-0.8829956237650602,-0.1997982043136938,7.431905289456486,2.39082366359225,2.3592704021581232
2.546298983442884,3.735052944196704,6.235754812120518,5.971316630277913,2.1031107370339632,0.7009432796804094,-1.3627884295358723,-3.0943137597388906,-7.480817265529871,-2.9123991716126305,0.1202540089499343,6.57104497555887,1.2420667296776686,2.7532962837867325
2.965370419447237,1.9455304640257696,2.490302660299865,4.326317320298346,1.0015225097058478,-2.1175704607075096,-1.5251348027759253,-12.34574676868898,-12.670135954816775,-5.6123848110221966,-0.3758020494133998,4.928482133925119,0.2345514341932636,1.7758118418511306
2.284843206217159,-1.5653230666211666,0.1930733234596836,1.5299381061692865,-0.4122371329297123,-4.27713221386678,-1.4326709344843778,-15.273348625836205,-14.841436192768176,-7.993758266107348,-1.2478248917498065,3.241278701192946,-0.6582901006232553,-0.1436829192522715
0.1401748994682222,-4.623812377307746,-0.6324366983486008,-0.4669087738085062,-1.0471843763592756,-2.918604638442056,-1.1905425311455873,-11.98565600835192,-14.140784869877688,-9.153318627725776,-0.9771713925493252,2.070021374764205,-0.3566108956742194,-1.3507145876139917
-1.182144671333306,-5.633504595082707,-2.0367414090312126,-0.5194655561937607,-1.5210842420487478,-1.0926193458609097,0.577815570608627,-6.91615082573539,-10.903329857813594,-8.736219100648395,0.0750008434353884,1.167277138795451,-0.6363560169521096,-1.4624524038188744
-3.635625574335092,-4.923317264562575,-3.3567714543121983,0.5778501711823134,-1.8552410920594775,2.0173129670506142,2.7203781232876048,2.346442356662504,-3.86684970630356,-7.117719276039544,1.728701611389276,-0.4052971601169002,-1.147038110271127,-1.3118007557277296
-4.334457082322896,-4.301643275345164,-4.542731816298233,0.7877281645092697,-0.9542642849861264,4.626125091232848,3.581940497406772,5.649268590561172,-0.5417357675746495,-5.272543550450138,2.377355180200626,-3.402817952190876,-0.4122820190191728,-0.2519556840393973
-1.8382608741660091,-5.160305384789105,-5.785897813607111,-1.1781957184742202,0.2140428426216928,3.0946734062015624,2.4925378780665284,2.0728811285448225,-1.0819642432472552,-4.307634871403085,0.6429861133082583,-7.45278036863507,-0.1294789398551869,0.3900092487899227
-1.9725405309553616,-6.987956659137265,-6.053073894628156,-4.442180902323337,0.0912538180633617,0.724632398538407,0.2150077109885416,1.5830337079137218,-1.0640302794932894,-4.780710340385458,-1.336011112028748,-10.90713984481113,-0.9558215392658808,-1.1090571023076818
-1.2472527686331645,-7.849058430179291,-5.302521846789881,-6.548530046866328,0.3436540595565173,-2.022227856042127,-1.8546476212639629,1.9417780610874555,-2.170804373699032,-6.207128547051169,-3.225511491871538,-11.795408956382488,-2.107085641729536,-2.269707449366917
-0.1810919495615329,-6.423246654015942,-4.799095085826035,-5.610505451242186,0.2725637406769814,-3.972043435846087,-2.446331378592389,2.789883929676749,-1.1828275914818345,-7.223271390085213,-3.453812997484746,-9.261276876430886,-3.1847078123059456,-2.8018650434931134
-1.1605253294774238,-3.553061127834896,-4.3679262485690336,-2.051712762442098,-0.584473776872132,-2.84119477685336,-1.604460875323792,5.569445144717041,2.506238885594793,-6.459579375120388,-1.3439400380348994,-4.350334227377078,-3.012017112080837,-2.8335711181486776
1.0755339162582904,-1.6765427699147164,-4.230408420561828,1.696695424602808,0.660230120590861,-0.5370617652505025,-0.0490554713308638,5.525928816763809,5.780771044113378,-3.5489508469431144,0.1499369222202309,0.5672885083735473,-0.1558786649649307,0.2296817945105287
2.896131071907706,-2.634587492179268,-4.662766517074993,3.2896991839755474,1.4875514558656082,1.6621760260615106,0.9083117126569388,2.788622974781397,9.4922921153873,0.533940363313846,1.794330488339902,3.3693264790968334,3.4852721388734023,3.4995481310507257
2.9467587740111902,-5.96302615391394,-3.965339919297872,2.4391433938468925,1.00797118422357,2.6991348808916387,0.7101893625317782,2.5328032370050177,11.471128342040416,4.131422619627994,2.840472036298229,3.536163409063324,5.089344472427213,4.72885014299289
3.435865582646324,-9.247691617463223,-2.174829182131083,0.9968070132303196,0.7282022146982954,2.062508932514409,0.4414740069051791,4.096476207404802,11.132829322182785,6.077694791047479,2.361142220687668,2.255043737301726,4.391758431272591,4.577093728422772
1.2363622166697283,-10.075021577235995,-0.0351033621214078,1.1691642505471975,-1.293451814230183,0.8357627001331052,0.1710756154043667,5.632668489440535,10.593228760581304,6.487032751930073,2.812843247255705,1.3094771260141442,1.9541308734015168,1.7371328450559118
-0.6664322989412833,-7.705268264583459,2.820787057269424,3.5787858114555124,-2.97146611442989,0.1547340026620014,0.5416480731957044,8.032542248457185,9.166847059359815,6.573920193096411,2.471559327072224,1.765573960672854,-0.6083085442742195,-1.2267846160260951
-1.2662414496475642,-3.149417870050585,3.761814715626114,6.905882230527372,-2.4828338272092427,0.0714212239969272,1.0490156968536095,7.546688648159296,7.887078501078572,7.676587427010892,0.5344073762400232,3.4779664789074767,-1.9597586554356852,-2.510786971473824
-2.480908983646639,1.9704401885932707,2.51592883055504,9.251278706806293,-1.119141701842831,0.4053185554939673,0.7571789532857247,3.748471984378464,7.036445008628465,10.21350865677991,-1.3128369880186106,5.557388420956537,-2.4386946553921662,-2.855539241943581
-0.3043900298084948,6.4344261072435325,2.450265645128343,9.769969715938364,1.1575354150513557,0.7143165970935298,0.2673808724303667,0.3923793317194066,5.547815379264081,13.292695026703392,-1.9921967485425756,7.1058431996016695,-0.9280148954735802,-0.0622637551107054
1.6744093378706923,9.565178749756528,3.0345070505015284,9.03591147794501,3.183656817891319,-0.0418322780591245,-0.7089270949308851,-3.39005718463431,3.731058053384164,15.222478722216549,-1.2230187551402762,7.524050489624057,0.6962341246595289,2.457033928579865
1.577876606252452,10.938032188548709,2.621894408729277,7.994119509012343,3.083712068643369,-1.002346506363884,-1.168331065512678,-5.35103667097426,2.391009503838728,14.601331214084937,0.4548385463468425,6.392271196499086,1.4109445083089789,2.4597398498377903
1.708804978919926,10.44213229494576,1.6732266169312422,6.7611011797533145,1.2972639043709338,-1.5621608969313985,-0.7706630297087026,-4.720113208194806,1.500655421472158,11.304445042237129,1.4174521992227895,3.45382219251802,1.8266625478185703,1.473402132373213
-1.5346708689315025,8.710172665794484,-1.3031133753622235,4.57325200107487,-0.7025696674348635,-2.2136004735774626,-1.0075249133873825,-4.4671236440537765,-0.248605394744568,6.702141915406512,-0.7229630364133331,-1.0062842329010255,-0.7287192054522312,-2.393877099915941
-3.897537304580714,7.162108106101845,-6.684549318097213,0.9021635615359588,-2.624148955605135,-1.880715109674287,-1.1532783764553407,-3.867259215397437,-2.766676261617861,2.8797344326510173,-3.884792802061869,-5.773454333540782,-3.564980676576307,-5.288663143808741
-2.74709025454122,7.172180489548123,-8.422490511454665,-3.490656151455946,-2.963354145828314,-0.518058666924504,-0.869536883454501,-2.7784069945455068,-3.3167794394920738,1.3015597382452695,-4.78455916649702,-8.9720679181988,-4.065245182126158,-4.172999231623722
-0.5502308763447619,8.918293941003235,-6.507156714542939,-6.751166933686171,-1.344789062476367,0.7282020112326302,-0.40021484398835,-1.5708546178883511,-1.9344426159248191,1.847386036112753,-2.123834592173881,-9.118283251540392,-2.0016724444233587,-0.5962277436849962
3.140229452018213,11.066829288551013,-4.688577557301801,-7.329452162260727,0.2027618062605929,1.8645810605389916,0.8699348221480601,-0.4278194738488554,0.659609786538765,2.9831639030702144,2.1218696281307,-6.235365127335472,1.928043844405055,3.3603628076213394
5.088290691936583,11.78924199825919,-1.6664789190001732,-5.324130615949828,1.937691341454276,2.9583099803380515,2.0631472730815745,0.4938897588253514,5.143384882347186,2.9885478878900726,5.79725096844743,-2.0472206961224115,5.027595733155628,5.806329795417798
3.239332333509374,10.291282147751597,-0.99696237000551,-2.529561494316348,2.6183968893934204,2.3661088933308383,1.8248258945176568,0.0851994188774389,5.508402570060457,1.271045366616963,6.095904170782492,1.0679856164143993,5.222811383972869,4.836990308095114
-0.6259785026323517,7.43926409426798,-3.356789849783658,-1.1131507959924836,1.2666807014189945,0.3467445183081984,0.575912510011608,-1.9259511355350325,1.3189237149076816,-1.321934842563726,1.6515434384487646,1.6405938971058085,1.5908890297926324,0.3179689738779375
-4.769167669125337,4.8842129584291145,-4.718948066401164,-2.052146941224641,0.0733571288546404,-1.271620931164753,-0.4426293564295658,-3.1133071914429395,-2.7552122431994905,-3.415593868389223,-2.926971988346817,0.0048274366222096,-3.0261746546487167,-3.9492517097993294
-8.147703986575626,3.5427289815002414,-5.993421216125037,-4.600975005324033,-1.4837205006316347,-4.489604897003957,-1.1090583314146962,-3.7008653996348486,-8.137453107698878,-4.3499288596221,-7.1036955614154325,-2.1253372600110847,-6.3387740919874975,-8.389237306937765
-7.630455991730399,2.918371771292948,-5.207051459522673,-7.090082290607338,-2.4367776679817306,-6.25530827280435,-0.7702063806457122,-3.396942449400581,-9.200100020521662,-4.566920265402322,-8.145653325185968,-3.001964817025212,-6.139312251579016,-9.657052138696168
-3.1694275055855408,1.8898535475780829,-1.5763384856059075,-8.225164024855708,-1.2248745438759354,-3.899784131249252,0.1613977102306127,-1.630646749698136,-4.884779406184974,-4.831636043440302,-4.260168000644304,-2.0375948282228644,-2.324483716117645,-5.365244913759593
0.9680799523938156,0.1152080665056805,2.684577241801989,-7.781585245764974,-0.364064654057657,-1.355971657351807,0.2342717479374906,0.1508684232591015,-1.3189267826056943,-5.17320498244599,-0.1745435303796886,0.0004504966916027,1.459472811270503,-0.4420465041128878
6.107936012041426,-1.394302787283142,8.30672299387671,-6.310118301900015,0.7969879925603205,3.984227781007157,0.2224684644152365,2.195825707818142,2.9847929427752,-4.728944285985964,4.837813611840764,1.7924947516469598,4.263265051496592,6.543615246891522
8.586008720078835,-1.1138979592317804,10.778117814457286,-4.408301830356535,2.097112677263024,8.30881319874327,-0.0019475533329877,3.3119079751502705,4.4550834636330965,-2.7254649746244426,7.353262549536823,2.520340247638083,3.8973492662183262,10.462377852491496
5.906277858751867,1.5661140322911224,9.465719149603038,-2.3576735803531275,1.5972207095172273,6.31182990522117,-0.5128016012990886,3.137951663048457,1.9011191692775689,0.404739069254167,5.146019641850447,2.349372204526156,1.077024560921931,7.528392636781753
4.563938390940507,5.676089171404154,8.145852873597825,-0.342292698588615,0.9964037884413072,3.580883425110593,-0.2142679417904089,2.5964442775744274,0.9921595916496242,2.994487973356094,4.1672430031566,2.063786911714401,0.7550064551794305,5.478706308892813
2.124194062356674,9.310089262164876,5.613131137753177,1.2400875979776966,0.1138097995342837,-0.965180881528202,-0.2924092186122198,1.2530479295843795,0.6984110385576714,3.363726864186101,3.350600127889603,2.248646290844797,1.6850398976850636,2.7958691395830484
-0.9890705778859972,10.896788044835226,3.8739687889475807,1.910576762077822,-1.1331004898929726,-4.823877472407896,-0.5271263469333157,-0.0104703827653385,-0.0900566389844679,1.192479231417673,2.244332864433213,2.7082408548954984,2.6097904101463563,0.0783006681419959
-1.2321317571126715,10.000484925996426,3.478445140370672,1.5947482208495112,-1.2686694153154363,-3.0993709247896675,-0.0133496311732867,-1.1087049151952852,-0.5380315202850663,-2.220526364791465,2.197925177979538,2.568912604519598,2.748495062554479,0.4506498910833938
-2.5726678900739897,7.195150358167624,1.4384072984458975,0.8386016426179594,-0.5511737737088945,-1.334665975956728,-0.3288101616334116,-3.0258138332697158,-2.740586503142086,-5.007335643412628,-0.5678021375798994,0.972478440075446,-0.722317207781236,-1.7477369475984024
-3.774744295426165,3.428248361778976,-1.7321675834853794,0.3588127970125008,0.3346482116412021,-0.3846856839044383,-0.2026876930135438,-5.586824624927737,-6.795988993238423,-6.088688791938948,-5.334695217521569,-2.1868722644733296,-5.34612488855484,-5.787739430162175
-2.594536533248702,-0.4775751703136448,-3.45576610433468,0.3057765705168851,0.8830632119413657,0.3745278561031558,0.5953555692115464,-6.192973599476484,-7.843864668901095,-5.695725807362405,-7.325483781292563,-6.067335252973424,-6.676904907565707,-6.617938949066368
-1.592574995532585,-3.951446127438509,-3.987519579111413,0.0518052258026999,0.580832343140752,-0.8787687762132458,0.6007653612725614,-4.749332959503092,-5.98971450592298,-4.82184793165753,-6.085081837185266,-9.388970850290132,-3.989160256996743,-5.081157440586939
-1.861084150798065,-6.621909330895372,-4.794730117112909,-1.1549821947763084,-0.737654557726657,-1.478687349694185,1.0287897344816497,-2.440403474818804,-4.50149605619901,-4.307907712726038,-3.781230555147783,-11.232374150839686,0.8597278874966554,-2.917991498893664
-2.5067583112741807,-8.290581117092213,-5.426696746403259,-3.260826406111548,-2.147764796535456,-0.1779150828967416,0.8001148334199772,1.4036467069573648,-2.415796713127793,-4.35066872153342,-0.9926126275083986,-11.460622508079544,5.626048699603383,0.2698983592530283
-3.412175927108626,-8.939678658884482,-6.082261594972362,-5.173452184285908,-2.5690049944858893,0.7597589976632864,-0.5400184310482192,2.5459571888574626,-2.2547956750633213,-4.609958787641759,0.1979972697131022,-10.45849509320434,6.217752506849675,1.2797454904877283
-3.011715221061599,-8.725583605397974,-6.948501921917058,-5.570398494582617,-1.6774983988800776,0.4830014089663068,-1.440195650696131,0.6042841706634522,-4.650923175076289,-4.574934120091599,-0.3275772434690242,-8.561008134030041,2.460340789956396,-0.2970644299462054
0.2246842243393034,-7.984172626485807,-6.086815660833811,-4.063865992428945,0.073641686798523,0.1808793329113135,-1.46310990619553,-0.8351621065318648,-4.841660962942883,-3.879437348353102,0.6973421152080688,-5.856077354515926,-1.0767515558668448,0.5794953806591803
4.390546807875361,-7.231016290861217,-3.439445694539663,-1.6475101660266231,2.1241207176372017,-0.654893815814199,-0.3251508023606471,-2.7798784801127465,-3.361239791965976,-2.519315737835485,4.1737509734489775,-2.594472889276366,-3.3940764258703675,3.049004707180614
6.550334779397819,-6.988344960266832,-1.1378854256897248,0.018383383124636,3.413192224723004,-0.7839706762373606,1.52556457830188,-2.8208537435577408,-1.8787723080704728,-0.9570672386945313,6.6501683149850805,0.3565147232042829,-2.876108387091618,4.674412547105667
5.418549346761575,-7.349640323404204,1.167036885274257,-0.1013504281626058,3.0548610401712506,1.0795673303436062,2.6441738005433133,-0.2955404018855213,0.4371636378993996,0.0557742801232485,5.699810719234979,1.7946741671822668,-0.0053793054711058,4.951521827053703
2.4240142007838203,-7.603621368243488,3.4582754320120674,-1.6105366028247037,1.8007749814370595,2.446404356787286,1.896339096925792,1.2459115382097252,1.7138566452242336,0.0205658144745868,2.6785102409716317,1.2164403364774543,0.7365980344318512,2.265860631642835
-0.1746864882479472,-6.501550851833986,5.337490914276462,-2.9888512808662746,0.4295582571090596,3.725030616939272,0.3357857612316099,2.4459024173317743,1.7395794742505537,-0.7444882910267268,-2.6802600295676884,-0.3864303453818252,0.3838066333739118,-2.2084375461884505
-1.040668718116495,-3.310792430104364,6.572116694447637,-2.7477589105113225,-0.6629260698252014,3.805587763142509,-1.07343528989217,2.6795715141292886,1.848521818260475,-1.125981271853593,-5.763834735638353,-1.0144073121759778,-0.1166672840915443,-4.570647077926614
-0.6221507782699319,1.1262125534813094,6.922304876349999,-0.5552254227944733,-0.9336536317252346,1.5544114927389614,-1.3658183649496245,1.2828074054457306,1.5697678166716635,-0.0414101981794896,-3.696041917493648,0.7091184699195381,-1.0888603439491755,-3.708959073518419
0.1275222650994664,4.4980807160216205,6.716786203488241,2.477862034992404,0.0306758753023725,-0.085934099867873,0.1541073862239108,0.4381427000790225,0.7711449532415375,2.517075334348272,-0.6027724670069704,4.198684630407582,0.5412234250481963,-0.6581955080657599
-1.6127491896727832,4.610938986140605,5.768990911233343,4.53174851779756,0.3957610835318692,-2.5979067020559663,1.2649168654540317,-0.1544059941931042,-0.4647154713664048,5.188859410483186,2.3498487876386247,7.242653133809124,2.311991387339763,2.533243751364856
-4.353512792724507,1.2796639777024623,3.9694638251042464,4.303639866802332,-0.4875662124195371,-4.490163581124013,1.114366702780523,-1.4995661233681652,-2.1838828070004674,6.109162107813885,2.4129979387318143,7.855808372538238,1.3736141323799205,3.1950131638891763
-4.4114487091077725,-3.25536385650732,1.2817850160021904,1.8690605106958424,-1.714386652651782,-3.750863270292837,-0.2744156035524197,-3.289681132635621,-4.402739369629418,4.299549745123015,-0.8117419964675892,5.963300022965479,-0.452952635072248,1.150430758902727
-3.063294669864714,-6.021369514100523,-1.238320999420502,-1.408375149155292,-3.752480497818543,-3.9714457843736617,-3.317958459532264,-5.506712764899161,-6.542614752736986,0.4399260881582796,-2.555747588609578,3.329746351238641,-2.901879359149423,-2.0108736648174843
1.5464047127342742,-5.775488894086737,-3.542268588559015,-3.8154293901801593,-4.692812708278723,-3.213691815675326,-5.637563358537207,-8.269199504892875,-8.562421177987456,-3.5967340228983824,-2.3880674077534776,1.852336142065111,-4.458821399391589,-4.195378660299519
6.163950102198736,-4.018623433556448,-3.674600989266716,-4.3645681645999606,-2.8555215725958294,-0.9818834416215404,-5.143422672678851,-7.859301690594755,-8.143894401210412,-6.014682410209281,-0.4060273911272298,1.9220353328405009,-2.690575110668372,-3.6901206810816873
5.911815231361535,-3.5624832811404152,-1.1116261755932295,-3.240859278170568,0.3086983901384618,0.538072485126051,-2.416047419757564,-3.9427267588260535,-4.863278620652386,-6.148497057974546,2.618904467212693,2.403351499241162,0.7972112703068035,-0.713057060649471
2.56961564349322,-5.904501825329319,0.3634817018191939,-1.3951040560440404,2.2972276910862583,2.161625203559902,1.3093543695550467,-0.1805524519771165,-1.187641093829497,-4.602574953818395,1.57102926407199,2.09020464157408,1.6098976346851122,1.6270413219081217
-2.817540760921919,-9.802185779396863,1.2111946985214632,0.2643880074702971,3.3445067380527087,3.560606122202372,4.869264507522313,4.279315705985237,3.523470165120144,-2.58685114275379,-1.0152775528597324,1.0408648690811937,1.0645943167566112,2.597085129218214
-6.021202169085883,-12.342789793684902,1.4273981837117582,1.3896362827728694,2.802009773281516,3.1942763859444763,5.579840036014515,6.385568722128994,6.354822896889005,-1.0779475064642376,-1.853282704486061,0.445450063980386,0.3937318274898166,2.288554771932613
-4.237827802642399,-11.497411672657725,0.2363098505377351,2.096665149206051,1.0015115230176397,1.7333053425244829,3.5722836002589773,5.297691622184885,6.6985183940376425,-0.3444932740524247,-1.6464568244737237,1.2764999972096032,-0.3606646964171449,0.4789980634758529
-0.7029565230843735,-7.820384205205059,0.1902178816223347,2.528788157292733,1.7825813154495822,1.4626552097799197,2.293097100116055,5.83013624437026,7.5561911750574735,0.0268592638526383,1.8153484949214431,3.201343949015186,2.4215767271276274,0.0643909820321988
1.8594916410278703,-3.8149433525706713,1.1294054966331142,2.620384660440626,2.5628661689964853,0.9286245385402108,1.4244537414667924,7.181673715986916,8.101151101452045,0.7463547188747328,4.6523843500705695,4.8730790538998985,5.623548032904301,0.6694128931566061
1.7483057164829563,-1.6620356698173897,1.0479461951561635,2.307836107734304,1.6883292854612286,0.1963971703761822,0.8143594588802023,7.21537856855672,8.28381773859297,2.288813350169408,3.4059298808369647,5.237524429499729,5.118688771837613,0.8364896010441383
-0.9825902202036793,-1.4353099731190735,0.329106922510795,1.8829366212598808,0.2548992437393648,-0.2164501060798648,0.5932982420565808,6.567250130717132,8.442300842506128,4.461237091128212,0.1973612611195543,4.47903087574216,1.6955858135550517,0.5953727492802979
-1.9476877231692091,-1.3407932734336017,-0.4434583452459445,1.9576391512200877,-2.347732315017228,-1.4615353519579408,-0.8963437261187708,4.863872773449248,8.67584419475493,6.3727903320928245,-2.8850442123435065,3.6781511164857816,-2.6429438426720013,-0.4790474501088612
0.483191092429763,0.4075210330936691,-1.561565107777524,2.890164900175259,-3.675379311928552,-2.035920490581734,-3.3592700129337283,1.792774341290751,9.135551436778233,6.972444053923643,-3.6789931061882553,3.617564477233282,-5.957253362771867,-1.7042764204659284
3.290409668014752,3.890056191792225,-1.574436754634262,4.192354597136784,-2.2852859797934397,-1.321398487433934,-4.282682051515137,0.8990045853099079,8.495725076503778,5.883083495097432,-1.5583575536824306,4.015421372537693,-5.503922837323114,-1.740086291486901
4.654524909089453,7.450509720031137,-0.3176920229884516,4.676427643087642,-0.0139672991920122,-0.0664123403830903,-3.0143404773759213,2.2936725989582403,6.749502819220364,3.853316644380556,1.3143326717922563,3.959124143421663,-1.7454832196717596,-0.3429300778779794
3.357778965919639,9.202654890477946,0.610502008318983,3.497941168054981,0.9327428834230692,0.8227349750108209,-1.3860094614356646,2.633640694827002,3.798972370685864,2.3079677994952963,1.834240150135078,3.036590799397686,0.3377689598738717,1.035801753463668
-0.1826237879942988,8.61909996298625,1.5332565523320778,1.259750134530936,0.2829811710545905,0.6983562244636613,1.181729642565028,2.619011279179872,-0.7350778079169128,2.245568971488126,0.4659455207001614,1.9387117440359347,1.5127360160415189,1.9340857754665317
-2.463500037704877,6.8486375837988085,1.8125539765089067,-0.0160363431549441,-1.2251381524304132,-0.3136988904748746,2.947526674370444,1.9851904822125543,-2.6878595894537924,3.426818859273314,-1.40420542748017,1.851414996307872,1.8530669232854988,1.688476742210145
-1.567918374481725,5.659997598291993,1.125902572010353,1.621403846204565,-1.8966119322150183,-1.0040203000862755,2.5194106948054347,0.1708085486544585,-1.8747651066376485,4.628790957188746,-2.4472300634140174,3.1964214355404934,0.670245211149227,0.2600914765634554
0.2533722608794365,6.039357693700325,0.739258583766292,6.20836680403427,-0.1315796698853503,-0.0961056108156255,1.8156135072756516,-0.5673410957717101,-1.5320514826000375,4.744548189819836,-0.5487735818517088,4.966599670048037,1.416395601380144,0.120781459938298
1.2747949558586793,7.552269019955414,0.434750098740617,11.374769339955805,2.4188673096510223,2.062054166500812,0.6006448753308381,-0.3592071317751441,-0.7357836531631692,3.669066220286874,2.0332862252826622,5.366991601903703,1.892785992767671,0.8046784324966825
0.7397027052467653,8.7832611004156,0.2568463957783089,13.875513049192946,3.5240755800363592,3.478719892377495,-0.7108618399821802,-0.938172482474774,-0.9939881201592972,2.1430331225187107,3.157946553462662,3.248753340864127,0.6477470449462659,0.8319803020791721
-1.841733334029173,8.354027236426472,0.4264293620858719,11.98619394542579,2.363045412983828,2.220099005117655,-1.2433880105177333,-1.949032011042308,-2.8349777481991887,0.8223354625792041,2.551952649072161,-0.9119212588495884,-0.3879806012531707,-0.0260329397304175
-4.376624018681726,5.80069819045363,0.4173037723293693,6.739684884218043,-0.5198489055631546,-1.54772310957892,-1.648861995740413,-4.007116722072374,-4.373484721074731,-0.3705825610258699,-0.441370307067058,-5.321459520926201,-1.628595991350823,-2.7049432592686244
-5.363873470310679,1.8686731063973097,0.3037457676604062,0.9927990481328556,-3.089312864561545,-6.564079716103295,-2.9210111961214023,-7.465778018680077,-6.097625252016552,-1.938741242862488,-2.962584225758933,-8.168507286268937,-1.957505743516498,-6.165304544425046
-3.9851780543992055,-1.8500952371805892,0.2873472680899094,-2.748405549063854,-3.2348133099991743,-8.295616231024757,-3.485484552229683,-7.962526546027486,-6.6851510897272375,-3.9756275393818825,-2.8630010361135496,-8.83183105498382,-0.1404587714489734,-6.193655687120987
-0.8107165896655711,-3.7473077301938034,0.2936595017187216,-3.830640566717193,-0.9749674210679622,-4.383354088985759,-2.4755765953382127,-5.406258500387804,-5.773390980845499,-5.80900604351319,-0.5127826979031618,-8.093297654720441,2.332747798097152,-1.7605178487387436
1.7511045068325184,-3.0877541304352256,-0.3783118768937678,-3.220410781650031,1.28241010584671,1.0837093941872615,-0.5660390172339695,-1.4067895530686176,-3.1215694388034256,-6.547564091308427,1.8444461867093105,-7.323724919463327,2.3848460818057773,2.299320980082425
4.041157294316423,-0.4352269788863339,-1.783171140643422,-2.179147004610819,2.35908627436162,6.973655441910635,3.713138017705514,5.130590254623622,1.850688842996283,-5.915591758952317,1.9236562553537588,-7.368021103657767,1.4347747993176472,6.049623196375076
4.071988947530952,2.70630088906254,-3.615891811226813,-1.3058431621539874,1.5476138275844276,8.714617745246196,6.39214296289278,7.388433712858758,4.183928171343404,-4.468284319093346,-0.0910100204255358,-7.953854901276845,-0.3227643811624525,6.167060028302108
1.8091264272617693,4.8153652296629055,-6.076438284941188,-0.6767063794971087,-0.6710266173502764,4.058094819037999,4.69653760430146,4.841618510751676,3.782948703936616,-3.018247362083134,-2.831313107014713,-7.971596719646079,-3.379368912883877,0.93345820721499
1.8588641390398384,5.164225449083904,-7.178638718835972,-0.5017946085330394,-1.5329867985807415,0.2487874750685981,2.2068132657983326,2.6197679934082467,2.7047936589299986,-1.9699273123330696,-3.468116711687992,-6.366645585552927,-3.866463842793109,-1.0019907614399843
1.964652796628464,3.9521687989688985,-6.748979842186585,-1.2745048255150024,-0.970466300468839,-2.8615037390323868,-2.057544284054478,-0.9121549415743136,-0.2586957190128197,-1.2520510212617424,-1.027490092555272,-3.0252608619764274,-4.940130202917862,-1.7392377517775004
1.6895850853050092,1.8279036281234935,-5.783871654474258,-3.1563697834554105,0.551859500827192,-3.788356104193069,-4.766000088270715,-1.6968492364175178,-0.4051508086480838,-0.738074764384617,2.2725381526886728,0.961391445602164,-5.298520179517144,-1.433522376923268
1.9057953139715225,-0.6145562252742955,-3.738525330731902,-5.350716315328654,2.126044086631281,-0.9275897127722366,-2.547203018686936,1.166704953478558,2.6335031337531376,-0.4677739637507336,3.0341178238005977,3.9133179747574367,-2.7984448302928966,0.948339332781884
-1.5607064620944262,-2.908632382818233,-3.0024502541681595,-6.332138414372679,1.3563157431809358,-0.2093263678060773,-0.6724552712952792,2.1629598550714584,4.858561815596471,-0.3331204069655484,1.156750940001217,4.734959722657472,-1.061534908523519,-0.7829109385381906
-5.923049765717703,-4.497228395364711,-3.782637117495542,-4.930029727519489,-0.5717699605301543,-0.2139872863180363,1.117006589521316,2.3018896066849197,7.332903935322812,0.2880867835048377,-2.3267985492665817,3.8253713785815577,3.690439188748368,-2.6432492214068644
-6.472584640959997,-4.725954195953605,-2.718965511819403,-1.3590110401954902,-2.4148034679906547,0.0759103895428062,2.2378539392771337,2.067804727450155,7.235300083933524,2.229740708494461,-5.107178876248222,2.928660219257253,7.227609241285575,-2.456932563725338
-3.648522809599101,-3.2633835577163737,-0.229386500346511,2.729821997945568,-3.122239779614909,-0.5823390087980806,0.3320817252207613,0.5796148385099399,3.775905158570666,5.5869789072421305,-2.951365217574457,3.845179126876179,6.128090108616045,-1.0504685601453534
1.7978043644431856,-0.5733515409047172,2.785703776102745,5.257806320954842,-0.7736484935978521,0.4473338329708495,-0.8115582918212755,0.468024388001171,1.3637583299530047,9.05989440816704,3.20385017095099,6.89521201751721,6.98418574236433,3.9025996907987928
8.028267653506807,2.131862072993151,6.929038224132838,5.001614975039534,1.8578952204592265,1.356693763148921,-1.2071287294262874,1.683722831254472,-0.7409127161330713,10.518572475065824,10.057519352629,10.40369645703273,5.814276520906376,7.495013367984585
9.125214277111493,3.582155985876369,6.8716660804486684,2.2358163768148387,2.9004053096539693,0.8599250659798616,-1.3692660427729204,1.444731650546898,-2.2658685756968686,8.594978195386862,12.561853175143844,11.772754768540349,2.7355338453611555,6.16082234432358
4.050592918071437,3.2763909276494623,2.1368300802534685,-1.5827810469815518,2.199771149462559,0.574322305116743,-0.1108210243001249,0.1345759642760488,-2.4035631832729223,3.963035755497789,7.911408512937158,9.396622102303372,1.6164514159805476,2.284915021212385
-0.8712736633693512,1.7630309918510925,-0.6881224387678949,-4.710459372958589,-0.9435150832364236,-0.3918690714452402,0.4946232072913913,-1.7208824054278562,-4.122556254868004,-0.960651274733756,-0.987807494757192,3.8978672830642793,-2.882825676460488,-2.755973979453797
-5.700053976794893,0.1483341847243053,-2.6653559876490074,-5.978183885514806,-2.835022269143816,-0.9076659757082832,0.8889134196040552,-4.63204695365786,-7.225438251181006,-3.794985828377442,-10.614949494543778,-2.319480294910555,-8.325793056051355,-5.873906045924534
-7.625046871221098,-0.7510405809587333,-2.547381156989198,-5.236762872348816,-2.1641712728474576,-0.4530547052674823,1.1946145924181624,-5.23008745842924,-8.202317995604835,-3.950209146079125,-13.71496259451959,-6.803286383361355,-8.864226922856243,-4.32325824440112
-4.188818358247862,-0.933631156704454,1.0157915246307712,-3.320707145956513,-0.5195044491316324,-0.6100324398085605,0.4622867410323814,-3.2940749205681867,-7.375560727835127,-2.8229464077793534,-8.799544525023737,-8.637589621470568,-6.436831803511845,-1.392609487759411
-2.217280528711888,-1.0514375805321965,1.4614291952237102,-1.6129243452706987,2.006000922325937,-0.6731175362078375,0.2102256115008432,-1.697798986544386,-6.206139986654271,-2.319437869137687,-3.0594449377552038,-8.677079894246056,-2.84734849178107,-1.028161374677242
-0.4434037765552598,-1.7613189694417564,-0.814681658093756,-1.3464591341972234,2.6257488888170246,-0.8362871957129809,-0.3470064802685002,0.3112114267293634,-4.0338597702914765,-3.1363648793220023,1.999681779112643,-8.453398615525561,2.163190908951059,-2.59655004225534
1.6933439028419186,-3.138380893595791,-0.7884101584836539,-2.907674242269838,1.1393155494203209,-0.8019319662741872,-0.916470266569741,0.9428055934819104,-3.2971108189252694,-4.376684828894822,3.983084139320368,-8.827300740960647,4.49811407161297,-4.08993014929266
1.5292554808756509,-4.586288171892996,0.5028229777182182,-5.534892624168602,-0.0150789661391715,-0.0530139847713749,-0.4841792955366924,-0.3547321365607838,-4.29532464709562,-4.706902513392361,1.952440342514304,-9.46932025033973,3.368921098194019,-3.121081409058238
1.3247251481656113,-5.25499916691579,2.803124996981382,-7.688799673546014,-1.4249819705306557,0.2186660651878235,-0.2806646499564555,-0.8899696171737042,-4.2539003137753975,-3.764968340961192,0.9961544851122436,-9.375530679021274,2.187104984070349,0.8608483846592098
0.7927374835558554,-4.608015486722501,6.923139047759631,-7.945470506794392,-2.240965494769062,0.3234047656267601,0.2404339977572037,-1.1684803778836748,-3.712193307967318,-2.3975382304147117,1.687159700139571,-7.783487771985886,0.2760075634819552,5.558172312567403
-0.1064103608352916,-2.7342889363309824,7.656813075420676,-5.849702018918517,-1.7061712497637973,0.0877399206846286,0.4737691176763122,-1.3253960846863235,-2.7239470798660856,-1.6120931111666437,1.6211887718540594,-4.726349195435801,-1.63879156138194,6.861953992230198
0.3003081946946099,-0.2448020208293799,4.811057307309077,-2.16358981686424,-0.872600968960271,-0.1697338138920056,-0.2453870611469734,-0.9327698793690792,-0.8371508037291526,-1.4622683955152502,1.0662527682106029,-0.9581078572412962,-1.6003085100286638,3.8678273388482416
2.0751235045872,2.1097578643350303,3.464009735146272,1.6192445738557415,0.8061255706455375,1.096329310394458,-0.3782888228215325,-0.5336536120186323,1.2430689475454824,-1.0692345494138058,1.183274203817376,2.5045164671579867,-0.0449874961538663,0.7401483736256217
3.9266296523878794,3.823084938772234,2.604011526979399,4.1291533636407305,3.434775912191636,2.556485971386026,-0.4459256977064857,-0.0010648905270656,3.6620310314883455,0.2969722531261141,0.4879088215942431,4.847955823383952,1.9218221499288768,-1.518541473645122
3.632854996319241,4.791563044832667,2.341102872851686,4.816663205726849,4.390504396353068,2.774201034594036,-0.2776124161717804,0.0625375281604552,4.747566785335093,2.278625870279102,0.0395398642895966,5.737283138403646,3.2568746684526904,-1.986616889546644
0.4728009983333023,5.18094861208156,3.526359141079354,4.14417948016977,2.3818010817652144,1.6852422105760816,0.5215754563410067,-0.4652043889630028,4.233276063015304,3.6410732550703866,-0.4446929149077087,5.376941943222652,1.9024726376918828,-0.9638831463720262
-2.4259506483348083,5.12867374508606,3.1004365374360825,3.217194818348169,-0.3737684663681293,-1.041051614398058,-0.0437001315691266,-1.350009260487207,4.048301641143909,3.400031715703534,-2.39523185768758,4.379128691699112,-1.0736701804015298,-1.1060585360873307
-4.320282513224326,4.544958899856745,1.2181843839197406,3.0311978932316244,-3.709931792523238,-3.784770185717557,-0.8010595187547265,-2.800837299289947,3.77652393852014,1.7084433000503694,-3.801345009135413,3.474780615668166,-3.4816465565692285,-1.9046137476723533
-3.683958850811431,3.226423135532446,0.5009379214887821,3.712495626068918,-4.988191441785783,-3.855071275529341,-0.599679202764006,-3.149347555342098,3.3700103424398,-0.3341861744909309,-3.3483427844379263,3.165023037879891,-4.338691976332629,-1.7739957195756164
-0.1759755052311795,1.2132825136858898,0.4871140762741398,4.269397820503784,-2.222409931901232,-1.6219157786549094,-0.089095244061552,-2.2828495103341924,3.115824674333896,-1.658977712439949,-0.3270724164484185,3.4750664069770067,-2.112834487686724,-0.3057482389285252
0.8009483605791483,-0.9822031434137024,0.1601912283023915,3.20310576840388,0.1653084696227675,0.7555932407485179,1.5129992414223226,-1.920254883235644,0.6127659577814313,-1.9989855625559123,4.155822720779998,3.941305107591205,1.496458148914734,1.2999311207056494
0.7064454906620337,-2.62388089118128,-0.1046939625535179,-0.2614364101890274,1.9782042270105669,2.807903706688504,2.7933767236237736,-1.7154724503090308,-4.255200952224108,-1.826589606563044,8.69951264735477,3.844388022001354,4.434403010420915,2.7785711591698807
0.2033319307818827,-3.3628372679363494,-0.7725765999634617,-5.220997766966441,2.5232657976014004,2.8160009341151437,2.041920947407542,-2.125917239454836,-6.551717981433087,-1.737284368253178,9.305709459306472,2.5891873511272934,5.325377971605831,2.5270786926953885
-1.0052035721561494,-3.626456457254619,-1.9839771419892347,-9.341993820485136,1.0259443328057147,0.7735245703707558,0.11034338964787,-3.4786600862494987,-6.495754379694147,-1.9992556509089925,5.209754042660058,0.0683909296407989,3.742455913723613,0.6618095868866926
0.3958762800002088,-4.2876330454163,-2.2613208869384125,-10.36816671043836,0.2474672489687794,-0.1563047021358034,-1.300504746700902,-4.313524038429324,-5.781656028645189,-2.602739138679645,-0.6897062540721624,-3.166432196186406,-0.1457632560264904,-0.4413778432085313
1.434348241087999,-5.805558354429088,-1.6459578385165023,-7.806095326485504,-0.4463877520567618,-0.9092783083429512,-1.8772593930219277,-4.77924257543704,-3.3282368182163062,-3.50483305246879,-8.65168404745753,-6.057595948621319,-4.802199497049871,-2.1837942918342867
1.350346117992989,-7.637647146910126,-1.2523434947358325,-3.3778400436590843,-1.0299783112875844,-1.441630222549474,-1.2201772424805095,-4.495415905306082,-2.0502132594917435,-4.629399707022259,-11.707428927054234,-7.504008305537724,-6.354038929068141,-2.805936403002632
1.0592435595227352,-8.54269172042352,-0.8104300557582186,0.2398849044706708,-1.049402642118222,-0.7784269761600799,0.1809606646914268,-3.1128383897339957,-2.1167009070259746,-5.625496419330965,-7.675786370948986,-6.910156878533115,-4.434639572796663,-1.4088723190170036
-1.1218515245957523,-7.536597739135004,-0.5384876368429726,1.412929251423023,-1.1984327240673904,-0.9588989232915964,0.0135965189589137,-0.7767954490402593,-0.5559961831328942,-5.804999551574241,-3.5857902245527145,-4.489025727524165,-0.7242320456231239,-0.8456134174787231
-2.0735873736557093,-4.618823104004058,-0.6197351998397894,0.6456016591539253,-0.1425414355502008,-0.7553182296220815,-0.6092259570779459,2.796871912397144,2.0728010402177595,-4.537899555844781,2.628001057841109,-1.1227475277390937,3.77341820223996,1.470496031678572
-1.4260716061007983,-0.6651208618806663,-0.8896059943605555,-0.0965994448983025,1.5610351804829936,0.2860160775201832,-0.6919145305915089,4.93867429798744,3.513533600813797,-1.83682743296184,6.515034883727468,2.110117383911721,5.163250543002257,3.526426282852692
-1.2684067917182944,3.239693598437512,-1.4845106680986324,0.8118312448756058,1.629454285055258,0.5444189512122716,-0.3857904508083075,5.511179170096168,4.041581978354123,1.4435849831386278,3.381905982657715,4.410782500838209,2.0132020889636246,2.044044631348088
0.648059481250346,6.269693192975247,-1.8754503801133229,3.2960271517828303,1.0478124814509244,0.7493257507364665,0.9685364505085142,5.065000273438682,3.9874438882168586,4.056424947462574,1.9820400352101275,5.465549131523886,-0.9335478816832676,1.1085519825287804
1.8180937971862317,7.796933183821942,-2.048002355154671,5.760697670305333,-0.6316377155629715,0.5799295103933814,2.0088728579008506,2.842081849010606,2.8830945954697538,5.117141019452049,0.563652048263902,5.357155964182311,-2.7926376768223715,-1.2685900586763044
1.2138766838930437,7.246672341615444,-2.7332892578464727,6.536049173773343,-2.773253274837177,-0.078786814341132,1.609354921877167,1.3285594419953122,2.484416726967071,4.562836883921733,-1.7715756521149904,4.356622608228847,-2.643671725624434,-3.66158523299197
1.3476369249440308,4.445289347445311,-3.856107026178808,5.276821858651317,-2.133583503456313,-0.0267683232444895,0.2107995671182323,0.496245363385624,2.8106659011999526,3.046971267162469,-0.2150625380117818,2.7684488337048805,0.7190590676489664,-1.920887802622684
0.4271176380727886,0.3038718803809459,-5.918305218938586,3.15333472655864,0.2352190374788517,0.4471308631705428,-1.5075679055119788,-0.6966549263052346,1.9644213867874512,1.513259860980952,0.7796029641261091,0.8741453095645397,2.6543873808693204,-0.3720761403467246
0.1018223708860134,-3.057921150314968,-9.133237195015251,1.7869456130009524,2.635143577321509,0.6408073090284057,-3.090522665179453,-1.7103755353174837,0.2327702631855105,0.8271103591213418,0.9277241434704856,-1.0738077947884648,2.630597519491832,1.5502558088233849
0.8280882647623955,-3.400350537059176,-10.493821418610816,1.925297299251234,3.7007252357301113,0.3150126974825964,-3.178728228979548,-2.1287814774140417,-0.4887751950511634,1.548798761759521,1.8778085404383775,-2.8521954265957845,1.1888179869499034,3.017193740503312
0.8729797466891668,-0.1310641750564301,-9.949644538413253,2.9576449561518103,2.254985423019052,-0.4224844772318028,-1.4917295552199543,-1.8949583586832648,-0.3731593502047488,3.6861466021920393,1.2963998098222915,-4.265328916790978,-1.431386094440504,1.4282489561183502
0.9199762786990334,4.750507038430953,-8.862333459804503,3.5578152858664183,-0.7794015261781514,-0.9855873402441098,0.1754015635927415,-0.7515511894666009,1.0480033340791564,6.442277606704721,-0.0181968618999076,-5.1419048534229645,-1.913214730071571,0.1640237208024737
-0.1106821593460044,7.665752534620886,-6.508909980688985,2.794875467223399,-2.9577117572419307,-0.7609677673491972,2.4338233503540594,1.5020432396935248,4.269632112075274,8.31799881109881,-0.8123087838239221,-5.344051926477611,-1.5008192619852827,-0.814232315249921
-1.2557989334262083,5.972458496299495,-4.935708385660912,0.7775674827481964,-2.5084064027473283,0.2376759557118029,3.814729149604521,3.145329485249646,5.200394309117054,7.862132431913793,-1.3187552578121553,-4.803470772274444,-0.4963659565534628,-1.234688585091397
-1.602871296960291,0.0909912831065611,-4.320960504274199,-1.5812389040541248,-0.7627607463539301,0.8924366441099975,2.705934323362424,4.190491754453398,3.8249687078182713,4.739109933361945,-1.4350860948382125,-3.577281752575246,0.8858673033377813,-0.4219588086317006
-2.585916315769357,-6.563020512644819,-3.346828501158154,-3.3217855094654354,0.4387887849779627,0.2632172108447541,1.5023567837931735,4.528294150921802,1.8347266148782069,0.2275331368638262,-1.4453178187134084,-1.8889893071361497,-0.3890125241699173,-0.9757961620998896
-3.1904762183202737,-9.949892551189986,-2.5205383499737635,-4.019940026518807,0.4201860051908854,-0.9708896576155216,-0.4858272497126147,3.680665636703796,-1.730790552572355,-3.4802197906501107,-2.350188949239824,-0.1091728187521638,-1.0498994671178012,-2.218722798029597
-2.778126557533248,-8.288178186540318,-0.723698561160388,-3.7891602287905286,-0.5879939554002716,-1.844690890944044,-2.335700656078852,3.242249852899944,-2.845568770522186,-4.78857673931422,-2.892056751597024,1.3558677105144348,-0.8469070429095659,-2.700552503680332
-1.7795677056007144,-3.196356397048035,2.231285968411691,-2.874076547134077,-1.153319760216368,-1.6146407223182964,-2.1142926637051325,3.0744202482005014,-1.1688625431876003,-3.810492349059608,-1.719842994128906,2.2450932618084,-1.2867239221403843,-2.3448628589095435
0.78136127476962,1.74003010800374,6.32763334328479,-1.3343528609732545,-0.1666588688492261,0.0231659676022699,-1.0367399151821564,3.4491720103510213,0.0484080780538089,-2.1294525045033907,0.1655693420214788,2.5885748899526675,0.2931521943654055,-0.0579158291682335
4.150997445553233,3.7234004442154927,11.961247535496364,0.8541616552833204,1.2960259678567971,1.224234521677268,0.5038508568758462,4.741120386291853,1.7520230892025666,-1.4420043352604672,3.752565904536256,2.685537956445927,0.2061785110498298,2.9232962705388545
5.016237044515179,2.597096823408515,14.456845414802135,3.4267844332187103,1.572560375570382,1.1510259580346238,1.5142415435202268,4.980949743490598,2.14400028472284,-2.279717885324473,5.9962743415184745,2.883563077338117,-0.7365287097518132,4.04721043821611
3.0721314324506945,0.485256629491575,13.562908352661871,5.651195014695853,0.7529136738983742,0.7252854960921457,1.0374123877382877,4.249592780641271,0.6817060560203456,-3.840710657585341,4.062935048121748,3.3092560877252897,0.7127660007281207,3.306367632301164
0.6103298977982099,-0.1953961428263211,12.078605321430992,6.661863755970386,-0.1498419321336805,0.5994967576573577,-0.2822118675414992,3.623244866457717,0.130729458766628,-4.882026043615274,1.3309931395926398,3.7815268281241545,1.5477922973171276,1.8167594874934647
-2.262563164412879,1.4277579721789464,8.854303524248689,6.122293920895747,-0.4321442691630316,2.4060459269500725,-1.3196391399390568,2.723214621308931,0.0050034870097554,-4.739640544324047,-3.0816489933020077,3.99947984054428,5.016388248836783,0.6039200606401202
-3.143862642930437,4.359774438729174,7.89582199195407,4.625239501832461,0.1047332153390818,4.347039985380566,-1.2856777178282577,2.2773475459241808,-0.339067921570146,-3.646669372026549,-5.838319512393751,3.843700345660197,7.635121865226013,0.1871719089669491
-1.4293346789723382,6.848008837415944,9.734068189608978,3.370165699003643,0.4663792769059837,3.678973347127842,-0.0873321502483996,2.450430771073603,-0.4935134434456037,-2.3248868330236863,-3.254856212244605,3.5152770232755275,4.512030947388829,0.2320293727879331
-0.4979211942237318,7.766221414011971,9.60893293912766,3.273892301254582,-0.1012851273685729,1.131329445934946,0.945009954583222,1.4588107520549256,-1.4154942395239418,-1.412725256239963,-0.5244098527461534,3.3850038940102163,0.9947632992120152,-0.1068976149935484
-0.1837313017095049,7.203967689814081,8.404937316635792,4.234862184241556,-1.1034484349914044,-3.711921805165201,1.120006284168228,-0.6002108985836582,-3.1738921850706867,-1.1719144048163257,2.557774881366432,3.692977838844095,-6.069215067082734,-1.741437097048529
-0.2271048043206291,6.082100800502509,6.732995932212389,5.211746200339042,-1.4471321609455994,-7.1235961468379685,0.6676054835651648,-1.680530734317356,-3.5587772970181484,-1.4544403528972325,4.085438350973767,4.361308518678755,-11.261765904781887,-2.919684327164898
-0.482812827452213,5.348467162492158,3.84855311760048,5.080239158657156,-0.5934289175575709,-5.834206092456817,-0.3541593978797823,-2.009200509468501,-2.6319061436820888,-1.7488529935954906,1.2367101109009504,5.062730978501884,-7.88139599592323,-2.677353524869256
0.9507778884069226,5.367090164007863,2.187159238343886,3.5314370035020435,0.6553410915738253,-3.3392197246989226,-0.922229048584992,-1.723938200043165,-0.8407557611211585,-1.3411056556158982,-0.6967424434651,5.454445976363498,-4.231104313193568,-2.473140269045333
3.76294856963066,5.748835303610749,1.7870579001776803,1.2401394502759633,1.784391716022653,-0.3104403877327045,-0.983050778037359,-0.3895247876190513,2.3506296625548524,0.2681857973004788,-1.6178382033064536,5.367499238688842,2.4275705992284258,-1.009328312982653
5.122328091989252,5.584232118984058,0.9090331171780852,-0.7855482791001833,1.958621245664257,1.82923528568296,-0.71259776034525,0.4422778991714983,4.35821353760655,2.8522104132249737,-1.559393092021582,4.822617463400311,8.06948117930746,0.8129229715648353
3.942959515679404,3.965810784060878,0.0453720661748787,-2.0287335013336296,1.2073388817076565,1.1922104917988765,-0.1194050346445877,0.8108577481736883,5.093226940420203,5.37315298398542,0.2028243807011732,3.9279237907401736,5.17351649617482,1.1318132937499277
0.5074488342333396,0.6206847554716148,-1.5053376366100848,-2.7234553649969198,0.2300156756404726,0.6834248973624873,0.2822906208255439,1.7688509263640964,5.25926136452522,6.6504311650556325,0.6044266347589595,2.8174905848613925,2.5805063691372254,1.659527767282814
-4.613582744721788,-3.692247075111208,-4.0210261566682535,-3.4050445720878564,-1.345318125588776,1.4885356695267422,0.7214704996365967,3.0314566255259465,4.177334051130091,6.36279556022776,0.3006254173002817,1.70627588206359,-0.8917327447114571,1.2795375965082665
-7.070127041004255,-7.397181575379207,-5.3448522987744616,-4.272898317342346,-2.420087254344447,1.957709391383856,0.6358257990137299,3.289974205145629,3.2659126867092336,5.442121889647176,-0.278963261680399,0.9420854272634748,-4.570570042505247,-0.5450660949455419
-5.189074332849797,-8.965225713687516,-5.587587989376758,-4.994746377534717,-2.230571804233725,2.1214305154993056,0.0545781345758335,2.544589996505298,2.4771956894717,5.324612189856804,-0.8456111874493515,0.8467205528892023,-2.448426698648382,-1.2185994081711933
-2.118102911223126,-7.921794607102189,-5.699524597606235,-5.090865646154107,-1.2155453644692733,2.765138387695844,0.0983412232192173,1.5886653158725297,2.2003398749424723,6.611371351887829,0.251652249893491,1.3366322905726022,0.0017109215283309,-0.0898300907709298
1.5546836635709054,-5.25220811687522,-5.24893695896774,-4.475622493852622,1.2233178865335743,2.61706976941925,0.1628587370118314,0.1234687768828621,2.815119792664662,8.372691376706577,1.0571293274487372,1.6662286737694103,1.9397514584502813,2.392073452721037
3.5167528653204854,-2.8314404827184845,-5.13899437919443,-3.619059553035264,3.418334610406237,2.144424526325697,0.3444478612942117,-0.9432183457787692,2.368899282601048,8.824353643716893,1.0597274626833575,0.7385098907033552,3.6536916505547583,4.865543533085398
2.217434011092999,-2.235461458485247,-5.488310304979835,-3.180796841380573,3.061995991673073,1.7280949330055462,0.7023124569168109,-1.4655999270454445,0.9843397854044278,6.836266387403803,1.279486019970932,-2.0149994011772066,2.347826728290729,4.863424278170831
0.6565093462455653,-3.767268012852444,-4.598399133570388,-3.458334173511528,1.3464067391944647,-0.3972557405749082,-0.0301166874747284,-2.8551688871361023,-1.436304092101076,2.935654016345413,-0.4619583919672747,-5.860238741773159,-0.2429705288725743,0.6245204830240418
-0.294868310014254,-6.364302683241846,-2.595774612136765,-4.144450247925736,-1.2278038968839158,-3.015457700958857,-0.7946167795334167,-4.932955247943992,-5.363840071369466,-1.0630602977187174,-1.7874366002319877,-8.947728699174913,-2.5104806165439704,-5.341414201451903
-0.907851159116992,-8.39512390582706,-1.8619964586805855,-4.605920378642377,-3.534399340405071,-4.143599824201981,-0.8410006762689659,-5.975666514810811,-6.870197334233462,-3.4232145747216656,-1.239548926521531,-9.586836744546703,-3.4676343095633477,-8.154910247659423
-0.4971405623957727,-8.740757948288763,-2.242988240801828,-4.447641455042373,-3.1734447363511427,-3.756182095524517,-0.5514133918503357,-6.09339860205983,-5.841369041726079,-3.649049766163344,-1.1302482477389018,-7.649830669179899,-2.5513496779054106,-6.225377084080503
0.5552764010118306,-7.426604341777267,-3.487191945794032,-3.882270265618143,-1.14135216916172,-2.4760923315756345,0.4848679736126755,-5.62752720655824,-4.634302882909517,-2.5736377465650904,-0.139958834217455,-4.817812307946351,-0.6727223630687027,-0.8986310534585562
0.9511094146461894,-5.453746117749443,-6.155247325831392,-3.574817901744733,0.4123158771950773,-1.627137768647707,1.2218065664735955,-4.183960051595909,-2.3454896330732136,-1.5163047498977598,0.4681029233505978,-3.305620160861832,1.2785390170663016,4.639508218552191
0.9875532013462875,-4.037299956675302,-6.586796553479895,-4.051832577434983,1.3072945889517538,-1.4532413494506962,1.0511222754932987,-3.609582037491278,-1.4583882492053808,-1.341812883439072,-0.080124382415234,-4.092714637289532,2.1417438280269794,6.129400029057471
0.3887526414793356,-3.80046200994714,-4.647116116734396,-5.13095224507256,1.1987217538857784,-1.0613485113632533,0.7656688381246453,-3.97063262975218,-2.369758170050805,-2.085394925133756,-0.3393638751593534,-6.178261211040624,1.2564246221475064,2.7216616127585223
-1.0267676006196078,-4.416656044314628,-2.251216388568105,-5.86263392992085,-0.4008375227724609,0.177448763145817,-0.0461186803957902,-4.282437175267642,-2.66387518914816,-3.171836684017329,-0.532118981442577,-7.455043062935104,-0.2686472687602063,-1.050048979359098
-2.0466140742244043,-4.858558659139966,1.4824277154465253,-5.12528203830804,-0.5781045135610091,3.800770349773268,-0.6811032211407309,-4.981777964443558,-2.9740036495194717,-3.859902018408441,-0.2869810266356116,-6.367681194638049,-1.8676085886690397,-2.9390414369661086
-2.193588506699485,-4.056876559734405,2.8080122219278665,-2.507923273423902,0.3488866937914493,6.336012521327204,-0.8185189023011337,-5.096229091142308,-3.117099493120184,-3.6288101368916585,0.1031992700055608,-2.9626779078827106,-2.481327205509755,-2.710917664887205
-0.8781391957754265,-1.5872012968918554,1.3113248001203346,1.1790363657191951,0.4871210553352726,4.725593156487991,-1.3211794253093334,-4.5014226043861685,-2.7755648326648634,-2.448229163806179,0.6936802579723664,1.332099398183562,-0.7588335677305313,0.0032004039976786
1.660555754977834,1.9782073303514665,-0.4956293858978936,4.2427744607638544,1.4572838693425552,1.7937991905129145,-1.5897741221335395,-3.770336373023941,-2.3032090307346,-0.8827590940011767,2.091159598760189,4.725974499365375,2.181682580640332,2.409540929576075
4.332684992198654,5.2583494832857305,-3.6015545544583394,5.172298248819157,0.983871002980492,-3.72327581349716,-2.125199499495852,-2.63811432899107,-1.533056929399739,0.1322920325358083,3.483377225680043,5.978533986137744,5.211957303199664,3.1845268468138923
5.058073734406317,6.744059921368015,-5.0348374143121015,3.695395689329249,-0.583406084597268,-7.420968602995121,-2.306047047109665,-2.0935953484357888,-1.12413160598033,-0.1148283411836406,3.5996612334192686,4.760319443510149,5.782484840731924,2.8730968471610026
3.1373058374100427,5.644168824488085,-4.367340943172274,0.9998348491102416,-0.8537843049800589,-4.921278821206068,-1.5042176675257055,-2.2426401934953555,-1.1337531400618686,-1.4980198777177876,2.163917665430642,1.6133596154651446,2.815714516164197,1.6312205274525802
-0.2529354227812553,2.4014379072960192,-3.468390817658979,-1.117077062548601,-1.4438088946388368,-1.724968734424258,-0.4993787191962696,-1.865883092732364,-1.2492918376803102,-2.9946167195928446,-0.5170274016780914,-2.244477354169444,-1.1421986026137363,-0.2778010739243995
-4.150913573600051,-1.4894270715848723,-1.497462167278243,-1.533792901783109,-1.0849703761895726,2.6083435520543348,1.4837814600098045,-1.163607512184463,-1.6485900522754833,-3.402402985277268,-3.396311230026485,-5.304113416128066,-5.278234288388567,-1.820079114075848
-5.184995948243752,-4.2959474796483565,-0.1638829648890661,-0.4909586993474324,0.4060631021723738,5.807103536410142,3.0571640408227845,0.1325334872036829,-1.2119722399867905,-2.324456016994489,-3.888376870746338,-6.417962940263353,-6.065498965892716,-1.937109254293489
-2.8316730301133948,-4.977783943087478,0.3306905486603185,0.8543801960896147,1.311252824656522,4.058490896443311,3.4345964931777764,2.2733825716311777,0.1595116136474917,-0.5437650728789212,-2.2472135065990413,-5.445165644807799,-2.686653126332476,-1.374499212861365
-0.6498403987192178,-3.629318710858274,0.0039287975540211,1.535623598134987,2.2141828432359647,2.1598435984420297,4.2138443239947785,3.342463033537335,1.1632755318015022,0.6174622542974308,-1.3076319717848972,-3.33961593641392,-0.1584947404582659,-1.184145541379423
1.0532019540662014,-1.2089160389589375,-1.6985652958201916,1.496299441565376,2.5321948492214004,0.5229302302628118,4.348738449895277,3.3516943595780084,2.0278287027684687,0.4177617667546842,-1.1479507081182194,-1.4454004190570655,2.419797476142799,-2.113456146680739
