AF3,F7,F3,FC5,T7,P7,O1,O2,P8,T8,FC6,F4,F8,AF4
-0.2085235567321252,2.6874587346631627,-15.751908866198736,-10.552027804579032,-5.891700119208085,-2.7074232551323902,-6.499271032709041,-6.191870953426106,-6.898341302054069,-2.978920297898957,-4.716356150312191,-8.253289559320327,-17.913664848049493,-16.484900696997112
0.813786452649302,4.960499610719834,-17.86506257109366,-14.871246442294078,-11.06387999250319,-7.6234759203504066,-10.794428833167894,-5.0705294023410765,-6.984923681487169,-3.776314319089465,-6.074796723059295,-10.653809152105923,-20.718240637139427,-20.602067580680345
2.2992530319110296,6.799887893919606,-18.822389850710877,-21.97485307551031,-18.32818256370129,-13.701915971052909,-18.359521971364323,-5.001063781198905,-7.2228855082436,-6.825998750947637,-12.144446346355508,-14.74045253059251,-26.38127573532025,-26.33856065292483
3.1167803274955417,5.499058038797971,-19.579370025525805,-29.677956529977955,-20.91222372185306,-18.0962965184211,-18.772700324177208,-6.085174735650455,-8.354653154350649,-11.85525012790108,-19.96437512783985,-19.041916194687943,-34.06248189494538,-32.371902037302135
3.18832762357636,3.943999637452909,-19.585231799436155,-35.214216865906934,-18.17072598232827,-18.525564520790866,-11.632469993461935,-8.204124652596402,-11.464587199045846,-17.591388300861894,-26.011936757056343,-22.157018948517315,-41.85655246119277,-37.00236823037898
1.7712696665169134,0.1441401702821666,-18.883758060000357,-37.07265399788229,-15.405150663087843,-15.04757294006358,-4.916010950542069,-11.10349547331465,-17.033696588183762,-22.823092606910105,-28.93377715999395,-23.900136410095115,-47.98413148477309,-39.23025069542626
-1.4050950719721698,-5.42846062575585,-17.432867968635115,-35.78202437767612,-10.934311621747977,-10.088478956536154,3.666212799633302,-14.060065566279851,-23.84828597060006,-26.910609468670536,-29.94290932030896,-24.8683931060107,-51.541843365143365,-39.08117875094153
-3.982918805167222,-7.767219597666035,-14.459441136753515,-33.029501401691235,-8.626961877052517,-6.517526685786154,7.241206751693367,-15.510558098449287,-28.886000750067893,-29.29648263061735,-30.555689624506897,-24.949977139878275,-52.21462684358656,-36.91338303574131
-5.545880161145134,-8.297435235295538,-9.846854919269552,-29.97498293220699,-9.381107283913554,-5.345982118332361,4.186312867784015,-13.446993656000105,-28.783830537735064,-28.943711337103046,-30.179834507228016,-22.65468709934696,-49.56529441515957,-32.5677471031485
-5.336937817703446,-8.359027141949428,-4.371845298626846,-26.29662515360996,-7.109194694411943,-5.08345837117964,6.952195515919631,-6.817536210401931,-22.16928858259883,-24.82093043766643,-26.326794815341213,-16.39526942430438,-43.0143788758604,-25.455341476512185
-3.62989829197101,-7.073654489548928,2.171128892566403,-20.79389791813117,-2.705546928810058,-3.353441630673494,14.070790425744876,3.0178371262765804,-11.108111755286066,-17.243422988013606,-17.45604863760764,-6.656634857982672,-32.73903075389484,-15.644441137842382
-1.2843807795278237,-4.741789047794046,6.583709228396881,-12.928065526338724,0.8864216328865738,0.7120973070010415,17.738268290242534,12.285148389376756,-0.2503577444851093,-8.56839455343161,-5.503489078862877,3.283827122125352,-20.40924591884573,-4.757151926336388
-0.2739620874900883,-2.919974269331846,8.441218163969246,-3.7925587417366975,4.521362740740021,5.542885655008792,19.73478422447057,16.83328023398212,6.066647650140794,-2.0484366457037417,4.81534454606312,9.268092015675116,-8.550504754499572,4.572623666083214
0.9537642512554956,1.8776907241363472,10.448206385069213,4.49637210963127,6.526498107010742,8.553234603313186,15.842025039320625,14.988070746472689,6.754675298542363,0.5588089269104461,9.687549500891494,9.426549705668352,1.2688310125515443,10.555161857836108
4.093715801201516,9.720350832813311,11.752412054655244,10.513505481975503,6.34962258247927,8.556921136816246,4.382732093894361,8.96590718645798,4.680340048450045,0.56052920909279,9.525705607603149,5.816480037249693,9.736810551043105,13.809235185309014
4.417061752249607,11.350225499121317,13.264411117798325,14.739810248802325,7.101180508363586,6.83565132489462,-1.2254633711516738,3.4799427362656026,4.481274836993588,1.4618118417168375,8.713643017447282,2.9544145495016174,19.081297103817565,17.012537735592115
3.3691391604475727,8.202092274836703,15.33158550085666,19.0188477220222,8.356099649317414,5.821272418774388,-1.6604032534909412,2.413848209061701,9.077816529507809,6.126816212748452,11.850486863338348,4.3913179179839865,30.727347352828595,22.64955961939313
4.122391911311598,6.329936586282996,17.17818523648482,24.608476311723795,9.749341143100136,6.693951155550359,-2.5955328700606426,6.111354277029399,17.4960154389556,14.255968315531348,19.81410225359905,10.161634107779626,43.4413835943224,30.682243112557074
2.339880568144826,1.935971282442026,19.13891140804737,30.60975794547689,11.84870875765391,8.275833451863498,-1.3117734003713002,11.391654954927075,25.57811518011881,22.34214223741358,29.06556371694375,17.080189288506805,53.79243490810882,38.22110964854011
0.416042562172009,-0.5473047728662579,19.916824018984357,34.38412358564189,12.230016800348352,8.315998097483433,-2.8156712771639283,14.16489877741088,28.95456307445853,26.25817943214492,34.61934560603625,21.38152941946288,58.66013065589526,41.64007571876554
0.049834715318301,0.4733727596849162,19.3675172665112,33.81257480394367,10.845544738593915,5.8768673785064856,-7.695695414205273,12.439887370348169,26.058746740997567,24.441691595254685,33.95604311308418,21.383942314410472,57.63927775716864,39.46929044899926
-3.1514288826326453,-3.6448777486736335,17.784957443283897,29.465576534116995,9.366291391662363,2.4234288132824737,-9.742068337172872,7.389858346235282,19.118307835803527,19.13089859252553,28.665477432130128,18.18414967969436,53.32375153115846,33.674165458448805
-4.8524470021448325,-8.172025898356225,14.768342805750706,24.63662804130967,7.2826027463877345,0.499101824803013,-9.931668781862962,1.963572003824105,12.611948155553218,14.67338276962614,22.86665057906404,14.265928770321397,49.36005746349379,28.239513518876294
-3.034301039164495,-7.908793428098716,13.418271953588762,22.965078733942494,6.3694258662403485,1.2667962727636954,-9.107967266961598,-1.451348697492378,10.364769260771034,14.264036274246052,20.095579679560128,11.530784621477984,47.96739160046297,26.202305656866688
-1.206141104205137,-5.429426797301601,13.901187732292744,25.518228399815204,6.985699641009626,3.3242248973444504,-6.198694632066001,-2.351804708105135,13.1806046043618,17.66985233173108,21.128391049299506,10.341936314813536,48.77517488573614,27.524002161477394
0.8432937903532128,-0.5073980095185767,12.767800159775575,29.793097788965003,5.710217927113976,3.966609940398076,-5.995902140315565,-1.730180246699792,18.4342060961172,21.627116908705773,23.951985181905464,9.970180728141123,49.497228074527584,29.433841787996386
1.745700086502828,4.939542245411497,10.610007532732176,31.566473009153118,2.8703919906515774,1.7134059185835078,-8.66302087181527,-0.8247191106131417,21.815029277855405,22.44229325578877,25.366414982896924,9.625494878814717,47.57968275428917,28.803400086851088
0.613997913835479,5.847537461516949,8.160350535119198,28.15058626691997,1.1703014796931266,-2.26679980630189,-8.613340577862035,-0.2677670971586749,20.124739024584937,18.671481396661065,22.92788203695041,9.040274388833438,41.6193385057897,24.509999711410902
0.9410410458062018,4.127195791842617,4.871128227733621,20.43034890297877,0.1310721802230839,-5.118730672234658,-6.660997145215692,-0.078341108140723,13.348452938201865,11.88181525142028,16.22149381120625,8.284012786727732,31.93931098896576,17.943071279324652
0.9856459004668704,1.2771312513080535,2.9267414912961804,12.078516337250282,0.4853484010226746,-4.707758945058309,-1.5704445895450452,-0.024895405902825,4.612481731262228,5.171446930685782,7.045665556842003,7.29196213619025,20.373321149272115,11.522501495406622
0.5026688536470918,-2.4238927012218285,2.4725395585892023,6.695913349345108,2.809616496366594,-1.278811476119575,7.882034849944167,0.2103367866937446,-1.9717993423491151,0.878718908058552,-1.4770736059322118,5.767646218228983,9.532594193793322,6.75799494102419
0.8328481732181819,-3.116598187817704,0.944236010645945,5.292749335684015,3.435594213947777,3.0025560828640856,12.126193798226083,1.061015415715172,-4.041117037812228,-0.6675020940718106,-6.476417738187205,3.613980625850246,1.7879953523232004,3.539325571557299
-0.4686426022176445,-1.748879785796713,-1.2511730549999966,6.08598963731966,2.4981399519563867,5.999042247085175,11.184290282524314,2.9229271954131875,-2.278604202914547,-0.6264664524838359,-6.815265341444853,1.4101492159690636,-1.7355642064354804,1.0002193671657196
-1.1965991485673904,0.2417182936494301,-3.131288058593673,6.474750867387105,1.780852918889215,7.155194696851293,11.341237318687073,5.710839098519308,0.6076927140640613,-0.2080738911170137,-3.608642811712073,0.2805780778056892,-1.7025937553336163,-1.1968889688319884
-0.8820469050225863,3.068719918108912,-5.076065856097896,5.199271180128527,0.5409374153536539,7.346821624878448,10.626228346928654,8.529604400007123,2.211873533177592,0.1873210833025105,0.5444924440526258,1.0044810953622587,-0.2700740971888535,-2.540722798265488
-0.3001091203084258,4.349615232875278,-5.221111990414727,2.7902159798739845,0.1373829090858088,7.457969661282277,11.40753566172859,9.945047194083138,2.0351096705335365,0.5744719954370048,3.08572250245987,3.0210231686208786,0.0100622287785476,-2.53874296959415
1.058119901405544,3.136851357816976,-3.2967072550264853,0.2893724529985917,0.7933543332373998,7.303527498474203,14.570334777522332,8.855643188486031,1.171261321435889,0.4934262203260005,2.806090959437803,4.3696381632846055,-2.435106780072278,-1.6756237476837423
1.6406089926702356,1.4652449337790083,-3.0552148350891213,-2.0625960327342323,0.956934105209176,6.030503909190619,12.861198092772428,5.403464143852364,0.7520698415454721,-1.034118254536354,0.2748401886263316,3.029317227327692,-7.265677579743999,-1.249591041674284
1.7625913757424618,-0.6971358722567719,-4.22311774299214,-4.682351404281258,0.943007196075804,3.502017321787461,6.6125649864658245,1.2291893670128091,0.8908597919294046,-4.327139377035508,-2.639094351165218,-1.161687828784915,-12.275773686833976,-2.0915922271877214
0.2198203372599541,-3.613571390476812,-4.980059103295079,-7.418101129862664,-0.193735842460735,1.043523113180278,3.5895269066183366,-1.2458658473269557,1.071169358640482,-7.870655234793189,-3.811352725525968,-5.728120537009668,-14.54825353468302,-3.4794986432704498
-2.471044848227069,-5.128829035004745,-6.023685344513736,-9.019346200528604,-2.7964204922144664,0.4958376558598285,2.785381356901702,-0.2257373342424822,1.197371687758678,-8.829465543877012,-2.078149360429549,-7.067242162703707,-12.301529823721047,-3.563195841862913
-2.98967264007697,-5.137016238757816,-3.5035955603040305,-8.338764493725446,-4.777160714489262,2.3022372000964912,5.669198054110186,4.151723790274245,1.8079889299940015,-5.424875985016245,1.8702786187981089,-3.4403541278332934,-6.439607299531088,-1.175606289717849
-3.7650876771505737,-5.379646483939766,3.102267470120601,-6.11598937727638,-6.367640199897865,4.58326037832316,14.013263512266064,9.519938120962795,3.0812044172775828,0.8469886730211282,5.580852088085754,3.0615290101884627,-0.5776798275879296,2.616490397421079
-3.0651288586578627,-3.379724388676125,5.646850960937778,-5.067590412116965,-6.126864210575129,4.462484447521003,17.03166872662061,12.47283982565163,3.937247145161316,5.6606314352313145,6.290688686495543,7.690593272423365,1.04274573144387,4.897362146596134
-0.4387333647215258,-0.1187804079305684,4.638165305263501,-7.51036927821445,-3.4682860634417905,0.7571731829081045,14.991109021450448,10.748805973286498,2.7195399922152594,5.267232995150678,3.095099373205401,6.852793791002827,-3.219513161532258,3.214095586482366
-0.1629641653271487,1.1419877979668906,1.8707047317383,-12.54710863825986,-1.466834000996117,-4.428819665134392,11.995951319725297,4.99359972585718,-0.821674126753893,0.0860132970396954,-1.834524222345498,1.407804899409121,-10.429130839790536,-2.096928342672053
2.30255185892257,4.871725431080594,-4.444237497052789,-15.90088014771475,0.2893927802646155,-6.997169035141701,5.674307775640987,-1.3529441986492228,-4.352258892325652,-5.05181791782389,-4.3952993012842105,-3.691743865396384,-14.470039295529489,-7.75124212493591
4.567949718236428,6.81739671147656,-6.701744560403032,-13.276146085107971,0.5021237838625711,-4.287097706940555,1.1094527547985784,-4.300547955950661,-4.3535872678461125,-4.766683793303741,-1.6485141029270372,-3.504459558217449,-10.508380286554925,-9.918801099680165
3.551934327622178,4.487216300271271,-4.612042851018173,-4.561775175896772,-1.563613422224453,2.2316442435406985,-1.3636413442990816,-2.233170877836327,0.6632323071828554,2.076024300882368,5.500189630390173,2.482572753996493,0.6828301323193902,-7.28439944827704
4.673325753243312,5.168380158558659,-3.8983394990086806,5.126753180678592,-3.3467992302950877,7.542374797235237,-7.11011179481373,2.709829463128147,8.105404409038144,11.035306251245448,12.48501526760432,9.616164075137116,12.361885177153342,-2.1751052631073198
2.758530926693588,2.4949475728632646,-2.9317762801637044,9.020009841761777,-5.3485261647810844,6.787526220537048,-15.173206143391972,6.012863870549127,12.75613327156388,15.642415130774763,14.327984161690916,11.843846843412262,16.39286425891604,1.2236548492751784
-1.2121489099591876,-1.722582106360096,-3.64871414564206,4.112090946386251,-6.660812781910467,-0.803565823657777,-20.04271580900888,4.01716925777019,10.883967381659922,12.750839825786922,9.416842604606352,6.738746013742157,9.46503465404538,0.0616086156233479
-1.6779415012412664,-1.3747781049823486,-6.912851510390389,-6.247705898908763,-6.790828627496766,-11.02833223097615,-22.09657477683001,-3.4057315878475505,3.425660573128092,4.91953549410966,0.6436272507260812,-2.612033291154784,-4.168836222504329,-5.197959850819798
-3.381970843984522,-3.857811666500736,-8.510333891439437,-14.931600521004755,-6.4097778178938665,-17.709219408179464,-21.40945028510891,-12.745871302720564,-4.741614223588882,-2.1645666997812736,-7.052082774725836,-10.37504176871358,-15.92195259764247,-11.46804232617189
-3.0977882863358217,-4.07364560194287,-8.968696182285044,-16.625040658406455,-5.0738186642048815,-17.234805803329273,-16.613654616211328,-19.31714502441173,-8.890325839038685,-4.660618179352433,-10.564898263735378,-12.753596777935169,-19.494720326012818,-15.54760790198504
0.0175088133396612,-0.5496652337293,-8.765487332935068,-11.706427822921384,-2.883060035248382,-11.033925346793511,-12.6420812765872,-20.36038247801545,-8.228105440220553,-3.3910205990787405,-10.596960090356578,-10.579307245104747,-15.36047570576211,-16.261443301274454
0.3800870035617803,-0.2137096543239161,-7.107484626402036,-5.312056145134788,0.2395707308071359,-4.088291253966974,-9.260789658103157,-16.538926933923094,-6.044074212071557,-2.2641029206915784,-10.24368043054027,-7.812463287228707,-9.522840409635055,-14.692032752264154
-0.3833269115985777,-0.0352452215455077,-6.2372612667197815,-2.7240776306946337,2.6516321392803737,-0.838145165622068,-4.860677990397213,-10.996256489879478,-6.3266276391601854,-4.237139776634517,-11.804040870785895,-7.797059609096406,-8.01488195207676,-12.776735138695145
-2.292700583517657,-1.5319070164206066,-6.09157914445365,-5.222819656081436,4.220334980681153,-1.9001278991422772,-0.4646192603826611,-7.001070429573868,-10.169359276724585,-8.74993403655906,-14.850987086255394,-10.749731139144204,-12.13120537142552,-11.75918322153868
-4.514188787794692,-4.413126455594432,-5.321418115045969,-9.7583909570341,4.700997338714934,-4.185154281207046,2.1098169624805263,-6.00285768516183,-15.206755080245308,-12.725609241104635,-17.128348671059044,-14.28145913957114,-18.253219669620645,-11.680546759111724
-3.449563026537694,-3.661311008877626,-4.344936206905388,-12.195448727437784,3.5351534877074298,-4.032078772779981,2.5546605329347223,-7.236722754641072,-18.219763417485886,-13.693085393166248,-17.049171092894642,-15.79799009129372,-21.71514844219218,-11.883903561038546
-0.2605101670317037,-0.6313107443578726,-2.4894180999745488,-10.869642450833314,3.437028760417945,-0.4558783003229525,3.606662273479937,-8.692838596921433,-18.092124313848203,-11.855094228897094,-15.201256597641976,-14.328628275414008,-20.765746715791977,-11.70880134842466
3.53666662851183,3.9495524043957086,0.4575172048000626,-7.385069762371168,4.292691781677242,4.287347429782443,4.814566031738063,-8.473034886507222,-16.304790232809957,-9.39555964892708,-13.51637099966662,-10.54413423108458,-17.25672974745208,-10.779645600592945
5.760036920044181,7.040806127406082,1.9641590683583516,-4.478449651259719,4.359400324986232,7.06088480917929,6.516022852982911,-5.71794555787147,-14.870528428455168,-8.170466359597356,-13.191148300362771,-5.714505923316447,-14.162897903891412,-8.99080024579619
4.784785760815654,5.685295815528254,2.0606623623177858,-3.422533341386936,4.129082291511683,6.753764815395018,9.24255768920484,-0.8887170442713721,-14.134768717241409,-8.237346518525529,-13.57053852181302,-0.989232852039616,-12.79779992828972,-6.544058913575423
3.0390156136721456,3.028702876044439,1.625664555819136,-3.4112462632714724,3.3065852894968217,5.047365708598342,11.49000577411242,4.470801246392461,-12.719305685811154,-8.409022410207232,-13.021518311668668,2.625665219001772,-12.237512957514417,-4.032308124653351
1.6702194414191471,-0.2191835117889206,0.0658320705111038,-3.0375451202411297,1.6476011867013145,4.533225566661725,13.480720189355528,8.388000855738323,-9.450497333593407,-7.818452981614057,-10.727191372941096,4.300776511531981,-10.921717346360897,-2.2360583136596413
0.3957555366738965,-2.5000468566511094,-1.3115144906196896,-1.9301661281368665,0.5202286963948312,6.164237828923633,13.239793154885865,9.404464647645252,-5.06245084263853,-6.700242178154623,-7.5187008899313295,3.9280954630963008,-8.462477460631703,-1.572846044291289
-0.4327653200398384,-1.795686251905375,-2.462156576545372,-0.8671704921123826,-0.1342797378752745,8.468330133225567,10.292937613679731,7.391748788105651,-1.858218908358034,-5.7968501549705005,-5.031173273468005,2.6060676088146533,-5.997647348195823,-1.7104994496171215
-0.968679664514063,-0.913779057620026,-2.779539504773469,-0.6284526038605529,-1.8338182387929665,9.091753058956114,5.676485932415809,3.634085193347413,-1.7448470487647896,-5.401404107950034,-4.221509376587536,2.109551220233792,-5.132817617802912,-1.8961389025040225
-2.4074817511472,-0.6174833473355394,-1.8362925789762627,-1.1600533986263928,-4.3952959746159,7.017834659714218,-1.31759055058389,-0.0353150755624813,-4.672384673352262,-5.238733050294556,-4.762522283613534,3.3911458837714177,-6.67022579169228,-1.8144096653897763
-2.8011524995024364,-0.1696868613981046,-0.7497843137704184,-1.9354719218811391,-4.924605970566764,3.3589836328949767,-5.535791303662088,-2.453711710368836,-8.891288711641984,-5.141974016767462,-5.701577585221575,5.470811645251924,-10.072227437908436,-2.0527685345784707
-1.701310177771184,-0.8683474914015363,0.7810319444566917,-2.7652139573004177,-3.448259825894476,0.1822702110212013,-6.582352980269418,-3.706586108300516,-12.473451891638032,-5.433562993537405,-6.42536363668609,6.046688804395686,-13.719630674906805,-3.4885792185420943
-2.55821040501247,-2.69736287134527,0.3531153133491021,-3.8165454908984575,-1.6451523017705352,-1.3044716525734392,-8.121717471181116,-4.61198713923433,-14.424590369822855,-6.356653796117524,-6.866785832319485,3.5606976027219783,-15.592905497593488,-6.05940806520908
-3.0334989532689134,-3.8080293417232753,-2.4032117909525077,-4.801058022172187,1.1176856241700086,-1.5003860540405425,-8.891153480322098,-5.702513532319135,-14.525772891020557,-7.245101970882075,-6.9666981041421545,-1.1413696180439388,-14.14313238697807,-8.232242405439838
-2.4927193775674685,-3.513964638131493,-2.651582654695864,-4.581412543455095,1.8149314791883835,-1.6442612633629698,-10.545612553660986,-6.756393484242819,-12.630530287023571,-6.670643129216025,-6.307567527407239,-5.251788338627328,-9.167371273147436,-7.977781160299031
-1.9812326712358328,-1.9351277439627,-0.7657927491997801,-2.0834214121444106,0.0236426349538888,-2.5380394154967094,-13.545797572735092,-7.285111063225672,-8.61930790358841,-3.7680370077188474,-4.523643332826295,-6.315173819039424,-2.203116844391058,-4.54274613674034
1.5308960137553738,1.3899111907342647,2.2707592393137563,2.28500591308946,-0.3352657513655768,-4.016310196131679,-17.535590685879804,-7.317846463913672,-3.1218379617748218,0.5446387794635984,-2.0097906236080374,-4.344782949191754,4.119088689223508,0.658612219575772
5.152462084819768,4.266315049114979,7.484397076919799,6.434385033361282,0.0803752131323674,-5.431790782334164,-23.14760798887252,-7.503790575503044,2.098040305839284,3.899990867716608,0.0574601080941329,-1.767875259277896,7.6435698071272915,5.020957209221729
5.173348340641054,3.9428201748034937,8.415623509228887,8.19944656697097,0.6614803490709348,-6.383768099164376,-24.13756989422233,-8.352377377033115,4.993690082342564,4.319871448319399,0.6525801718965596,-1.223282071474458,8.080151690272489,6.797372546842015
2.9520260465784363,1.9296409399610053,4.6916296821414605,7.28243619191051,2.051457284804153,-6.864054930469068,-20.14476272178407,-9.46820890984509,4.77600450876943,1.8975854032377937,-0.0991585672041346,-3.229777141472282,6.984216904224757,6.339824649732234
-0.2687126934647807,0.7854655738888611,2.5513280363489343,5.482160502354499,2.797390403185596,-6.831566135258681,-11.79620696666452,-9.739855940324276,2.6169954721769715,-1.29639295135735,-0.9717102834412256,-5.843455730821686,6.237607672881979,5.401608789982088
-2.8677357657687983,0.9496017857227368,0.6580750984748077,4.858171120489762,2.915433437168925,-5.937357040775355,2.773174308668678,-8.437687804958497,0.6877715636533128,-2.999718887833183,-0.8105861066720008,-6.551180213490074,6.376080659381072,5.258405597810274
-2.4876983440776748,2.2318749227321177,0.1058309739382964,5.681310178846209,2.5475483724702093,-3.9112796785034543,8.949446316910233,-6.1223215183782935,0.3768415025358405,-2.5407894657474097,0.3243481796106358,-4.6038878354751365,6.317388090808843,5.5301284118553085
-0.1110924444864569,2.903336680727019,1.9792013438412188,6.290938830311349,1.3392724806335876,-1.249694837433592,6.132655905971365,-4.31855001796935,1.359303235432482,-1.0437589548837298,1.2348184628779515,-1.663959895360864,4.68806769494939,4.81440064934414
0.5628796647389556,0.2312573528445728,0.7375887497715968,4.980542549624542,-0.8266026388452274,0.6920204915785244,1.9304025686978843,-4.096891958107526,2.281992640183723,-0.1056402015983748,0.8140401828060027,-0.2568368659242903,1.3629327074472704,2.3730239790602736
-0.169304083890015,-4.129198637536314,-3.325094708053004,1.905439815453802,-4.123706369639842,0.6160285618349398,-7.23328094962007,-4.858934179641548,2.2158753570729943,-0.3846308658293216,-0.8463542361052769,-1.503886115730788,-2.332244891860542,-0.9262848994416296
-0.7600826599534618,-5.738052533208443,-4.743339352448916,-0.9821368536563116,-6.0884057906905,-1.4649704129596055,-8.598586813388389,-4.557546520381002,1.4239149508801814,-1.358007464404827,-2.597685879954272,-4.1598668538855685,-4.8676431528524535,-3.3636062506088886
-0.9191028094808408,-3.661595207410313,-4.292494493094716,-1.8648271962345864,-6.615351939948472,-3.876478813365424,-0.7834961942202487,-1.308012163969464,0.900451372605072,-2.148032068561609,-3.390764676434791,-5.699424548330623,-5.815079086597421,-3.959140360882984
0.6361662426834576,0.2150948032235269,-2.666594501687266,-0.8238652036184229,-6.536789825659398,-4.409075543376605,6.856873862828271,4.947525382510363,1.4138849836085887,-2.331839926838247,-3.1425294238774604,-4.382193680767264,-5.853063043806024,-3.2137401510870305
3.0397546848673707,4.181239271598401,1.1685976082403942,0.3599597750799352,-5.194657569938679,-2.1265023562520864,17.565433610666886,12.150553920494971,3.054251452783474,-1.974315333905571,-2.4138556624805343,-0.5231320644658934,-5.6120322439814965,-2.312001524538648
3.689134874883033,5.056842351323941,2.27767725591151,0.0886159002034712,-4.3619126470020015,1.7151146659528276,21.96372718809015,17.462204022015683,5.471763887180306,-1.1778495386945569,-1.4087218933188748,3.929988841500531,-4.789440525171516,-1.8024638062079488
2.633471492441008,3.04424756336737,0.5119891840953895,-1.4597247006109288,-4.074528421706458,4.5508757941602695,18.373214944863435,19.12610724017069,8.215113444295632,0.0765817853337447,0.4105549638606369,6.930088281402497,-2.614009095260508,-1.263233459820145
0.9537717241428432,1.3649922312779954,-0.2641056209592735,-2.606372910893753,-4.171154455584263,4.5375730373611365,15.053233813449223,17.427831362453222,10.728159051197084,1.5919089146302268,3.5605388300202225,7.644134028811008,0.8628404107079279,-0.217815237871769
-1.0650700157180215,0.5330696614949502,-1.0755937162264306,-1.9333911932343653,-5.123160592657639,2.0162059948067466,9.412912346396269,14.182092314921118,12.268652454709615,2.72981616779885,7.529643505875267,6.659165337752862,4.208470571919189,0.9468967498866094
-2.42140831171451,-0.3084745462300662,-0.9605196044726344,0.3065208360544909,-4.80441588442202,-0.8534900467711936,6.299138074994302,11.35549071410048,12.243522142300082,2.872832389452192,10.834858614777463,5.203035076740858,5.614730678253238,1.2989207894086396
-2.99013796593974,-2.0404718582372823,0.6735735189990592,2.486055245948798,-3.2212702710032843,-1.9641148515720817,6.974624520762832,9.924314208482116,10.85513041338204,2.247227033537233,12.274609462216842,4.160876125863017,4.56461577134504,0.6093499358282752
-3.688246797642548,-4.7800149665104215,1.6367474335001668,3.177564137336076,-0.33875450300251,-1.0016027005904005,4.780858702553158,9.639317027718626,9.313492197130255,2.1140769573455804,12.070400764709616,3.61237708751926,2.445088309107952,-0.0161413809828081
-4.709017094877354,-8.815482370886393,2.2643917162930163,2.4033869737767857,4.418306527037606,0.4531918468662033,0.9941499169078354,9.598755118094797,9.118840472625802,3.8344048585693566,11.605479005928728,3.110843595513118,1.448630120620347,0.9546218737786883
-3.976696717972885,-9.04420801940657,3.459144379813853,1.4950745414542403,7.420073853408268,0.5231088846432708,-0.4934957575421283,9.07066327607772,10.909148975591975,7.564955031599593,12.009491584481712,2.4018176154705757,2.888593997420609,3.939963894713571
-1.6246987897844716,-4.229469975791512,4.917658829923871,1.9657260313241869,8.630489098608093,-1.1122717423216657,-0.3647427065615539,8.034844743141837,13.966836255487085,11.938964483296466,13.160526595806076,1.9805266743173624,6.58173681432438,7.837694112923916
1.550890848431104,1.6747272322993545,7.370144914517965,4.556679400666207,10.512717276475993,-2.806283628240489,3.0732660126447136,7.178031499584174,16.890214002075375,15.19902968234506,14.190727161785892,2.929014295782903,11.642922148695645,11.258574841871631
7.180398563492024,10.906517794557155,10.987586086038432,9.020799733503114,12.307164007886014,-2.422868637013451,10.75676706428666,7.346861865770045,18.71383239312412,16.700454953508313,14.777466280645276,5.944002670106852,17.416913273241356,13.922483638840587
9.075601429323992,14.32901739193297,10.899802701834544,14.236548423011676,11.369316225984656,0.5512878733197271,11.833237288779603,8.733085791810355,19.29127349229224,17.18904098938687,15.501906797839885,10.20400252952266,23.25651376128588,16.438023680057437
5.0732489079988605,8.09796925160495,6.894059247212244,18.205404234359484,7.683587576296533,4.171799956925616,6.163419307655582,10.316915445693674,18.634277444377897,17.49266697915712,16.661971732695473,13.173926518595884,27.50980632110708,18.621080108596622
0.9962694782013498,2.776381578594459,0.6588591575063268,18.307815688694596,0.7061894028636233,5.357857347236891,-2.78562700823216,10.11553012615381,16.19141470453266,17.044354380743982,16.96578040497845,11.97568574572788,27.43559155846081,18.509538496781307
-6.95790557119212,-6.8502846975356455,-9.112694253499823,12.538271511549912,-10.40509063791436,2.365124620699324,-17.74007600799544,6.350198692119443,11.217757075622025,14.029649481637009,14.054429025269872,5.647297474139551,21.032367231614643,13.802170240867287
-11.716985796032068,-12.972656070232736,-12.390748098939858,1.4378744017227858,-14.36875753740189,-3.6654545147555786,-22.75946607154863,-1.0894396808273603,4.102517714124742,7.348104291220159,6.920298627871554,-3.489369405045233,9.50253486033284,4.73648005553814
-6.488900287312245,-6.692829286119904,-8.424044092662635,-10.957802553110168,-10.65730944632192,-9.40642224993437,-16.790928200240398,-9.96902347064848,-2.8406392362338044,-1.4469739788226197,-2.086790922788257,-10.81536280689191,-2.2409969958946445,-4.659033647247075
-2.067637950035988,-2.8419376038148227,-3.576828868551171,-18.75135695857574,-5.347257548775237,-11.680019114163546,-9.014775236801997,-16.57136324807307,-6.405502886292967,-8.367799158175876,-8.093090524300369,-12.410681151978276,-8.256022026806267,-8.900164234467734
5.550162065664869,4.032445631875089,4.679901384431298,-17.91337274726369,4.36515915704938,-9.47837534966511,4.574183725125808,-17.804563698974697,-4.843922898982122,-9.6178720349305,-7.207372424586486,-7.865270779191688,-5.706047464880728,-5.42290682665773
11.771826024606508,10.696141269691946,7.488951732209663,-9.369350600323251,8.382104596940597,-4.17342278837671,9.896886222567892,-13.249036476768078,0.5127707598943045,-4.564956069959262,0.2240261739652336,-0.6000784378216064,2.932645090661488,2.919271197138502
7.137674099109352,5.718684387350652,3.628900578421129,1.2846190018162875,5.581643945466583,1.8579997623672424,5.259638787817,-5.68388181654323,5.977268184821535,3.483910217095061,9.554515762738829,4.655634309278026,11.540294634778192,9.766409035864198
2.7376184349179797,1.6345674134506083,1.071871127517223,7.523349047046788,3.827389580998713,6.714517766221194,2.708323829892616,0.4419075052396874,8.080858274973727,9.436226409113852,15.069591207036693,5.204802275297325,14.594021049801716,10.11119489449343
-3.174648519531684,-3.835169502932792,-2.428365253055329,6.237272858617736,0.5830311963932212,9.432677284234067,-1.2513799517630442,1.7225226324711,5.829380681341973,9.822303057216343,13.768719982742578,1.8811440913693152,10.624980407540368,3.9376107440561263
-8.08803179634409,-8.702101184071086,-3.8439068298601073,-0.641426697776506,-0.8304565746204622,9.656610308374749,-1.643807975437166,-2.0660307817594985,0.9000724064024501,4.904647548341443,6.810994572712858,-2.251895278959651,2.464195415273333,-4.327005461588939
-4.257783944324648,-4.105124438722806,-1.9623134276987215,-8.156329027766262,0.6382032939877073,7.487947816859677,3.354061687369836,-7.857964132594514,-3.982223717219944,-1.8515270681480451,-1.8886467328450047,-4.537294014259912,-5.33831989162807,-9.6620163223861
-0.7885319270278242,-0.1121213805464488,-1.644785704417354,-11.982013592189023,0.8182077268759202,3.862808700086296,6.132606691011493,-11.340132262263602,-6.81704994538176,-6.262937938777172,-8.182031814444839,-4.348371999004213,-9.509821779424474,-10.015513987408976
2.364504483644595,3.5988695813011384,-1.9534870599842131,-10.846653134069658,0.6954724792801358,0.7061604063034395,8.184393094266815,-9.790396190031837,-6.976855688384898,-6.018593628217685,-9.49594440392815,-2.682489153335955,-9.369565909520045,-6.837841136931846
4.526484866472206,5.908247390193052,-1.581628080000382,-6.433149074005999,0.6073831513956505,0.0329727250121483,8.522278327568682,-3.7905052025564,-4.897067929789007,-1.821952631696717,-5.520810785771653,-0.7278186984421269,-6.228203172558742,-2.978840168843786
1.3547991771742178,2.0723404249776163,-1.1687587940464852,-1.6247967455094523,0.0284342156442119,2.36240003199272,5.843482482226546,3.330673143741653,-1.6906029389082455,3.3353388723741664,1.7311694742497852,0.9360974515433303,-2.062378949271628,-0.4478080985275818
-0.9988590691184068,0.0700548657134694,-0.286935894453995,1.2617532503830495,-0.3743500524670838,5.938292864909129,2.853507002662163,7.855626227634569,1.0227403809565847,6.128256436485419,8.457949564925432,2.007843508246615,1.4248424547442051,0.1914478472410146
-2.791028661668962,-1.6449727438521229,1.1531356648553408,1.3614228565056925,-0.6919566688849533,7.8482638502900866,-1.120652890939589,8.102686720958804,1.5809176296308725,4.912668554238892,10.700894039179405,1.9794868216406056,3.194231776770059,-0.7894908022233551
-3.984727754964017,-3.448225516011796,1.7086108233183983,-0.6512686029968857,-0.6813143429952586,6.372580079260309,-3.182393558668579,5.216347367017914,-0.6967770285471868,0.6630695461195297,6.834049159333726,0.5278163274316103,3.0852114102615724,-2.6792173980861023
-2.0476702704625453,-2.012420783250945,1.3726227941459404,-2.974028962677907,-0.2062122324195541,2.5309090289953398,-2.717797964079919,1.930191888436286,-4.684890868169087,-3.749962720421994,-0.8225100277376027,-1.5453095816365332,1.920825530601589,-4.118228877027754
-0.1584386769213185,-1.2410324118548663,2.297255218032724,-3.554853393760905,1.6587637153548462,-0.6687469792160452,-1.0769414990204709,0.4468184696670305,-7.937631005071542,-5.5528334070495005,-7.157514117177618,-2.2137628651007537,1.1334356080422852,-3.280506177610744
2.6223104707353047,1.4414810358418355,4.2991587431820015,-1.3008583301356629,5.150606593264349,-0.7285598882868842,2.733568715975351,1.105208710429597,-8.50803679032489,-4.019937359907172,-7.976224812540822,0.2999816170320959,1.792973494007672,0.8234428421046709
4.78650731176156,4.657230995810343,5.7430984192517744,3.0599152177491526,6.867869630007307,2.2502076644544373,4.18116056645343,2.667280826670261,-6.616016481592385,-0.9328571745686984,-3.419250892667628,5.580995420352897,3.688679636496172,6.878995514012948
3.5423186437528145,3.760773363477649,6.960037178796552,7.300865829316662,6.86166406557563,5.672887488916652,3.015080620098032,3.6564149386873135,-4.501057195301263,0.8917901049934349,2.051510789566258,10.658838249730175,5.409900999511423,11.495953333462973
1.570905632350705,1.2072698204681842,6.764932157426587,9.23298953128469,4.96973098468526,6.582532368208986,0.8251515241676566,3.465780608452928,-4.403355689191526,-0.0939228924832491,3.4135118974256478,12.052106015996316,5.589449438071723,11.627744951801496
-1.8444869521031824,-3.8245367056840234,4.757061713661404,8.318094049810924,0.2605143075292891,3.959067917393564,-3.5947543279608656,2.435500461605219,-6.492473292849528,-2.918512413529763,-0.591083168169448,8.665866705417804,4.252869573815035,7.257406560873271
-4.427104543032374,-7.2045396795134895,3.464612011057262,5.962497207059263,-1.6220911256329125,-0.6352947610122404,-5.251401505126709,1.1646640346133954,-8.737650556502722,-4.984574758218344,-6.472792551588769,2.879666708070567,2.889207699294689,1.6861989972371396
-3.116107178065296,-4.406805653815356,2.601809037408203,4.2101097954283215,-0.6716486904970779,-4.35928551324347,-3.883938332861374,-0.0956533753628967,-8.894844917470522,-4.377477342347055,-9.29467025736806,-1.355484295133139,2.991579043646745,-1.1639807613416315
-0.7565454414993962,0.2066356135053914,1.7431252338735916,4.039582724710513,0.6723234250519033,-5.111999899843603,-2.4408094777808977,-1.45515330147694,-6.711990783106005,-1.5878249308702403,-7.230079689697993,-1.809037837741388,4.40233646973662,-0.0781929489610555
2.186394849108301,4.846295523391026,1.3730922969074952,4.814990003191706,3.703982645271737,-2.7448287662555746,0.2695657453751314,-3.00566468999624,-4.20611465614946,0.8806396002711852,-3.160311989448632,0.3237109073287025,5.176886375906353,2.602117825558856
3.5781112506352954,5.204734272400449,0.452191145280956,5.25727108748573,3.2009725427886275,1.149272742579563,1.2879035406917043,-4.551390887009794,-3.724733986852017,0.6938121484815336,-1.8520454756920293,1.831182011709398,3.297925695127314,3.3679748607654667
1.4094596333792255,0.151941456899679,-0.9828393593811888,4.790191790569162,-1.320714262801676,4.377062076475061,0.1734644769967861,-5.639023701279474,-5.661631992853882,-2.244206588337266,-5.375614970557615,0.625631444534033,-1.2943712904928892,0.8196104405901687
-1.1800790276157511,-2.629331077513973,-2.0265018952575167,3.8327666792727566,-4.473791093265039,5.303155014543804,-0.1453746833968691,-5.700620342040089,-8.037513546668226,-5.629526074910059,-11.03614253754638,-2.3435350494875644,-6.339470623157468,-3.2643665552340657
-3.2664977818280687,-2.32336283847154,-2.834180235944286,2.829599809990307,-7.386351063545065,3.4515930032057427,-0.3945230150362329,-4.171587504194833,-8.35634949170683,-6.621076688704743,-13.71941988590718,-4.119894009110295,-9.03634992650914,-5.869861698876823
-3.323931404448515,0.9674945379256108,-3.0129732912240663,1.233038387530459,-7.789271589388624,-0.4779851950263638,-0.7555314292523503,-0.7463531865600763,-5.976371822163118,-4.141305122796395,-10.491889521075354,-2.6402268810038607,-8.409477998647253,-5.601121674566498
-0.2790983758347445,5.830675093969986,-2.355164476925357,-2.2332838424410166,-4.602239300100798,-4.963588463584104,-0.8592720286900912,4.099545307854048,-2.790593501744324,0.2353381925043367,-3.312435724032936,1.225580583279827,-6.130587721329728,-3.7150709582091066
1.1888294359166427,2.472642318603057,-3.0055850414824348,-8.044991773086977,-4.661525583588616,-8.236097052946182,-1.3334992382629314,8.70600117490288,-1.6427190202187885,3.404865666029101,2.4781235166786035,4.305125949010035,-5.076006214364464,-2.6397107180068424
1.2778629984797456,-5.108396389648689,-4.9633844423640285,-14.548340390914772,-7.469528935002698,-8.988426716082037,-2.1166626045162045,10.673083745734624,-3.968988885193673,2.9078391416897884,2.4620218902560933,3.773367670977661,-6.903699042235381,-3.697419088006136
0.9131665449485764,-8.775244959516247,-6.846069514676383,-18.369610064787302,-8.316916493427026,-7.004482330740855,-2.483161276148884,8.34980327436313,-8.713120529004701,-1.425981523269427,-3.4612283326886883,-0.5143263457188221,-10.697986124473116,-6.182765401978543
-0.6342995997311178,-7.529471243919762,-9.103428253767117,-16.63830707451629,-8.30464022617927,-3.347429987598011,-2.4824568223310237,2.3971465053786942,-13.27299931981041,-7.394960665794706,-11.265938874105109,-5.896666232072018,-13.720559119015736,-8.315924128177619
0.4246901985417955,1.9872233514461104,-9.13134037738733,-9.401031491537896,-4.252699111760273,0.1237315367182865,-2.4973972178011787,-4.1218863511669,-15.488186644199324,-11.859427753111632,-16.12904698924861,-8.957626896066472,-13.57823739013648,-8.842572927774148
2.958839580193973,12.996852243920271,-6.530134888170775,-0.1998893924815274,4.883286223128489,1.7188590361305964,-2.3890659355543216,-7.711380731483155,-15.036662306884502,-12.7682582433879,-16.031238449281645,-8.051832757862506,-10.109107678897304,-7.836578753115186
3.98586479232695,14.837170789640098,-5.144020942514082,5.914524265582685,8.32183830882033,0.8029560880285236,-2.135197262115074,-7.129761764565314,-13.344623595660028,-10.50737932907353,-12.860678956262277,-4.402064730967656,-5.609028638466023,-6.354339892113344
3.0837633875103108,6.816566788533026,-4.430364586909629,5.6857257634057214,6.390942737815328,-1.9164291731504388,-1.764024910265675,-4.41618484749102,-12.311649417630171,-7.6000090508253315,-10.41775707131108,-1.0476498259476954,-3.233767851374705,-5.567829668100128
-0.0482383454420748,-3.4545353279173114,-5.537390496290492,-0.0920749893697383,2.431920658206066,-4.807335611891041,-2.045847678563306,-3.061549061983608,-12.839017840320295,-6.770993453803106,-11.08904546514368,-0.5017637344433776,-4.676645236442505,-6.046002344810231
-4.050244308142006,-11.340377533868793,-9.334625953144563,-7.07712423160579,-6.0029410603062034,-6.136792860576005,-3.063415235686985,-4.745676667182511,-14.116398862614652,-8.660428929093175,-13.842120783279256,-2.880049810857352,-8.791143496312115,-7.425921257074127
-5.969596202942885,-12.332239018538813,-9.557870955154462,-10.38333574079741,-8.437413487928847,-4.90044169890772,-3.37361290011089,-7.648813703848013,-14.139582752456114,-11.069636857301294,-15.114166175733924,-5.911558301480416,-12.294718508662813,-8.538208105395004
-4.222824938470445,-5.154195963693192,-6.35564831725978,-7.951791632863927,-4.2360596938588335,-1.36739668577484,-3.092642524710455,-8.124922814380595,-11.225788711552362,-10.66530851461618,-11.92613123087214,-6.828315199941273,-12.21689665431457,-8.083865692182467
-0.8123681026120424,0.7028105802715834,-1.85835817229432,-1.8161408448385636,0.3032032819769007,2.8892319465677305,-1.7103237069336417,-4.375149214118913,-5.546819876013871,-5.974537303455386,-4.723358688615697,-4.624617010127296,-8.278342057957868,-5.650575201636632
2.3022566265587865,3.6652580377986026,5.348591380497447,3.671874880749177,7.722985824050141,5.671695302859005,1.1609103753004366,1.343938573585365,0.5836442901527975,0.9288490283298518,2.5278435919886397,-0.8178365524165745,-3.1890791109356,-2.285427212244118
3.3425674865676807,4.323447397537609,7.97004610922723,5.251365964974927,9.798490042993324,5.437576184561292,2.041508081426948,4.292851303703863,4.210821060543273,5.793546751289728,5.333605896771901,1.9215544781468687,-0.434453282824828,0.1417315706453044
1.4890790354990917,1.812865177377949,5.456982473303994,3.0918737261193883,5.394441461629402,2.477914693898406,0.932236553903358,1.398487772530015,4.075662465412748,5.659463843539435,2.414528259682786,2.0314637995777263,-1.3358167373179937,0.5137991812907217
-0.5369097218259758,0.1030701858733232,3.6837466905125886,0.2461847064609128,1.479519502768332,-1.0221202806395158,0.3003089063557534,-5.782042859152822,1.82900557985809,1.3885365801069298,-3.034148201462436,0.1855650177743681,-3.988846399235107,-0.4431649017242622
-0.6194145598465429,-0.2153845373461418,0.9589307396786207,-0.1718312003775968,-4.068495715723698,-2.442513273398092,-0.5588887758656021,-12.094637513430978,0.8536603532982485,-3.0802676430172773,-5.813439772831443,-1.6160520897689508,-5.095007378548623,-0.7903265997960185
0.4445498734167908,0.1090396105294876,1.2879213973492676,2.439496706864281,-5.453693686422144,-0.7902366084612735,-0.8839341892824709,-12.979586954549884,3.493882288889105,-4.0942086955763095,-2.89449535319604,-1.938419409320658,-3.019822118869949,0.7085893420926439
1.43885410776979,0.8037705836074928,5.7422153453737685,6.0384203435413975,-1.3857321552865316,2.3701251014963463,-0.3056481055583096,-8.09344449652065,9.072488004844612,-1.181301065422008,4.291738378980734,-0.9057527743216058,0.7916327289370768,3.3054198774611776
1.3866370072811245,1.235677259528405,9.029887791854916,8.138166871729155,0.940698096371379,4.112745033239065,-2.2995484656537317,-1.2384121702889797,14.507522605064883,3.07513265478257,11.322381940129084,0.464466160032388,3.359328660610373,5.055884907730546
-0.665514143963577,0.9815177361140724,12.263992036388984,8.090586022168948,3.0504567659637405,2.5956595989815154,-6.831474489603414,3.0772105578737907,17.002327338354256,5.779050941025018,14.489778478958204,1.5562540632305577,3.122179931684208,4.949087890371173
-2.194573448170346,0.3249590827307679,12.788896896187236,7.2885669038771805,3.270925059161691,-1.3883704797257823,-8.807598432524966,3.178026632903175,16.375079511638813,6.266837631640696,13.40340031195353,2.5409512405186305,1.4029950038970416,4.092788527808716
-1.2125678723889142,-0.1444559148413263,9.529723419713044,7.305912874860029,0.3391667869408842,-5.178439410364323,-8.64284079836952,0.8423532413046368,14.968012981186517,6.109962016762156,10.504299933818658,3.5765014861632363,1.0035443330918548,4.55199973901775
0.1570952589317128,-0.2673998205485016,5.483458646599269,8.073453722935497,-1.145967877124742,-6.603530399832267,-6.680640506362164,-1.0550300429798631,15.35625292019316,6.937152257646635,8.49883689451091,4.036610920516838,3.393708589114936,6.965861250876427
1.5137288378484928,-0.2969262659975928,-0.3487812368820492,8.038253733714477,-1.830826287509106,-5.704261700379593,-1.7614017029139415,-1.275102940923451,18.039700499182604,8.545697925591293,8.324339517481853,2.9413816305556715,7.274393556710893,9.520972383909967
1.2099276229524465,-0.9059973979864512,-3.587676501407677,6.057277294531824,-2.0639183000712804,-4.25730128776385,-0.2865094903180157,-0.7939992203325865,21.13718335774052,9.210076207291626,9.171958433599482,0.2265898763864475,9.826296742795954,9.545974257340124
-1.282826270183972,-1.8195544356680493,-3.560237696335872,2.876128087201673,-1.016784717975494,-3.7341246098193017,-2.3690140542880105,-1.1222127955176693,22.13424472192828,7.65364320919795,9.829234614664289,-2.708223508815288,9.279859708817066,6.210543004495743
-1.9687265645413088,-2.3065560937766985,-3.016741605178128,0.4894067205506576,0.2380655608389919,-3.831903233800576,-3.4598061372916016,-2.4385558041002318,19.9505346886426,4.461658742203284,9.617050259346238,-4.092769171084649,6.276047835587586,1.5364943973276093
-0.9163112544727408,-2.0805398426383253,-0.6729687243127119,0.0123068337772433,1.9351640920290971,-3.034066745953224,-4.898869561102824,-3.4832746316784347,15.583646355026469,1.4749210396874504,8.225981636452119,-3.572941355805605,2.8933000126597763,-1.4054091406453173
1.2544966013574548,-0.5402233349077394,-0.0583361327927955,0.3914003691619319,2.9992413067695187,-0.5207058422934143,-2.808965583129298,-3.1076748518305477,11.09096634134564,-0.0605320491817015,5.285375630269949,-2.7516525893632933,0.599580009350944,-1.3329032394504718
3.5882851483908462,1.320172530976123,-1.5448418289843744,-0.5365242681702006,3.1903971358244134,2.6472285562353277,3.716654654591318,-1.647401160329892,8.077920418750466,-0.5489239429141282,0.6914030328687408,-3.675792904226526,-0.7281519006730341,0.2284336916362734
1.6632702174103602,1.163080133921112,-3.499815871123116,-3.643698537698351,2.3837446838704293,4.393965123724273,7.56975717830745,-0.5885611051465638,6.941322607023907,-1.2551483209608767,-4.5186227286508,-6.637518248341952,-1.9576059041600649,0.6998695039914442
-1.729785202737247,0.410970768769499,-6.89912608009156,-7.292515979496554,0.1385284344838201,3.748488394720951,9.562668620579652,-0.8758215548481116,7.125901788669978,-2.6731606619899786,-8.012023796661712,-9.543876835337102,-3.2803300265492834,-0.9161835947725584
-3.380561009871509,-0.1260449869260221,-7.746463966965709,-8.67706909229015,0.0146091598359016,2.076568712822776,10.763048501632712,-1.667280854527585,7.77712000985033,-3.909046405243581,-7.4898943920479715,-9.654279161225976,-3.928429011182448,-3.222749692555638
-3.092082916513362,-0.1566176943768598,-5.745816787537462,-6.467823630781585,2.0809356090526845,2.0682643756547034,9.790266604080449,-0.913968904808403,8.178068260345526,-3.723832036768957,-2.643204994709538,-6.1126497840006975,-3.272502881378573,-4.111284702726737
1.0248955048227897,2.473677709856964,-2.608363619838999,-2.1414227498349208,5.078265871438503,5.272819277239858,14.093565920778872,2.679098128362656,7.904268633894141,-2.01893353865186,4.083903393888129,-0.8526971890520096,-1.8833308284147847,-2.9980214269057983
4.087465297939736,4.8758122700790825,2.735602572039698,1.2929579103809858,9.895412338699192,10.409197788705864,23.98938613087921,8.134464395346011,6.914409928414914,-0.0954723870811751,8.887414194508882,2.978319819856164,-1.1769979053765032,-1.248963432013657
3.127588821713015,4.525999716611497,3.934266280950476,1.860550593703034,9.731135676654558,14.042371476699646,25.15969695435456,12.578386225548902,5.577469210046734,0.5853338533323234,9.17670749476707,3.550170861538261,-1.9238273543237083,-0.5460534014430749
0.3118215072131585,2.249143727034028,0.4771428981252275,-0.006709678567256,4.041951047639719,13.131936952091504,18.338955637100337,13.26063533103751,4.412025025688092,-0.2202821811472963,5.233302013388412,1.512628808740386,-3.2901284869539404,-1.1849641029747673
-2.779158418588521,-1.5888840662849075,-3.123818960379253,-2.418290383376275,-1.851657417029184,7.358788205278522,5.602826981336402,9.55602316056047,3.5588626610791563,-1.4643238147562745,-0.3293074946276313,-1.039780866297587,-3.5911549834854646,-2.194425758131296
-2.4142287892815686,-4.90635985533793,-8.429317025843622,-4.0540278618896,-9.580475172947509,-0.6089328619772288,-16.42117485327012,3.380132843628492,2.464065541504991,-2.005649157742281,-4.663225592606128,-2.508042452033253,-2.0749968381009958,-2.941018357985865
0.5149431070150934,-5.181554474600094,-10.23121888570012,-5.133818171383442,-12.51769736368831,-7.004108985938438,-24.43350986312572,-2.178841788264699,0.2421468414238102,-1.7268503285085828,-6.506961773638661,-2.742542341956629,0.1235168956159782,-4.127819284779807
2.0842160905198,-3.182157640545744,-7.640379571043907,-6.541801287582111,-9.442659737457038,-9.458695595160028,-17.342863884117627,-4.8497017552490975,-3.466510703258273,-1.4532167836080314,-6.446250635755058,-2.44556325516801,0.9042783423267764,-6.841950403516729
1.3162071691794095,-1.4193859640780124,-6.165733594740514,-8.3389462374811,-8.380153224945824,-8.300161806749953,-11.144663231002744,-4.340143540107546,-7.957009767426905,-1.9459715955605037,-5.867739162639696,-2.0878152886999697,-0.892532105037998,-10.69803962809284
-2.4685729140520527,-0.2441617148110255,-4.476899972739783,-9.43343938689028,-7.674633710031086,-5.914065932974539,-0.4770564833842883,-2.047924332247104,-11.857940939067412,-3.155202359965517,-5.800827565994467,-1.610124699391367,-4.462483221389562,-13.387492678234388
-5.418915513871067,0.2016041305128386,-3.286244367712275,-8.77314827992239,-6.563329069062642,-4.83860547475908,2.398063398056072,0.1873240623224621,-14.15826825624926,-4.423154136329127,-6.480118452319486,-0.9807218684985068,-7.785014802623412,-12.529275358672288
-3.7820647296481575,0.0675621096916306,-3.413983895025417,-6.687407871899181,-6.220207178258096,-5.987688097942312,-5.163680273953167,1.2583477056249448,-14.87696028774565,-5.173357174992176,-7.511850110711894,-0.6130560981916413,-9.243807532479744,-8.105655834050962
-0.513736295617837,0.6716907237563279,-2.057190487789868,-4.80013059566026,-3.5568686150883795,-8.162747348972275,-6.975127835720416,1.1647001712625489,-14.743158954181112,-5.203398235468325,-8.118880553419993,-0.932972683787543,-8.520612599780815,-2.865343862474629
3.303975688633262,1.9466717675761696,0.4660599021797818,-4.454369299933581,1.3653199278931587,-9.092854143206718,-6.073988359576415,0.6184836958678996,-14.294469832660914,-4.376515512948456,-7.310149589641491,-1.5587962631090888,-6.14304432415361,0.0058822964538083
5.261598844728295,2.2510775769864924,2.6604163958456977,-5.2037476462458265,4.009824978493701,-7.206744731695895,-2.7918723134080823,0.4549858729670593,-13.388734852291073,-2.325630528872608,-4.23239288620683,-1.1638424927697917,-2.5012321335563144,-0.1576870068507443
3.3530238340510423,1.5099454397510976,4.939702281252822,-4.968300120717317,4.687715495144968,-2.8099968355217744,5.527249311815357,1.3401168133139878,-11.609283542415504,1.2855150714224468,1.229309405406,1.582019135061817,2.5026545582243647,-0.7862703455161051
1.9990858537310692,1.3112573477193827,7.170952937927515,-1.8719983270267893,6.566509833715515,2.2400414950058574,10.64586566325542,3.739369003572537,-9.025714019366957,6.184133572271348,8.053172074269542,6.769710371312264,8.904256278741775,1.6135633324815792
2.1358270867392126,1.144817533960494,9.142069674152609,3.859259834577143,8.873269650915846,6.056232640471134,12.998068715143813,7.746778364174886,-6.4006512952685615,11.306742705642224,14.405089694345108,12.852562430131584,15.956488663425969,8.17689049845505
2.1385348938782878,1.2350063905625803,9.586004385137745,9.687523939363489,9.34116952462347,8.073923054365146,13.5248703623143,12.62904806899857,-4.602784316049887,15.302726467933711,18.589856893478288,17.463969724477035,22.04012680505577,16.351691865105057
1.6728775957066748,1.367675163987503,8.233079078847823,12.518749679015594,8.199593385298762,9.006043313156864,10.380323674936692,16.57364668712068,-3.897931174819824,17.24541339055401,19.899984685195065,18.77418789887291,25.313258387092077,21.641694575683854
-0.1448777263871033,-0.362583973139027,6.482601139476122,11.01480069515081,4.586783419881105,9.543665785950576,9.449537100249408,17.33357162102923,-3.891093321812285,16.910421475175184,18.71551034262575,16.407624400302268,24.614179337086103,20.90510396014317
-4.032392305198946,-3.208128778083242,3.9593352345267534,6.614414229862987,-2.1270706375059247,9.264284225936692,10.569612851196416,13.747308130610696,-4.099342432711589,14.56679307061145,15.940170143478875,11.473258692566027,20.10278221454958,14.576241391966342
-6.761851985987251,-5.173005038578443,3.2467008266178703,2.510800294818897,-4.6171935096151895,7.043370915685564,8.200250174625717,7.022478515206183,-4.41410136433343,10.770707920300412,12.41858255245447,5.926395425228677,13.374015987925064,6.27792840082602
-6.07386735805481,-4.976610464947783,4.777033997476812,1.4405490298124075,-2.7202110336877565,2.638282681887675,3.2455164797760103,0.4149712860206778,-4.9149591148519125,6.454065692041651,8.803729595789882,1.7014732491479636,6.927092998719099,0.3676704507046047
-4.530722563395018,-2.328613995123332,5.870793091002056,3.947306172448641,-0.3149844101137957,-2.30336444049917,-4.744550989316635,-2.8892104437034507,-5.363732606040149,2.96277926575276,5.720952970065227,-0.0665032401726311,3.037420802391747,-0.7128724834679687
-1.5696155311908566,1.6621789006401348,7.206740967783407,8.272815726465268,4.319759771361014,-5.155745841167725,-16.86350020103213,-2.169661635374976,-5.162372689924473,1.5266946678288529,3.760474221881296,0.5016272343849835,2.4914528859914675,2.401904709439904
1.4546813921338313,4.262404366076598,7.950332877467632,11.7461294423252,6.130554326120554,-4.535406887314425,-21.065669300182154,0.2344515932292616,-4.004975380624369,2.305793971460898,3.144157758319591,2.14314139514258,4.054649236991844,6.8177357172750765
1.6329372009306309,3.4118883665083213,7.670433924376657,12.53584768136484,4.497518772466391,-1.7148283122760226,-16.819600185557878,0.8453187871525153,-2.497744811265358,3.937343957689626,3.4242777938769144,3.215149015769651,5.308903784641631,9.41888837332533
1.0028726788765954,0.1118308521786872,7.018981111683912,10.586275798001648,2.903675389585304,0.2889262267513786,-13.807802158821012,-1.9940160862250995,-1.8327410071458157,4.366262425105171,3.665640285742442,2.74148107627927,4.48217921389517,8.794616287041773
0.0316051509895453,-3.629835338937184,5.614125704629035,7.338666112899854,0.0144899611875281,-0.7195089378799908,-9.392461327826943,-6.594566845013725,-2.541340224438554,2.5809801384074973,3.119001343414789,1.0541632985065026,1.912637421801288,5.956574381604163
-0.6987632610584982,-4.674184089914154,4.596317159663748,4.709072691970732,-0.9441843600217072,-4.173125384657807,-6.499508579625083,-9.132050014602257,-3.48832648168939,-0.2123564710160972,1.8811259733141408,-0.4540623613482575,-0.1198670391576199,3.536508940352399
1.4658194940838676,-1.0184585589711703,4.028352283603583,4.080545648277482,0.5478586461440108,-7.158299519368557,-6.619458475320698,-6.612199508916956,-2.3293276522180246,-1.2449831203244608,0.9573972040460674,-0.301572125789564,0.8056543143158061,4.020955898759645
6.5878033656469634,5.483367348990451,4.757158955949219,5.729023312323433,2.65483030373725,-6.802039974597285,-1.6510891204988305,0.7575094328390213,2.606605112916621,1.5785929910835954,1.5716599663191246,2.0612560572635816,5.187225410237636,8.076203834930022
13.089656808573576,12.53092851373918,7.208327313689149,8.677464013746238,6.328683522341771,-2.594526583786206,7.68930788324074,9.513354890845957,10.488393386427829,7.628373498569741,4.145009361871121,5.811145432911558,10.88950834300886,13.92784820798516
15.246539904511716,14.284158082613963,6.187378043194997,10.93154592090313,6.337925661443846,3.174611102761062,10.75842061113135,15.05679606589397,17.897955573260667,13.505550251914032,7.661397675028457,9.073860762241162,14.347045517499495,18.170971738403907
9.933351202489613,8.54101480017731,1.6430150909789003,10.234134810019128,2.195560139480752,7.040538443652469,8.25792871858142,14.351425379695495,20.844388409381803,15.24912291360175,9.945348854345191,9.79463895182347,12.817200105321854,17.613264595366005
-0.1856090014730523,-0.148613636628678,-4.503600836122796,5.32451718944769,-2.879201966662712,6.701463768892396,2.619229832888301,7.509315874669284,17.466832122032454,11.131295810194493,8.804519855884127,6.7890232756937605,6.128686639531796,11.155425984908351
-13.796081871329749,-10.547890345449678,-13.52267489626544,-2.938713636579066,-10.257628154695102,2.43557629928886,-8.528121979859794,-2.4595401891060327,9.354176631728638,2.830282911948718,3.3819462577923805,0.5247672470169957,-3.2123984054785275,0.5896350455913448
-20.47911084507089,-15.469343313589148,-17.102807520071927,-11.641212679517558,-13.452401192239847,-3.198581793064341,-12.182673815954477,-11.378034618713954,0.4467291945566849,-5.916771405012281,-5.166021208872432,-6.878210293983804,-11.599106693801396,-10.28550789004187
-15.629469642704647,-11.86800230188754,-14.575955613679524,-17.485681083655653,-11.696506199033616,-7.034537521754482,-7.643253476565016,-16.11529057994131,-5.630586124518586,-12.01783335934566,-14.169682965722991,-12.69944827540294,-16.555139832375183,-17.817951656679796
-9.296517382189222,-8.388418037457608,-13.2616351246824,-19.04021536914481,-10.709617607714346,-7.243389547480776,-1.2528571784823606,-16.12038505010341,-7.748630969222155,-14.876263641735727,-20.82860910759934,-15.248342148219432,-18.13568798204412,-20.56133509847027
-2.0561829677530468,-5.448950831886865,-11.257372836256328,-17.644881403500964,-8.884874700530835,-4.346212928355932,10.276450551701473,-13.390430183426554,-7.361446488096812,-16.002632266573663,-23.54068310844669,-14.873829533472476,-18.4707660229858,-19.777919548098723
2.9356101936047434,-2.695693169921839,-9.800936622502158,-15.963698392972494,-7.085382192901258,-0.6480752924717184,15.683639600708275,-10.79220497034456,-6.610443098665699,-16.94834904680191,-22.301879944590723,-13.356636114908856,-19.68449060385074,-17.986402479866054
1.862975831472204,-1.809447291736029,-9.95880604870498,-15.344906550700252,-6.053967645788903,1.5308341873150522,13.936363579425024,-9.794748808891708,-6.15109864782738,-17.506656792732727,-18.07444577589957,-12.039733709550632,-21.766277541655963,-16.72273183213887
2.961506337758113,2.100233450092198,-5.549625420623277,-14.506751656096226,-2.2133342222345576,1.5381683268011177,10.62270382564295,-9.340401241556195,-4.584249106845638,-15.800476491987336,-11.87607009483508,-10.429352046764386,-22.27961818707994,-15.426078337478454
8.371911354740996,11.10612491051874,3.194641566159456,-10.999602786759768,4.212687169055115,0.6592566473519739,2.718943761817951,-6.936284526191181,0.0151191672387671,-10.187908325471696,-4.49617286998555,-6.828463032045761,-18.482962565650148,-12.451820533565842
10.879586667774724,15.83802789203837,6.728154082548507,-4.184404727386357,6.583873264242479,0.7409800744457474,-1.198717535463759,-1.2443639644803342,7.800270168097036,-1.3197497891438683,2.9977850490622413,-0.6360375755912409,-10.293028255476855,-7.281464401167186
9.309853956360104,12.69602745252487,5.62231545706679,3.237328271674756,5.059181733510568,2.379154040811874,-0.4507599821064328,6.052596940281829,16.141088780218467,7.49225287526532,8.759886527621099,5.979420900428509,-1.396973734455937,-1.7779068626150618
6.516419519176504,7.525486123150024,1.9034791416603505,6.932932600525116,1.7564259420896469,4.339333467994699,-0.1866302393622419,10.970111039481257,20.943759560749022,12.088469822032494,10.63610187524066,9.0970586719725,2.936870214786836,0.910723428770396
-1.826790100974332,-3.372254392626969,-6.584415318827729,4.582448819571453,-4.890187882555989,4.780612232001285,1.719735982444491,10.185500818370626,19.409296732533,10.190950699582832,7.617066268130864,6.287853731597465,-0.0691188992625404,-0.9912745827506004
-8.310753239839629,-11.291718196574095,-9.300543942519369,-1.8606376565606608,-7.826922048107513,3.121019012770069,1.9755679530074823,3.77416468088814,12.091612671639684,3.017167344071347,1.059041195043748,-0.8352877241719616,-8.155605592005623,-6.0555664519291295
-6.691336513359509,-7.935748859084358,-5.794442592360241,-7.49090106060684,-6.618891338009046,0.7127075988324092,0.0401262724852373,-4.71118648519768,2.624214315037162,-5.44583797443855,-5.710272749268455,-7.42304000407755,-15.442451822546449,-10.450012619870476
-4.42679145397087,-3.712892994278692,-2.6364822006260566,-8.3025091516761,-5.080466449165956,-0.3745924181637079,-1.0190100950459682,-10.905841022241416,-4.672477791911389,-10.99040038517398,-9.467650612773534,-9.178953392015124,-16.864618885932828,-10.839080080412517
1.2242974666966076,2.758781919854308,2.6139576210675464,-4.228863913561477,-1.448029348784454,0.7020235430192541,-2.0210904794575075,-12.670270893442265,-7.461225079639436,-11.712283143170907,-9.249886173676035,-5.818994555841406,-11.906979816381543,-6.930023773906807
5.975568604266135,7.133519898781676,3.747463197926405,1.159560863213124,-0.1966491075636155,2.768304744465357,-2.594702454033473,-10.933964704657736,-6.415754536428443,-8.760957054678235,-6.711865681083434,-1.0393155448881046,-4.463924177433421,-1.5203592994294652
2.6243335817727367,1.7077694589039063,-0.3069579435991135,3.785177100663974,-1.8319259905631973,3.71852787102568,-2.3325568257925005,-8.015516643050244,-4.126293432675192,-4.994372323514237,-4.408426638313463,0.9276248854294598,0.8286937530373097,1.8568049225915997
-2.5088017781164944,-4.7982606237632845,-2.759430519034836,2.15408742314024,-3.824935611918048,2.357740540702483,-1.9079948661599215,-5.438941693486027,-3.046465754272884,-2.805173235240749,-3.694145032174987,-1.090396141232718,2.263463644448798,1.5527039262767302
-8.546302676424748,-10.485251691615122,-5.152818613119843,-2.052818413554249,-7.378916419299635,-0.7452375445572603,-1.09145105245444,-3.3637188160192,-4.109320580615454,-2.832561332101516,-4.201737385851631,-4.69034728148922,1.48138282726589,-1.417674964573966
-10.98985007819901,-11.432185170352945,-4.295638046736654,-5.852235545671921,-6.542146192468558,-3.994677345277286,-1.4291093715567964,-1.6652007393492383,-6.729298529961486,-4.268878155757332,-5.081362572741805,-6.568992348094442,0.8125120167253059,-4.662694235760556
-5.043785746217465,-3.8988148448002313,1.1175619983311056,-7.213835129590964,-0.7015508432830533,-6.093046339138035,-3.1194874672239,-0.8521300914610506,-9.653466779121583,-6.006966879500018,-6.274029002882817,-5.485339110176259,0.7416802525445907,-6.230287945891323
1.5818372229224094,3.0880212009264567,4.215003092503485,-5.827095792299092,5.627442611552146,-6.618979745085446,-5.849916421651578,-1.459498213108751,-11.708133976081347,-7.353781125602598,-8.22371890163376,-2.699973490814167,0.2067155181225519,-5.404565598569907
7.338837545227589,8.739556572462755,5.858895342763482,-2.3709909452297278,13.945221206190116,-5.645879446475817,-10.124942524243838,-2.7081092987612223,-12.071584265377354,-7.866347854532218,-10.491443751876972,0.0392644961869832,-0.9851744390498194,-2.369378776360329
9.077719871881287,9.691223099549832,5.709703340021573,2.3321660759524576,16.519019231746466,-3.3265787740534005,-12.02433338084289,-2.462704167351095,-10.413855404203908,-7.037746440958603,-11.307893447290816,2.391553413893304,-0.8698710765789084,2.2390840132453462
4.852996399029285,4.450248341297788,2.3551241727537904,7.307587683532661,12.169172899244696,-0.1642714367121742,-11.35368761745451,0.7938814754935128,-7.2282103538919005,-4.690636714874186,-9.17853946820014,5.0945428908639085,2.8337463416052344,7.212642338091323
3.7522895523757303,3.525521589379637,0.8256699934271491,11.04126176603954,8.438169721908105,2.513983147015698,-10.748249508209984,5.786675049443491,-4.057212607405806,-1.8444546492673408,-5.100755640603433,8.056986437721367,9.50655157099692,10.588840470865437
4.776343639698967,3.456574773366887,0.7779980956374387,11.825875180020638,3.327724544486601,2.954234588248512,-9.2910561558063,8.686254584001269,-3.0022408408917336,-0.816565631795557,-2.724127875489952,9.407075921486063,14.828384317726606,10.326077675781082
4.721360018995004,2.2469891771711303,-0.5343426702774087,8.99959712285355,0.6431228248390426,0.3929622946173987,-8.358229314307255,6.187954819356106,-5.460833809196436,-3.775447072611562,-5.5908201820790175,6.96512374434447,13.99465380167163,5.7754035068921965
4.128111748847401,2.269502434757982,-2.242591292823898,3.864551551669269,1.6995392392133943,-3.800696838573282,-8.299305043844253,-1.219607215982914,-10.95504335434115,-10.648156319246038,-13.742187767098876,0.7771919215406271,6.229166169618176,-1.3538800595156362
-1.4653591181992258,-2.8594640088683394,-4.244031941476582,-0.9723290106976455,2.0620859848145896,-6.713920350298274,-5.653294824714281,-9.082448117518378,-17.12959644691854,-18.39793320779097,-23.040869935319435,-6.097007035288865,-3.925966994419566,-7.759643713978047
-9.547245881240462,-8.35637880596565,-6.819428842635351,-3.550266979344266,3.0007181377554137,-6.078294236638242,-0.6074516727549684,-12.419147958688264,-21.108134566297807,-22.77234653840447,-28.149439093649093,-9.730775351437348,-10.162543710851754,-10.715810866822988
-11.932921721216749,-8.133214191878803,-6.550295393385953,-4.021336677745254,3.842918504829154,-2.1733334046929897,3.630165316173614,-9.756241757382904,-21.203602988277048,-21.33644065648855,-26.57403284799878,-8.570586547211995,-9.644482358862437,-9.861640682394045
-8.529312701245802,-5.370706094705685,-3.176091720324107,-4.159017528337832,4.059229129681479,2.3940889708010573,7.578092728667169,-4.073428855298653,-17.682469112765233,-15.221566731416242,-20.156515367391066,-4.687023060936898,-5.051250596316973,-7.079700229852883
-3.6008160623245216,-1.364324817178853,-1.3522698564879745,-5.365234119098687,2.6525757071014566,4.913035610034862,10.217327202701911,0.0974677400938812,-12.182383260679655,-8.069049981195814,-12.93472801961848,-1.8448593726454408,-1.6864106576366833,-4.706131952733822
2.142610951199999,2.3172909950108944,-0.4626527530438049,-7.188534666727693,-0.9120207885610484,4.747766365280491,10.829490180741567,0.5617288600580275,-6.542840507163886,-3.1846895704081213,-7.731037755109494,-2.275849555974882,-2.676918084697313,-3.8043942652986136
4.573938501076665,2.815920786110883,0.1282359132870928,-7.856119256159332,-2.9091155122684094,3.506146252512494,11.03426347302629,-1.229498294018863,-2.066445076898892,-1.4369406881776436,-4.677341644721969,-5.159102034771295,-6.824415215926665,-3.940266296858371
2.328749927502266,1.5574986517491018,-0.4577327655041802,-6.232149353512814,-3.564628282774066,3.215222210859088,10.32643072931616,-2.270744618299574,0.5448830854728104,-1.466890224697358,-2.497137965315285,-7.934014686575562,-10.625828953025078,-4.239309571822722
1.3604018906882442,0.7559169225861198,0.2398286404338549,-3.1333019266828472,-3.013888496492563,4.382836015870128,9.355580742945968,-1.033030619046886,1.144372126941234,-1.4482374297881653,-0.4793631117562944,-8.760101045282498,-11.767958387530385,-4.307220377445495
0.6402742082430753,-0.5825777185762013,2.180090521495732,-0.6074206427690054,-0.3784200173875561,5.750932681284676,8.32209171293151,1.5791890567978002,0.4333167362661712,-0.3927958145704191,1.2368699872443705,-7.601918989785657,-10.407330747119865,-4.054290393451014
-0.889519010605081,-1.9560907726932475,2.9075052011935005,0.1082020692471594,0.3905043978434365,5.77173459535326,7.63151609414986,3.8877950832163055,0.1978843746999992,2.017522154546605,3.067929153622549,-5.232555182133753,-7.486105797666079,-2.9275527639369345
-0.0612858662577839,-1.3879683001508156,2.796356971072305,-0.1260057350554113,-0.6611858089202417,4.218363922077513,7.599002893148132,5.541986320377264,2.669437773877794,6.191515484615894,6.85003911507704,-1.7739520096159138,-2.723833702123972,0.1864821366880216
2.660473362241082,1.986016867906164,4.781850255746342,0.8571971771363973,-0.0765099800143414,2.387867061143232,8.218315415342131,7.695246376826134,8.925003357393454,12.50603430550889,14.44346344176999,3.30835915118552,4.967642649867047,5.915975600552348
6.994846249472436,7.938979217320727,8.688339255806264,4.394677134449089,1.457706803016257,1.818819019735182,9.791621943181903,11.194294041318743,17.50013289547922,20.16675758359916,25.11402762666997,9.755346200400965,15.020887800315643,13.180179535040242
10.2190505474067,11.53726649621349,10.687502172590811,9.54473480961703,2.6687001461834243,2.803567309315273,8.688844616164825,14.923558367278968,24.712913328266755,26.558136450126803,34.647278817156426,15.490054674776252,23.81515897307024,19.231078778475705
7.561362351453162,7.980736990876453,11.126340586030524,13.70253119215506,4.006353274870962,4.036720276615308,4.721416685922729,16.268351619298997,26.93653927680664,28.484052918572605,37.87710426883807,17.595312902882632,26.6538142721904,21.321156310713786
0.1498616057512681,-0.1829327029780114,8.561928185250329,14.733848680369109,3.404322235720731,3.657931785858477,-2.4362938441224,13.40454969537948,23.2308562763657,24.73247253814384,32.888170740289645,14.688076838301104,21.81705952423221,18.76255757886711
-9.433515577649604,-10.502163317669382,1.960823532526109,12.72947504365212,0.5175943202548561,0.7838594392723452,-13.93054233278204,7.190471204228023,16.15766246881464,17.63240331088064,23.078845865185272,8.412583875034503,12.805921341239898,13.606726044559746
-14.29752591009366,-15.281681171190634,-0.0327215560381239,9.873725455139509,-0.7736142879506758,-3.695173774192498,-19.277008275801062,0.7790724572672678,10.001407071795324,11.774317814265777,14.88835855409001,2.455220965868385,6.198682511739612,9.253026245826902
-10.026627295250451,-9.638918732561953,2.492534424274424,8.609049587274065,-0.8260806055733224,-7.651178901872475,-18.150362746744403,-2.7479618352087085,7.80281408576802,10.60739299115437,12.929324112541403,-0.1542569258683599,6.614604981516799,8.031520053393479
-3.2972844517637947,-1.984182624683543,4.924449208972388,9.720469187536697,-0.5939846396838794,-9.184568613149684,-15.816877962948151,-2.597812598507998,9.574613269142851,13.769982589883568,16.713512001285466,0.9192473598943696,13.13796373067722,9.667528669646376
2.3268056770350105,4.710815632783381,9.11687568459317,11.937210918876056,0.6944203296204315,-7.949091569604154,-9.742480850920458,-0.4576467289461736,12.94044972236646,17.55026435582136,21.68949740875497,3.593743108670157,20.357765602039397,11.802024381645872
4.162946072600024,6.925834698931089,9.659615121584126,13.268519291339413,1.4274436047012384,-5.355101498344027,-6.589806454809898,1.286744353830097,15.340994083399538,18.115394757813096,23.38846283969987,5.423326556802143,23.039337495256422,12.073093201835258
1.4718190631811776,2.597682085329017,5.754226467870221,12.809894670015902,1.5950601483352331,-3.466862882802088,-7.062848353068181,1.555152913989254,15.82936490467364,14.685368527835791,20.89109875401022,5.446491340863991,20.27191459674459,10.046631106389492
0.1187554302399505,-0.0001670470561632,3.9065999988079,11.441798353575656,2.6020260482625863,-3.391115342777724,-4.861011916954709,1.1050490230096304,15.183164985589038,9.957467000680303,16.87783895347889,4.40799539368989,15.61945496796431,7.470382378790813
3.040226170903922,0.9101691843005864,2.897462292106106,10.890347498575952,4.170259051771482,-4.401404901176617,-1.4911485124687658,1.4096566506678403,14.679520190835508,7.610913298837227,14.82418805210886,3.618628644612341,13.519311047226587,6.6985377392752
6.03727414566124,2.405761642613511,2.2578527366814427,12.049881637908893,5.196224961341075,-4.531827028159789,2.195229232130404,3.1195316275326173,14.837953917750642,9.200176571450182,16.129856245491474,3.758038071949808,15.372877656141371,8.579638809182018
5.562137119504254,3.3874056586929098,3.033814290300831,14.043489215840935,5.801639550727156,-2.2124265580546183,6.987483271664235,5.456625420637785,15.081225951068172,12.997113029191336,19.3587236140987,4.538948756233697,18.655168131303256,11.501676822721176
2.627694075872351,1.6537479609599055,1.5707607149610208,14.808382251682929,5.702697306645326,2.374034382485461,11.912242608820804,6.876793982183924,14.287002009279425,15.44193014995393,21.558374138739303,5.136823473643705,19.39396806842932,12.39928037422505
-4.133953126402188,-3.2150498398785192,-2.0986277475637625,12.713657916907367,4.61701125514252,7.354510337290857,17.011150791033643,6.3038527514514175,11.619442415795897,13.772442111615716,20.216866597570597,4.795881093650584,15.502452496988576,9.049366103337771
-8.270594454830828,-5.754947606644648,-3.706670532588638,7.925501375641268,3.800749556231503,10.608974783016174,19.27718897028593,3.9862383350847033,7.126714137338165,7.843934779609092,14.658645791776738,3.2651588967595178,8.166995735693781,1.9930488175797725
-4.755569196863144,-3.200694498048276,-3.773304120647271,2.4636381335422355,3.148081533303945,11.362185379296289,18.1876419073382,1.4486607832845202,1.8855151496157436,0.1272289424745238,6.5021279263065015,1.024841974413874,0.5877956531627333,-5.3974671740847855
-0.4157206844790467,0.4589206212432203,-2.305884703206497,-1.1364235544401349,3.427706174853216,10.560892084685598,16.039747578744432,0.5803923371746986,-2.405941701623779,-5.838030137850204,-0.9350882273716123,-0.8036513541282098,-4.41563800387932,-8.953804577446572
5.330417304305723,5.60717361734813,1.5978860955113312,-1.6456222228147517,4.998049179355681,9.75936349021442,11.92958120947787,2.3369248758788137,-4.364350222838301,-7.568528200344681,-4.388339420635404,-1.066878395963199,-5.97974696354186,-6.600151553737647
8.075850141595698,7.920877551224493,2.5141338730747287,-0.1435033952803275,3.911851503624873,9.575735280400483,8.045172357397952,5.830268636961132,-3.9609762096126273,-5.245757741958765,-2.979480723440989,0.4638066165950096,-5.186527651520206,-0.0832764988546475
3.2748330081163384,3.5758918128896022,0.3731994239544556,0.6350153677451544,0.1781707328357434,9.147590883176102,4.717071213612312,8.577531701728008,-2.8332515721758647,-1.840274088991046,0.5357238959730046,2.555636741396474,-4.019978779301849,5.87261167043736
-1.0744342643884257,-1.5168694599504875,-3.1832211781162165,-1.6975469827489356,-6.185949747154826,7.058143459293508,-0.4645459696015832,8.05343105573659,-3.296611549406054,-1.345803711466122,1.223858352105209,3.1458881188909533,-4.192866597364355,6.661868858920571
-6.059275418716389,-8.544537228535974,-9.507042618513308,-7.248997161263031,-16.265237687207037,2.829735534347707,-6.986525441493815,3.611037904661135,-6.537520349349874,-5.920714186775424,-4.268452989112836,0.9310954811904724,-6.35526933030127,1.0674002764315365
-8.382463988618854,-12.2225613243793,-11.381028518959711,-13.561034468779642,-19.60977082061712,-2.421574719336693,-9.56286207856916,-2.77817243506935,-11.436169088508883,-13.924101297111957,-14.517816825539873,-3.3634869540462056,-9.848761048832657,-7.743284545075279
-3.360040251941471,-6.631443025679033,-8.375661600225989,-17.357874853813904,-15.757377795748368,-6.749519798184998,-8.01810860525602,-7.791277922587497,-15.215187759307495,-20.678498218946064,-23.75452731956817,-7.277602171735936,-13.103452318822814,-14.386685487958168
0.9285623394524778,0.4449390710285115,-3.955090639025254,-16.993370270571106,-10.60020562149908,-8.815740072059262,-7.3998930696963425,-9.150254161575525,-15.58243449770148,-21.80356053068977,-26.108082108840208,-8.398123531381081,-14.603778706441076,-15.046381914261524
6.223271480973102,10.47841815919721,3.7330280828712743,-13.55335054911589,-1.5973842274529626,-8.710821540410244,-6.62013785800745,-7.155800286805533,-12.589030973500469,-16.60506180056074,-20.31633093393832,-6.1637687493243085,-13.897339137030691,-9.992046314646874
8.398953226708171,15.519128458904294,5.649248895281547,-9.719210970498873,1.1021405259726045,-7.554197414120232,-5.546946520203764,-4.080009245278183,-8.546318782038698,-8.614467957689783,-10.837269246254577,-2.17079837937775,-11.884303284317602,-2.98169908137854
2.15294324582831,7.532875299879523,0.9668294316803554,-7.55499835527349,-3.730010011363276,-6.4311323986903,-4.955153709556699,-2.119805407865915,-6.0767561249705935,-2.7097908962447512,-4.358534458754418,1.163181738171228,-10.107451673223684,1.729249840154666
-2.707702741047348,-1.5328879967407292,-2.8257290406903315,-7.316328757143062,-6.5559539706133805,-5.702418106466032,-0.6811320720853439,-1.88494909985496,-6.091412911045305,-1.3187927446321832,-4.735886339652184,2.282177203547595,-9.651446644353983,2.1886019654748368
-8.312979101805015,-12.723619241545077,-7.881627169991465,-8.188997482115136,-9.82681637265849,-5.147004073689281,7.348852672431201,-2.6582878870457787,-7.486152424686021,-3.028080067615225,-10.602401837740018,1.1274303791313771,-10.61064661112191,-0.7276262257559183
-10.200432337027678,-17.56516604977006,-8.013953875677394,-9.768146914541012,-8.835815540539386,-4.490866710373215,10.274660493206254,-3.739070700313345,-8.619956934542525,-4.5987147800608525,-17.24876318177801,-1.4458438939517737,-12.440767328650502,-4.895119268083498
-3.667337868808432,-8.347007542746654,-1.7496650644389309,-12.361950965418163,-1.8753169348311165,-3.611343775979578,8.359592395873928,-5.152541294625386,-8.919174581607582,-4.174247247345148,-20.5657303337126,-4.470685003367635,-14.561370920396,-8.684908563503459
0.0066276851391796,-0.1549357264113668,1.436563361257802,-15.70697157808887,3.3276162454052214,-2.2816027579534905,6.360249218460491,-6.95659988853461,-8.967252681653358,-2.5418602682045703,-19.472242625342837,-6.987921986069608,-16.423274202671656,-11.289816452811936
4.056877624804207,8.604810270885062,3.047452326440625,-17.7801999879048,8.16015463372561,-0.000631737308586,2.432440663808024,-8.172712328237232,-9.152506292577858,-1.5138136291644018,-15.294413226245316,-7.720326048422179,-17.10089340878649,-11.949199764331572
6.142567746920401,12.63069059805696,2.865481281518772,-15.658460054660672,9.292419965657658,3.574258692426396,0.2005783498609385,-6.955643857280533,-8.561760624624823,-1.4885060254858549,-9.635078045349871,-5.305603974627374,-15.293656942139616,-9.671281679219604
2.863504664566495,6.108910564344585,-0.8668053362845697,-8.271867002833808,5.082102939118111,7.825186293397988,0.3333841150548106,-2.2853465212781203,-5.616193846108359,-0.9547017350382094,-3.287239191089893,0.5087823872312494,-10.333264670218858,-4.315510119198279
5.513880601470068,4.1986941499151325,-1.779436387389568,1.4669394164124574,2.362540598463825,10.884525358273414,-2.3916212920063544,4.373151278531676,-0.0747952164512799,1.5179484901580902,2.983541137496116,7.695084499802618,-3.543302402233169,2.0292674468942584
8.922271985529663,3.3387510995094547,-0.2110165579957343,7.676511742856623,0.0294304677469782,10.508380769523525,-7.197933442875077,9.325000858045538,5.638408824294313,5.010748317317079,7.293254951897369,12.346904184175951,1.5561922527380094,5.323980338807557
8.470970256846703,1.3885154398443575,-2.234527504878744,5.493180369788025,-2.6232550461680284,5.7248917245032445,-10.873959801855772,9.050324598178666,7.5112314338236175,6.325397348397988,7.029622205871704,11.02922247662168,1.0318026172314134,2.1115497171888933
6.792111308241353,2.677825651924036,-6.960754141130487,-5.055506511959001,-4.455195028576852,-2.035601381750459,-14.081634042176075,2.924449277036816,2.972937852180173,2.654579485330548,0.8550688456883533,3.482865624206833,-6.662989513707142,-7.517733962400131
-2.233560987287017,-2.0673686033166154,-12.985219510775798,-18.63892032521118,-9.014180771356578,-9.458168638211784,-16.5158849961686,-6.051641544244861,-6.607432375280393,-5.5804021477389965,-9.567727954713764,-6.684121451692408,-19.08299811493512,-19.29883715054749
-13.147190248383277,-8.832864720757012,-21.376687059287264,-28.21443947654032,-16.2640340715573,-13.390815051570232,-17.5855067110219,-13.20456792541231,-16.30412532049543,-14.473436659530408,-20.00039361165029,-14.240501030665008,-30.92253842191853,-27.50594197513232
-15.536294074066962,-9.735043222869766,-22.985308995641784,-29.791933296562405,-18.17301589064012,-12.968187464551187,-16.37752104845218,-15.298578568831022,-20.898858032898872,-19.34331448891475,-26.109210494017304,-15.920625331473945,-37.24781619982291,-28.996166147584823
-10.95505023767041,-7.26299527423123,-17.043638490114713,-24.65966449539889,-14.837309653590326,-10.127862554595904,-12.40557428609395,-12.411714691701595,-18.51204446072458,-18.086782339853126,-26.031430044626852,-12.516683451026324,-36.42385674393603,-25.22084776436148
-3.1713131363926754,-1.6335604974346385,-12.629777274876764,-17.66329176666715,-10.508455253131938,-8.02285834569797,-8.338185775570974,-7.339101042781531,-11.705386806329557,-12.38451049401855,-21.094358248109984,-7.873421921935456,-30.59277739301081,-20.57859700098485
4.901138927623578,5.315703518186949,-7.720924282739531,-13.395565722962887,-3.4224685844599505,-8.527901742824987,-3.889145761290772,-3.299098416663475,-5.276663401423585,-6.021879737794163,-14.471265459014912,-5.782581353031652,-23.63843836161576,-18.724083892343398
7.491808087118255,7.826991154760703,-4.972768435438765,-13.454120582916406,-0.5892760126530335,-10.820544385207256,-1.651310095641445,-1.832318476318755,-2.6761951766621594,-2.0540649294833946,-9.135059842897247,-7.358210182229861,-18.53968933023072,-20.07921563577017
4.587081480975689,5.891012401617051,-6.018235851798998,-16.398197945890836,-2.9223437435861856,-12.180860054848344,-2.455106060984102,-2.257267340777161,-3.892101639931587,-1.15576591971913,-6.52819957945462,-10.742789460486442,-16.117893760395937,-22.339770256643497
1.4661543761885254,1.8335209201620537,-4.222188619659811,-19.50540399543924,-4.5004978517337095,-10.343522143567732,-0.4412646854632818,-2.6456533015894528,-6.143174157173573,-2.0172720480242816,-6.317270322978331,-12.892289973596446,-15.542160943016029,-22.871315695202064
-0.6100876834615634,-3.666658154686937,-0.4854707031593241,-20.37900103494459,-7.122034336318499,-5.452536342534305,3.804956374061704,-1.320432237081817,-6.354045682790396,-2.8266736780024564,-6.825143971693042,-11.734770872964209,-15.393634441833273,-20.499830552787756
-1.9292444043922323,-7.034750103637973,1.3429273192954012,-17.500818300283395,-6.853195378841925,-0.0033018639152104,6.169344011850971,2.072914860690254,-3.285768212030934,-2.4246056298485854,-5.86227996042756,-7.237550604505151,-14.147952722172016,-15.460552645356945
-1.289906197350752,-5.767454040281332,2.140645717516662,-10.348055356119897,-2.694437111967851,3.158304667242374,7.501329142002495,6.302743590631798,2.002191746091283,-0.6181043585820047,-1.976892587613034,-1.1288301620163723,-10.24420769416847,-8.439187327715395
1.81306254387866,-0.3309063097365713,4.425617971025913,0.1467481570770594,3.0712757494892395,3.079532032897297,6.75292918744616,9.089067698068146,7.129697571996465,1.9432714359601715,4.239575018103835,4.129771359639635,-2.6762015309261398,-0.243397947466109
4.933279727536728,7.281368305118194,7.835578923684819,11.18585749897058,11.80065052933038,1.305060514990808,3.1188048657975886,8.307030976541018,9.784218744394282,3.961825691979744,9.86479800570816,6.512752686704386,7.780937427392317,7.717312874388369
6.676151487091821,11.724345847334904,10.270937136544978,18.905560033955595,15.672126839549462,0.382823682186681,2.049758952668132,3.436722796904931,8.775598442754372,3.9383912403227272,11.240321502466871,5.391102694830769,18.01056488497631,13.3557047844321
4.573464866833439,7.792643501484116,12.056211482039082,20.626248962403096,14.05946478238572,1.6250232612090216,3.3924071806618463,-3.6243195172444698,4.573031198854273,1.089730783572178,6.784936427790753,1.9324987805387728,24.01065030583241,15.064847611989151
-0.9138621215480024,0.0644387719068111,10.268563619138618,17.024082263281123,10.66435102503253,4.100017747662337,4.134044784590875,-9.283377335520155,-0.740510622719377,-3.727200196922617,-1.1720463998649278,-1.4355986070719735,23.86819001207697,13.266562938941236
-6.207228774979915,-8.045159567655679,4.186131307898941,12.145218861769546,3.377259875228615,5.697670610885389,5.370277316869213,-10.452378347912056,-4.279438488692352,-8.04159052676576,-7.449068128946513,-2.4309615704181624,19.796297551350403,10.64758983556591
-9.175077238785883,-13.148223055440036,2.415390307129661,10.78263400039931,1.7856421778410965,5.221686566291398,4.295632120788664,-6.792226028070846,-3.849692695060901,-9.153095808935102,-7.572797821374126,-0.3645496152952336,17.011507797789573,10.477422233840896
-7.088540312602943,-9.394863390265437,4.624899703785274,15.092469240851097,6.683603970524935,3.536139848706508,0.3933690104651575,-1.1380318321521037,0.6281025935701514,-6.037088749799409,-1.1217162626654424,3.4460124036943345,19.857433763407023,14.293402629036652
-1.807266144416455,-1.7013818773562714,7.249664242818642,23.127200855035944,11.31091048405404,2.6959208144326032,-2.9518959053669445,2.4985792708779613,6.853220986242077,-0.24314758194798,7.93092229374251,6.660612012213684,28.239539528427063,20.87819898620689
2.4345029463372088,4.953282363422984,12.116639018031456,30.40141465019808,18.019124423358203,3.9080713120404127,-6.423690671479907,1.902029309063325,11.483782437695904,5.0680744891845855,14.212322838282846,7.54619797294827,37.46347838116223,27.2460721731821
4.567300300673413,8.68484164594602,13.596709357500854,33.14863528298404,19.72139187773289,6.290120784884485,-7.468834579740252,-1.7991979147501298,12.282880903205202,7.292062393386898,14.834201182506543,6.031476211391492,41.75079991632016,30.66053172969796
3.9626840236300183,6.516415050587112,11.136368030483595,30.759778653204528,15.168117665574677,7.631665918727499,-5.28795193298158,-5.259111904039474,9.52005415113268,6.090231039024039,11.083455405154396,3.5404763321810533,38.560786834826914,30.135977353581996
-0.1391457354443303,-0.5095198153505143,10.53513274042118,25.809060349732,11.299737166642824,6.446679178609878,-4.411280928645518,-5.688984994767541,5.578002897506675,3.354096303438709,6.825812828485686,1.9404395821027247,30.22769683393928,26.63916302420106
-2.740132431841668,-6.172311031594484,10.578021157188752,22.007806463356506,6.236595422810845,3.3701075352065457,-4.163889439550109,-2.9177328429184115,3.1095145043021324,1.5517811247517082,5.251392756109573,2.4313200090347724,21.80949982487189,22.248168962732738
-2.207544159072979,-7.025789442734855,10.6593828748217,21.7395604006713,4.399498415929844,0.5928612284803023,-3.999056899608543,0.8562469390159619,3.209645479290057,1.847672173837429,6.6973859345532585,4.977706250641684,17.219867802746016,18.962762591893
-0.5857353595633237,-3.433789076116904,11.626601682829376,24.769268736654737,7.062401755652405,-0.0974299411957506,-4.710599558522018,3.1469762774810075,4.975944588547084,3.485702086351056,9.04947307920985,8.407988445505259,16.8795178787556,17.74590541971859
3.844688264324477,4.292914129720431,10.708467628243934,28.691029466935543,8.394763906190859,1.185522770995548,-4.480894326563396,3.163119087640893,6.625829736704768,4.8081346805552565,9.95962218250261,11.025351609470556,18.442933747481543,18.15646506496095
6.347279684261812,10.347381296835108,7.8771100325643,30.55822882153985,9.677630064648342,2.7354544460210186,-3.391059359905342,2.095293017704704,7.060995499186888,4.874212193947389,8.798675310875868,11.469028642469071,19.36521904790849,18.72650409830628
4.617086617428355,10.00965900700201,6.190039307094312,28.565476968067056,8.618765956649716,2.967118960280777,-1.9570660178549488,1.732217992253056,6.512270878998926,4.163486370850649,6.8076368336114825,9.437199542704825,18.743845726819146,17.888003470913457
2.1405861262958124,5.331645087751294,5.207076862683135,22.826666450414148,4.134613254441282,1.856082812018056,0.1954672366470013,2.797598665477899,5.856408722495491,3.766865862138777,5.6257200810111865,5.827188683069438,17.040419183132986,14.890586459413006
-2.535258687268336,-2.8530232050807967,3.866548051059348,15.009198686568212,0.0453511432137173,0.7950959878104022,5.007316801184747,4.432614683233705,5.478537368490956,3.986580888251072,5.71982043638975,2.138624354715802,14.597360550783828,10.156767792037911
-6.396496792338091,-10.6851415678321,2.665194238317488,7.325812713192656,-4.458375899611815,1.1227497059100031,12.743188920053372,5.127428519980536,4.931750565679868,3.91548678233014,6.14901318812522,-0.4446027581312046,10.9559972214118,4.975137952818672
-5.693757723955269,-11.364856455163874,1.5420189999424596,1.612524564159708,-6.270101892612543,2.791490377192054,16.64500368196484,4.195593979592736,3.734421412801176,2.5784157994041994,5.780355408787324,-1.5706067078761732,5.824412411149154,0.8811411917792888
-3.051789074555985,-6.010908716802226,0.4557539065120495,-1.152744374460556,-4.5090599204458455,4.404883476996892,16.730178885345257,2.531232536292793,2.3603788572240543,0.4828114648311548,4.720892466604801,-1.4775276235977943,0.4558138015755366,-0.9218069802279264
0.2780248694555989,0.905830611176316,1.1619922756257997,-1.0264984909496082,-2.6622371887761878,4.513689221727969,13.648360993156658,2.036765775581466,2.17748661197726,-0.2407043351145397,4.528177205922582,-0.3916126599612157,-2.502952890785238,-0.0240199977929647
3.669031376438613,8.465371486939992,3.8236294827530783,0.8497683547105863,0.2486406089529341,2.936780024206349,5.591296994461887,4.162200392779781,4.1694992552207095,2.368576966343869,6.88082552275306,1.6953255249662438,-1.0813432378127257,2.8691946096496874
4.141772607440521,10.726047298088186,3.886303466771948,2.5002678858228395,0.7938677442015493,0.9551650379753795,2.534625809009768,8.669692768363603,7.657764880355644,7.9383851127687395,11.83970662621219,4.608036347648585,3.8654630430117054,6.018758978048751
1.8158280809428653,5.706792095660618,1.4650904905137387,1.9563540837594928,-1.760043920395803,0.2929326607346469,4.65702845848609,13.573547191461948,10.423043882292692,13.472374346781804,17.291297861875307,7.474900592112188,8.724294609351706,7.40885597995639
0.0895313548462176,0.4997229307957475,-2.7018488582260485,-1.543707487597306,-3.505822378507888,1.789982380227814,8.74960286557971,16.337582178023325,10.315254427100236,15.523184403451154,20.18532024331448,8.881438177177872,9.712210857288394,5.9120142162717
-1.2244380649927502,-5.058113569025512,-9.743980464647748,-6.898540113083117,-5.377458026434116,4.778732117983592,17.301295227998608,15.472986345161804,6.933070380238228,12.96819639395337,18.605034326108328,7.777766869433631,5.76904706031171,1.9870202086330144
-1.7294149674202288,-7.934788519067956,-12.206789569735864,-11.82164322578051,-5.920814729900118,7.509600855067564,19.657022990331345,11.37662850021359,1.8223290128605305,7.786053551591758,12.98392402052684,4.359779105337554,-0.8838911626017687,-2.7892092082851896
-0.5022209457701765,-4.631657682842982,-9.754622175401131,-14.538317261157754,-4.455732413950429,8.237293947180351,15.246937570083167,5.850460813240969,-2.9406553667250206,3.099744344295805,5.565852077202402,0.0428503292468525,-6.952251491332813,-7.022771657287937
-0.238006411861563,-1.825474241030606,-7.4359512247786546,-15.093525868214035,-4.213699513488017,6.292670894700621,7.551608093690701,0.7897206438990825,-6.377843919533013,0.4174829469072971,-1.2474986239940833,-3.517373379692839,-10.826703683323489,-10.428072424654976
-1.319697114684418,-0.4035349486463154,-3.538198047325213,-15.02837414823817,-4.774156314799926,2.5830872153333586,-6.272476258633111,-2.8603779965873333,-8.933675275447793,-1.2356546558942192,-6.177471340958298,-5.482957850657559,-13.265589654008668,-13.484199760272949
-2.128967951057308,0.1641291006557816,-2.6190010735391533,-15.67428691637766,-4.853636991798279,-0.7732197149259088,-11.955966437890778,-5.137391662978279,-11.359918421480211,-3.56750567973977,-9.092723112576644,-6.059246137869723,-15.602735036155316,-16.251484284906486
-2.295021546761121,-1.5634129200452915,-5.572589870789227,-16.72285951838735,-4.956079328316641,-1.620290878481224,-8.700939114257185,-6.3351320368641,-13.471290445849274,-6.62695627499484,-10.226217583581022,-5.859613914313172,-17.633690704187945,-17.740049205297733
-0.8534258776638951,-0.9444924407943396,-5.658912893460784,-16.545251722058712,-3.0352785144027936,0.803559370647716,-3.248378675232411,-6.4334869193385416,-14.138825949807789,-8.396269177487797,-9.69180582499257,-5.221675735706079,-17.585213808605232,-16.70670644484102
2.498699270761593,3.1009638451989363,-3.894927081468498,-14.007821901502837,1.2116321477602758,5.113546112714995,8.038047552144434,-5.293105835280624,-12.547270208803004,-6.885140781583876,-7.778242734046195,-4.182109670870394,-14.27939472815835,-13.190187897226776
4.918657586982912,6.06572812063646,-2.4961187537439806,-9.951792715884457,2.6660395899480096,8.435716736620286,9.94285555020439,-3.284409050764637,-9.36875429801024,-2.537552127522193,-5.399087355229202,-2.9336950622478604,-9.146632712365664,-9.102479814517949
4.530102093936271,6.28312014086446,-0.4194985907050909,-6.742081572633612,1.5250732515212884,8.250718582468439,1.1180847022632094,-1.4738559483136855,-6.502887317933373,1.6985217473907124,-3.818795297283671,-1.9898421294123685,-5.700288288389906,-6.944011094353981
2.344467237892319,3.95788287488974,-0.5078588692527449,-6.202177079143956,-1.0374234308787067,4.163033829788665,-7.37010768978827,-0.9449970220863158,-5.439846360137285,2.9387938645503606,-3.676439703519641,-1.6905180466083838,-6.602195269183666,-7.6052293813014975
-0.9428101504773982,-0.46349471896103,-3.127706866582613,-7.933660161084644,-6.211239788014812,-1.7865299977006028,-19.255705962561944,-1.831061955085147,-5.7655167456871474,1.0839885256526909,-4.324569572089812,-1.6274005110318583,-11.026683700282112,-9.374172436362851
-3.195748448116263,-3.0794778075230966,-4.152576610060937,-9.721681160520223,-8.586033350008535,-6.569078811856332,-22.53078498845617,-3.076252986343942,-5.370649787272006,-1.084308203826005,-4.354386066233564,-0.8585237729366497,-15.020280696470731,-9.361876505795989
-2.7763233052400347,-2.0626756132255704,-4.116850945649838,-9.68062700808356,-7.944878189209238,-8.263036936927161,-15.04430936014636,-3.29421746752453,-2.3927514208715035,-0.6225656199498601,-2.944338695549373,1.0552900169533936,-14.821584028616163,-6.272831969783931
-0.4809724804881911,0.0314904953914021,-4.089714011216482,-8.051824905309347,-8.206933355573947,-7.192402567322935,-10.618902593074369,-1.9853706852225412,2.8071044503174267,2.706984087509948,-0.7040468642038302,3.243577914811958,-10.232723966926166,-1.9602027213637625
1.6433302112847108,0.8886786976762612,-3.3444088032081174,-6.904098759884649,-8.187739248797245,-5.352435340182588,-6.251254923944608,0.0287607977262656,7.553846648346764,6.243220951959858,0.8687132716704689,3.992618117359962,-4.941342101035417,-0.1092390188038034
1.8322332489090984,-0.6951614021302452,-4.06523069769958,-8.07603234446388,-9.198764148268197,-4.750662355307672,-4.397557038755934,1.3526077779261634,8.937103822321507,7.012256460971788,0.7602588675676927,2.2434683975991323,-3.435729017959762,-3.02837094569148
-0.0409604143649225,-3.780620018996445,-6.387258521849752,-11.413734173151054,-11.789731294381324,-6.003110848616766,-7.379294170188228,1.2077649283708531,6.294494940072665,4.429222080220844,-0.7715845115528506,-1.3409855041675538,-7.255172616830739,-9.41984363942399
-3.298465565645142,-5.989021439756328,-7.901118162668447,-14.978834188815604,-12.77434468241244,-8.121042357739244,-5.381772872054059,-0.0440276267689352,1.8444648267742492,0.490358079775322,-2.726467618651899,-4.911182220941587,-13.858915099352044,-15.241076330568823
-5.708587776085643,-5.652612246727884,-9.01562730527039,-16.8854151545253,-12.45184979115228,-9.42911907935829,0.729841018764422,-1.4256908280632778,-1.1562833395758574,-2.4699556552761246,-4.480207853146374,-7.093782859374429,-18.93707362801505,-16.96047405486533
-4.912897660717373,-2.2383647152426325,-8.39837971697796,-16.8606732153167,-10.770126937044353,-8.825698710426405,3.496117388823917,-2.261680933872446,-1.0859070680960468,-3.942677060623584,-6.170969714705015,-8.05874406407328,-19.92170402259889,-14.31066250377782
-1.2258520285103385,2.188383118113916,-5.475207986494975,-16.060081995537452,-7.025262036416385,-6.524221646415079,4.304357153600693,-2.550330126293307,0.9280852987726298,-5.150341075786678,-7.966207052315948,-8.862660522174309,-17.616512842905586,-10.153645812998567
1.747403875352767,2.9734612952895856,-3.8382142042612273,-15.5244161786088,-4.0174107772206025,-3.857427921415006,3.8829261370031154,-2.5416572941831213,2.354183043804447,-7.087843926117438,-9.195943539434426,-9.819715878705106,-14.816342273300538,-7.764574791200763
3.5096057452723888,2.233821270906992,-3.174424169135834,-14.972490585492768,-1.6324654095004731,-2.325773573301806,0.9640954600622424,-2.128885591940186,1.6928576274970135,-9.014753185174836,-8.551223301765344,-9.764679482379693,-13.504091478761111,-8.087033763382902
3.7029151519905623,1.2950049390349485,-2.076786366055082,-13.118636958843808,0.848040072191865,-2.5385892814076456,1.197834600728123,-0.7948792209476636,-0.2553147095649413,-9.024384327799533,-5.325151026717734,-7.1428157556933165,-13.2020460532479,-9.272219625328995
2.080428326233531,0.313718582118463,-1.2039899922708568,-9.072808758362456,2.8094150281437678,-3.7842372267848514,4.7109698055637175,1.81082853045022,-1.30414117151423,-5.972715815977871,-0.3916884924580728,-1.8503497712925352,-11.698273314064371,-8.565947008545864
2.8848428806127693,4.2466659858141895,1.768550114636578,-3.368150341378937,6.191802233277886,-4.557227271892751,6.495212398559991,5.281210289464047,0.0591081220926916,-0.6929793835563967,4.235690058543195,4.148000919186703,-7.209589191264207,-4.646135578787529
5.244793334578624,8.298713393641465,7.11384086050302,2.3219828448504884,11.051272962737215,-3.663461541850897,7.635215997103453,8.468581886709217,3.395654952369348,4.638896950591194,6.950053075409664,8.185515137601016,-0.0373074050269206,1.4842886867848044
5.656169141148347,7.807319602217199,8.733692792676457,6.386554894061847,12.604117278679462,-1.053737255436479,8.230932685604333,10.113567651410904,6.7983148415529095,8.146838845303797,7.683636175506528,8.971568887079286,7.49681016395825,7.400218597319332
3.324359101253874,3.743119657530258,6.778408724737565,8.267461328696555,10.906311115094669,2.2463299063421065,7.511094295596358,9.540291107561062,8.452329075956136,9.248628506898807,7.515098249036567,7.412961100516352,12.549002626033138,10.904943068776133
-0.836918358185569,-3.0408154327901675,4.050546741729799,8.523518514457882,9.358432639413204,4.965807167545865,7.474368383745048,6.906322890940222,7.816092586615877,8.345163413778959,7.235431079172198,5.510932764790123,13.459276828138291,11.196274655599408
-6.537708771315001,-9.128330225218322,-0.775118598827372,8.170759941210184,7.00205570106621,6.39851321130632,7.964555365734123,2.9650493065991057,5.602726073763433,5.991851802027494,6.429047118594294,4.531931545637169,10.566969344974908,9.0188893242731
-9.557974043669976,-10.06502308163997,-2.340702539642056,7.974885193786994,6.359649092704375,6.531386866118575,6.223701667099329,-1.346615436502283,2.9352783647699496,2.6097658154839145,4.037504278262318,4.169045283985955,5.821510122129311,5.984422584433618
-6.922709413367656,-5.779751299296747,-0.056838488228332,8.152482247697828,8.101469946337621,5.573931197281732,2.404459662128903,-5.224403720591809,0.6061662569777173,-1.1673084163568728,-0.2233902882537535,3.241407379802462,1.6202294494912266,3.5648902990805524
-3.569349954923715,-1.555011543684995,0.7571540427430855,8.492205787962309,7.078130014986044,3.570250396773834,-2.397209715159814,-8.175467324654111,-1.0394941785808864,-4.290266805251418,-5.115763080062974,1.0020583462224444,-0.3789965878078938,2.3403852527177342
0.5347126929255276,1.585761208004462,1.3330724361493431,8.686096034995412,3.8059235530535473,0.5905979083739936,-8.762875403597423,-10.098010770918536,-1.828247735058648,-5.78118005795146,-8.611270219770873,-2.1948307315736937,0.1469726115201517,1.9674686759227296
3.62923388132436,2.586181157123051,1.57601788159386,8.654564058145398,1.6889721490063845,-2.762484141743202,-12.545607950071393,-11.211840991543315,-1.6172099307576024,-5.5053238760354,-9.40308672675586,-5.236166120991939,2.3871454426940764,1.875243402616344
2.6360178642818908,0.8636684748675543,0.7125463818972155,8.661540977330253,-0.0426571528578131,-5.290029790413761,-13.335548587787024,-11.787370580383437,-0.4782962550600631,-4.349876023480769,-7.782726183371901,-7.0235231402890905,5.123268658339518,2.043791567341036
1.4363662631833505,0.491137237122894,1.3563361086524082,9.076449373847638,-0.9374520782520096,-5.940266243685001,-13.082318745352286,-11.82194479020884,1.0923350354658874,-3.498438307957505,-5.1882386777445655,-6.994602848030745,7.439366838356344,3.0404870117419183
1.2000452688823753,1.8464303508866675,3.365317562687946,9.89972366017216,-0.408648790592497,-4.793561436151423,-10.61540204174032,-10.98073659385156,2.326632761900944,-3.451200361212238,-3.020984364184333,-5.241160835886374,8.975020043332144,5.189516977691293
1.084777110404347,2.817586133446924,4.138214156213719,10.491724569655531,-0.8757552686721092,-3.253013789748249,-10.46371359380759,-8.956452975287558,2.689848765117529,-3.736091964464833,-1.854322041172729,-2.4467713486350853,9.699998354944077,7.75472488817561
1.6688670724634238,2.797725968498084,4.024419299949721,9.90630617700243,-2.161825791863728,-3.026142548768299,-12.954311561170162,-5.976989691309582,2.2872992278748985,-3.570235724580928,-1.5346447066575708,0.2678892289504784,9.581032616121778,9.179964772297817
2.248562456499261,1.5893805570747657,3.2154264123653014,7.684130941201218,-2.950178023027238,-4.682972757086782,-18.13052649796657,-2.939303510148156,1.7282458576125346,-2.7811240826145607,-1.7322836323486532,1.7442718329466924,8.53894277797999,8.38002001932139
0.7638988452677444,-1.362463368663178,1.1934110384260137,4.396384004424027,-3.656616359422282,-7.13052502487407,-27.400933651528277,-0.9056634105364209,1.5111570125972404,-2.0405478790228204,-2.2329361410613435,1.4361990942485714,6.732307980492954,5.8508149771785565
-1.2261533451399655,-3.381496963967643,0.3417247839361561,1.3363095214396332,-3.9749238205186974,-8.572655954866212,-28.337305585436184,-0.2910791808844504,1.519911223540004,-2.155174832542871,-2.791291793446904,-0.1040476347110841,4.803515143754921,3.373957943094721
-1.5309863665327934,-2.367645845378068,0.6801883285486622,-0.4425873506582991,-3.7329490799169496,-8.098204199316758,-20.49095242552398,-0.4437756912707544,1.182357336094145,-3.117755793441828,-2.9703484464747367,-1.4402360017871825,3.683915219727482,2.45902842221792
-1.94148941455529,-1.37670931581335,1.0807741976684793,-0.8546152790591819,-3.5041591344506857,-6.391421775039408,-8.397185644752142,-0.0767921253840575,0.1827555244477841,-3.927165738042621,-2.3780948098872265,-1.2199135028537071,3.9531435037535383,2.992784134493366
-1.0909418550944676,0.0428938223039259,2.0839485234497164,-0.5988178798484887,-3.182559299441077,-4.898490649189252,11.157320351888291,1.69670019049825,-1.0304702271113235,-3.493335866920129,-1.167053736829871,0.7636341992689122,5.239727683015116,3.407524268108346
0.9422330899975326,1.8860934322009983,2.4736946891855576,-0.313592505673343,-2.472615988531541,-4.307508770202752,19.787101459533623,4.541821011737982,-1.5899277533163865,-1.852185675431394,-0.2162870078005108,3.29359753893188,6.268540365336679,2.1943446296449496
1.1844591011316334,1.8414351178328128,2.117326417936284,0.0305393312160564,-1.4365307591473362,-3.86448290526392,16.17979720097121,7.032077631419248,-1.1696918334416733,-0.4508547655938244,-0.5775684176268232,4.560868593774558,5.723135183402096,-0.677589839259066
0.5765157751016864,1.622724557803921,2.090650057968267,0.920815189498338,0.6359178133003431,-2.1825912292988114,14.163693786932631,7.733719716739023,-0.5494615125255891,-0.9805319785965878,-2.445761082787188,3.5304198650316287,3.383198627622626,-3.674993529158778
-0.4085098746785478,1.6519676215950454,2.1122071293475635,2.5982751141935534,3.8702007934458247,1.288494806143941,9.400036722448965,6.419533590774568,-1.0289214304161227,-3.620463273382594,-4.52395597941789,0.7994114699961763,0.5953624092002503,-4.87116821520112
-1.7834448869381476,0.3046930416960685,2.3043901798641184,4.650019939943661,5.731943116943347,5.575183870069802,9.213823452339277,4.371665981226036,-3.1183125964679856,-6.354308224295536,-4.587475386921477,-1.7376466924737777,-0.5296510264396979,-3.266572683359243
-2.0474722764856907,-1.4370995483339166,2.8151855918424284,6.27446127431195,6.228361125643416,8.897068834973302,15.706213402543703,3.4056645248070296,-5.829080690364667,-6.318216992515541,-1.1735641357398512,-2.205323334819739,1.1744740464961998,0.7011585932821092
-0.2468375975224216,-1.2008882041850828,3.184207859164168,6.863903305267492,4.989450550314823,10.06640305113322,18.394057241503504,4.334973650185443,-7.428885504568765,-2.327259263465839,4.798567478647183,-0.090701490886075,4.616748759509204,5.544263974322892
1.5741544808016423,-0.9445181006903496,3.469883139944485,6.333117535238248,1.2755247992270662,9.307616729667924,19.253472600918904,6.174032996878381,-7.042468611303431,3.613326648938539,10.025732147992429,3.3666585564781,6.852510411843412,9.493215283406157
1.7821858601124865,-0.5816516556260928,2.9891067545693044,5.038100348808213,-0.6849383621147469,7.892056170144162,18.629264208223365,6.851529704802903,-5.508432480947174,7.461282947766771,10.944800460080849,6.028182340467598,5.3129738004153655,11.20363234368758
0.9567175544148244,0.5711493547800395,1.5824489478799608,3.5511418870549303,-0.9821044489755998,7.062020756315006,14.837630362902315,4.923513356819241,-4.572604012612075,6.350601066292915,6.615746754134021,6.33516421559348,0.2732259822687553,10.253508688656098
-0.7072744241949732,-0.9020605381269688,-0.1060315241135145,2.4911520178635413,0.8979491946915016,7.1987358976445,10.598434309579018,0.84919027373369,-5.203076990858168,1.2033201531185078,-0.0912520996765131,4.33458194795611,-4.717071761175255,7.315715202621002
-1.0692861646717018,-1.8525251870221895,-2.2900528679719225,2.303587988545196,6.109754940137352,7.798705771570582,5.419008488571372,-3.283575188530765,-6.747791811670442,-3.7388715219342927,-4.429606127010654,1.505325890004574,-5.397983584392442,3.7962390464786218
0.7245056291462086,-0.9141752892275689,-2.494272683431948,2.906341912561769,8.771793465888381,8.083942063720793,3.1691842237175787,-5.347350274137064,-7.772540578328972,-4.3681922205336114,-3.595950872374047,-0.4515539351005344,-0.678162484993118,0.9583350292273104
2.5918191585487484,0.1478767789133324,-0.4123145053794788,3.505930806947429,9.077267813503374,7.6563518428874815,4.652411413354858,-4.692834825453378,-7.62381168910229,-0.2612699872633648,0.7938290301241224,-0.8782428634295787,5.55771916868925,-0.9061150034751256
2.336950411292706,2.088332870336247,2.062764256513687,3.037554284747996,7.286311429238841,6.724776961751251,6.341201064293577,-2.3377756415113677,-6.998844470408166,4.909414300259401,4.013171053109016,-0.4463654969155826,6.9292754314135685,-2.4801331868713543
-0.6973724306224668,1.8993225805885992,5.595930273615488,1.1627361896319606,1.937847981478461,5.848357242538787,9.394433512630805,0.1588426200312653,-6.91421529867133,6.6581963827004245,2.5037978750280416,-0.2471767853174142,-0.0464935071648184,-4.4226313250301175
-4.026668370484344,-0.2269411484401634,7.028860349268037,-1.0158986928925806,-0.4210478878399669,5.480717568779298,8.437310643531614,1.956118177150252,-7.236046054550911,3.818553940398672,-2.5734763968978958,-0.5352192954639357,-12.047755201242378,-6.213061746434221
-4.668092410396721,-1.319759613025013,5.89836104510343,-1.4477982455884089,0.1321399660390955,5.659819926045422,2.624211767074544,3.191040058493698,-6.446758943086071,-0.2448631697676013,-5.885568170834546,-0.3496273007894075,-20.351797768021715,-6.080300171866497
-1.526018995883334,-0.73905153462609,4.612829243925103,1.2025053617511858,1.1311779088505802,5.989768484228112,-2.473294235675259,4.233523676163401,-3.01776077991299,-0.5585565318982155,-2.40953605684102,1.5120673752485985,-17.148749392936796,-2.415014482447276
3.897393776197282,3.2360418932381805,2.299925599108701,6.002331954331957,4.048807484354716,5.821820068898187,-8.219590577253495,4.926142630515471,2.9429537049186933,4.956927761453294,7.926660690651559,4.994027604250288,-1.935479442623212,4.393749599344726
7.365581338706241,7.35912035437485,0.1705733039457761,9.841348221511424,4.579886398977292,4.478824417581141,-12.309892836062447,4.660613295209316,9.40690928852445,13.435298853787623,19.55516097457313,8.233668210453288,17.39544995394045,11.436982141516594
5.823854364548745,6.614327531759169,-1.4932939958048912,9.496765019686675,2.4253095754471587,1.4998420896709916,-13.759880651938005,3.1188595578966023,13.789617980219818,19.28867575980045,25.280673371997533,8.725488253644635,29.987845629880297,14.899181783391125
1.3437918711315324,2.9533993062262835,-3.768961141636396,4.245382010645713,0.5267609422908047,-3.0223780676888765,-17.28121454535778,0.7560433413603747,14.690892883338066,18.699488541383857,21.68226705262729,5.383730010961685,29.738390065518296,12.760887227907688
-2.998519724098609,-3.524034205772743,-6.306697245660256,-3.164941523956113,-2.124416858184547,-8.11057787509055,-22.21320946325214,-1.5706016590628202,12.511629593703084,12.43555259135011,11.4385086028448,-0.3055548944138557,19.105711484631826,6.389271304925309
-5.675240826266235,-9.866895158199048,-8.754246386420037,-8.287724867947574,-4.447254455029299,-11.973526311692453,-23.22499401799057,-3.441823383482628,8.627099593683646,4.681474637137779,0.7921536927819268,-5.242929279295019,6.143577138737367,-0.4629557177137542
-5.3179932081752135,-10.365424963390096,-11.165350340432653,-8.389311525814858,-6.093680544925961,-12.827331142504208,-20.66849448636568,-5.269606061153056,4.0830674203760005,-0.8396877282637369,-5.560481447971885,-7.172795993517042,-2.406575835896291,-4.60798319012002
-3.518668018368079,-7.510461627123657,-12.980852517537862,-4.836559908180291,-8.084735430370669,-10.196983260209958,-15.03127579173256,-7.815327731242295,-1.0053601892824986,-3.9203677831764594,-7.8903868779538655,-6.599020722498768,-6.015097667547003,-5.93965159088296
-4.323959077009622,-4.326331082541742,-14.05887043016565,-2.32132235288346,-10.069931687818906,-5.702787155271093,-5.037282770209718,-11.310868531339516,-6.99139376457963,-7.492311485640448,-10.492867979125,-6.412356351171994,-9.382628654502591,-7.339339796290426
-4.38528233805506,0.075181207084202,-12.965858378534046,-5.193565250525706,-10.164861750956096,-2.364769400532751,1.239735248049456,-14.99692078838588,-13.729839307383298,-14.30550062132741,-17.325696535616817,-9.348596501356283,-16.950019824867255,-11.903797327843892
-1.1915500207858956,3.632378706964222,-9.31883616737371,-13.637208745791686,-8.246297099613095,-2.545497030982002,3.543446190767632,-17.38554094322735,-19.93169022100692,-23.64561334026652,-27.85740768961341,-15.284445715748276,-28.01853321063254,-19.73482268926736
0.2945428088249983,2.431372352810165,-6.684016331314728,-22.857264658952342,-6.376514152663575,-5.986485967515696,5.387054821259568,-16.90413554983172,-23.33414466678146,-30.978595455966577,-36.532492287943725,-20.67129849064396,-36.735879583985565,-27.077624300545885
5.208696724503305,3.5052760545306065,-4.80107449833767,-26.263126731839854,-4.152362352731322,-9.659450275333706,4.778096974725443,-12.503906506626578,-21.690797832327974,-30.97398157179327,-36.47252075777564,-20.812368664670444,-36.77940427498331,-28.80548250606736
9.283547156309227,5.240509165002602,-3.2869929802897846,-20.4280389789468,-2.095593483319417,-9.858708901103244,4.457952749226148,-4.1935102606204016,-14.183376036531037,-21.6295024112873,-24.798335893484964,-13.444121649056504,-26.602880819064488,-22.4893561530296
6.271353959522685,3.762767065091046,-2.9374207461336,-7.991596784402692,-0.6032677296393135,-5.075686867678051,4.546918243168352,6.439723584466045,-2.5144782985755505,-6.311190319476685,-5.597153190769703,-0.9418487807561338,-10.912302388363454,-10.811483963195776
5.92054096411695,7.532601531277586,-0.5079500338034973,3.899176112973385,1.853063419236351,2.6125510679475195,6.776200082897629,16.11240540596114,9.200633506257486,7.948194227783817,11.936669652485126,10.665713297743098,2.5854423630558423,-0.186156089803906
3.052263731423958,7.728805113189109,4.001087609945252,8.56804619581855,5.076339670200676,8.848277610481174,12.070551776327044,20.84174834412749,16.183075691509895,14.775824853037822,19.23546153886953,15.41781243947883,8.318667136855847,3.618869249429535
-1.4751348843652787,2.9940407015878607,5.299871097567324,4.462474437498063,5.3492809837646265,10.095201990987166,15.229927955990494,18.13665157000009,15.71634700861145,12.36590518800094,14.050771455102767,11.379199511439833,5.945448468752588,-0.3852762875416097
-1.0223058266176213,0.3713515502311322,3.7179425068113896,-4.012811787327006,2.587697078513787,6.225773713771618,16.738042334055855,9.125864240065818,9.113827664105786,4.259679464230104,1.9433248422068077,2.021198165883218,-0.4296110526252104,-7.723752202369597
-2.6599602791973846,-4.68875093864491,3.394245334263852,-9.985457062118748,0.8568329294357697,0.6652538532598209,15.012423141101578,-1.2985970422197664,1.2511921461637838,-3.389050476265778,-7.687235277109819,-6.057927266797847,-5.6685796637205925,-11.82522631263592
-2.9747703597902766,-6.115984247168564,3.457700390576764,-9.14442976627844,-0.5255232956082198,-2.0282068217014637,8.74876380919797,-7.145835831178534,-2.446244702065512,-5.948036992755352,-8.236169831494179,-7.559561733843658,-6.85945987474974,-8.91165674104583
-1.5152630818035144,-3.3765324980563065,4.1439137164290765,-2.539391699927796,-1.043989705225875,0.5487338399140054,5.416489019466926,-5.327730873020547,0.3640162593494267,-2.926247715691197,-0.3111106880389744,-1.9613654734474544,-4.4187169892279,-0.7044280831097662
-3.1310199615647405,-3.2723475687823145,6.157438500719995,4.678251981089808,0.1027803997425109,6.768373979588272,4.618543673726319,1.9629229054560915,7.365305367252223,2.4523781201913586,9.279578690884318,6.387690320161116,-0.9422320304398148,7.035236460354087
-4.641662248848043,-4.694202352971195,3.347759545671064,7.266117922346524,-2.516284632875277,11.853087846071194,1.7718496562942323,8.57555027121407,13.331279131161764,5.957673317081927,12.995428658859758,11.519286698982814,0.916268366526225,8.893849777108729
-8.017812826687273,-9.708829372341093,-4.490301661216652,3.525901085550601,-8.889874478078783,11.07366207627542,-1.7848556854653364,8.728094354095177,13.926917773482998,5.199441443901328,8.165788861833136,10.003677799915,0.1101373544741015,3.74148576059293
-9.882413065870622,-12.497744099256778,-6.163460795308369,-3.869159637033455,-10.761770127031337,3.248975757538375,-5.515101812981023,1.2275837076349063,8.722021442028819,0.8422537331241884,-1.4230576682881164,3.0675489650071768,-2.3462940161927186,-4.612872450433283
-5.662440404641952,-6.93246409154259,-2.330854622878817,-9.972247011621157,-8.763528308033694,-7.88554417232325,-9.90503999031297,-9.534749317503444,1.3034945586917104,-4.132622385177456,-8.714554569748309,-4.581998553611356,-4.109434571001209,-10.238322594443677
-0.0072577180851408,0.914610638662257,4.349550482764912,-10.75497918976924,-3.5784391622033995,-15.70935475966153,-9.9406702172067,-16.521784532191862,-3.3206199747836216,-6.255672226101623,-8.466091729822434,-8.049449477998678,-2.8871943417098755,-9.051887293559098
9.243834667636987,12.318976449677,16.361152039927234,-5.290511281625967,6.681301173307298,-15.136679365876368,-5.170973779682055,-14.755843086011282,-1.9483040989746243,-3.3922858273056637,-0.3919995368381315,-5.216131728814624,2.2590756499626536,-1.1276482015553313
15.079070703914653,18.081943647453294,19.820853344238067,4.046623617169729,10.945842062543568,-6.440990744869204,-2.104823450774986,-4.498971134556797,5.094083268422615,4.151440947069503,11.392095938597487,2.404912670563526,10.32061178908392,9.862734595168568
11.41434244563906,11.817939558578512,13.939504403963008,13.029362721673351,8.931548696933072,4.526272485713434,0.2302881653161347,9.08808773259132,14.449543070492162,13.595700817797905,21.43891101259992,10.991321217171318,18.726235709862596,19.143912444419872
8.022690175800578,7.300738612527748,9.330979068463591,17.726410007595945,5.8302032379812285,10.3169255697128,-1.6865793712769128,19.283567727790214,21.703451255775228,20.867032957555622,26.023010153193766,16.670288854239146,24.505559623100897,23.34355549992357
2.3115016857015345,1.2740396404277172,2.8544601310444224,16.40180070893671,-1.00642298616353,7.337333600503129,-9.469713018175325,21.763272899590923,23.57929901733388,22.68832043456341,24.46043811847037,17.33257880245857,25.66317806889704,21.668754443693658
-3.1652974309195,-3.8395210060727374,-0.8499275652649892,10.372265659961869,-4.4462974292992365,-1.468592385844829,-13.714471382368048,16.728553069148823,19.39168939119834,18.542802996368195,18.613324120692404,13.28386895307979,22.088793503480854,15.64226247116651
-2.0870327142774823,-1.6947438744252614,-0.1524911207434175,3.27781490138338,-3.821211497990644,-9.006958117258819,-15.317219168841124,8.185801626284714,11.226744402479426,11.10719573935144,11.44622514174928,6.728488053821259,15.512188228295692,8.03572932726805
-3.1641587902399952,-3.763718517087428,-2.211507024757911,-1.089442217855492,-2.672746795836276,-9.686594016572386,-12.864385136061433,1.1610423505746963,2.73052677906815,4.509254157355215,5.486170663226133,0.4846591501551103,8.46309955597863,1.616896155360891
-5.275166067555553,-6.684082841766934,-5.676150113128742,-1.1983657897476476,0.8960533424099298,-3.710257330307826,-4.155735853265996,-1.281907265768659,-2.993282847232763,1.440145391917973,1.7425749765988456,-3.4537935430275013,2.8072166445662106,-1.938495453311276
-4.369827238649612,-5.13875160159819,-6.802352326520854,1.302414854001924,2.0169038548257565,3.535862922564604,0.4788428478366925,0.540255734163182,-5.162059932143613,1.3391796829223708,-0.4919811299747891,-4.794009971986036,-1.161330976689527,-2.652157387061145
-4.19579554739065,-3.758948673654664,-6.368926916137919,3.033459177730641,0.3070920536009432,6.320828379214724,1.5865528330927825,3.73609370157584,-5.485350227893271,1.2248377864325874,-2.7947844721067696,-4.747464562191112,-4.3635476329353935,-2.0054276449382016
-4.1479637095882085,-1.360903482916966,-6.664228924496662,1.676012352355528,-2.439371900390715,3.342096707098804,1.8833756199895408,5.117711300948542,-6.5150928730452975,-1.4767132260311158,-6.198969778685566,-4.887116102682072,-7.60337717679743,-1.8297728524277372
-2.712004944904784,1.6352881584025123,-7.25475432895217,-2.1997853025764584,-7.535541504980236,-1.6368484377279913,-0.8377956129881396,3.324386465823892,-9.476514366023714,-6.599212139841917,-10.276827169584209,-5.8892508107145005,-10.49447795233273,-2.9728193174520428
-1.8244593488993976,1.5669964085659946,-7.554479578051412,-5.837455611087648,-8.818687917706981,-3.547986549301868,-1.5028256847095838,-0.6065653895533671,-13.399824949210078,-11.4922929211536,-13.517391144593262,-7.12719457361834,-11.754465193079923,-4.745084040914705
-0.592881568518417,0.5635287804637119,-7.93409060483215,-6.830121258892731,-5.91731259823654,-0.5988408756286532,-0.0605685155030935,-4.41065494201689,-16.217709462951824,-13.530909427900667,-14.673893703954109,-7.403612153550512,-10.646180030466065,-5.63341373037818
2.200228899405152,1.0981475108217418,-5.583548491316613,-5.128507251454209,-3.1122321427122674,4.361576024388299,-0.2239517589382913,-6.40646140618864,-16.68430147258988,-12.407351514693843,-13.814987661490449,-6.141056214527296,-8.052650975770248,-4.685475113339038
