AF3,F7,F3,FC5,T7,P7,O1,O2,P8,T8,FC6,F4,F8,AF4
0.5147894183182681,-3.3423213356267603,0.0309346864729297,1.4096223508443415,10.462845028863269,7.13248342365774,1.99284924688078,-10.628411291617551,-5.969615848913288,-12.647044625444568,-7.773589987758853,-3.7882800517452377,-13.219910351571396,-2.3167549877688067
0.8331321178803385,-2.7015841352445675,1.6014378603418178,5.487832484942024,6.304181413293297,4.524428742501462,-0.6268002001815371,-9.216476578681332,-6.053892655967436,-11.1925058829362,-7.569471921381735,-2.4134165870002544,-11.246148344256252,-0.7227975077838449
0.2384150864859652,-3.287898815385386,3.411678711326046,8.044500144578583,2.5425978568057803,2.312053088769203,-3.465168897171913,-4.539878667294375,-4.114681728338658,-5.653620375945675,-6.286185924770599,-0.5151362839504778,-8.55084146364591,-0.4420080636626791
-1.070421757277982,-3.106840128093615,3.736608180646399,6.154154629152509,0.557672596777279,-0.5340859285634704,-5.913860111431047,-2.499103424400676,-2.164247319611686,-3.569402335627165,-4.312937326038821,0.6957585659013481,-7.136755952246088,-1.5508744189490875
-2.65258872733813,-3.2641786473419696,1.90981564863962,0.3102185755602287,-1.9009031555118,-2.779879129864946,-5.909636620243149,-2.843985898052583,-2.403109600603793,-4.987854599926944,-2.564848517218144,0.6280023107984816,-7.61612951144185,-3.4020254419859355
-6.365873294133225,-4.576623054780958,-1.049992320686555,-6.008644880619214,-3.1222496551011125,-4.468964001054721,-5.316028230225047,-6.384784493879357,-5.295929419695131,-6.3288570504967705,-2.0924650409893766,-0.3647581217468496,-9.093202470590631,-5.188079687720084
-10.473430543283367,-4.467790266377008,-4.342744832669207,-9.227115880096598,-4.24615953600168,-7.664228882719609,-4.930699130019119,-14.687475748339471,-9.02895320544343,-9.28518254638486,-3.421269161049063,-1.5148474307316984,-9.973184320351406,-6.368845094481992
-12.096924638370604,-4.266865198444201,-5.124125077147439,-8.478576040690864,-6.329716985323361,-8.672927197982098,-3.725206479312961,-15.874194287544936,-10.839623107727068,-7.98667256216415,-5.919445156275389,-2.357491970701764,-8.901364054611602,-6.759386120963304
-11.10689581177472,-4.02459358912993,-2.495501059077794,-5.934755709810517,-7.7948406646877935,-6.706742621795977,-2.9310256071375065,-9.831422477264825,-9.081061507052787,-1.7916886760483084,-7.722501883838543,-2.869844862210858,-5.347703721708328,-6.397305175843149
-8.736336249571659,-2.3495729575834314,0.1480329393291449,-4.539961064007156,-8.978004012287567,-4.950063034777386,-2.002485102317954,-0.8894428598384061,-4.325400184125583,5.3131314908733085,-6.619343104887968,-3.044595696616181,0.1721438661817322,-5.4036075024930375
-4.674911501031109,-1.108349818362619,2.856183076631672,-5.340106543192526,-10.099376085778715,-0.4545738822700729,0.3652585271667773,13.833267700190842,1.2363794134938424,14.853478782052791,-1.6169460647345737,-2.6033632700333085,6.16786750643573,-3.95613160068738
-2.327310214464795,-0.3842760694662465,3.663039676582894,-6.829791190776621,-9.922876133072984,2.1123355021386825,1.6816231477976027,19.20238330889724,5.373697799582532,17.871854710868522,5.892822586169432,-1.3157580246746252,10.631479898807934,-2.3494774948286565
-1.4798221572230472,0.4786275509479021,1.3182495625413977,-6.742317071385012,-9.049700931754586,-0.4579447698251581,1.733926624898476,14.09309102322381,7.044327261167501,13.226727406958869,12.492911810683102,0.4727394922743713,11.907124462698484,-1.011044326534119
0.8350036509355705,0.8937072688243247,0.184558457067871,-4.410266133160728,-7.368114295822684,-1.6008620313482564,2.4136765433187635,9.946073381016696,6.569801012923724,9.27358648041364,14.734841320521298,1.8894374252931536,9.61131801187576,-0.3504059909725727
2.04756845506424,1.2736841848466982,-0.7768605791798551,-1.4036008863753018,-4.340798317276038,-4.464983960125447,1.9621115672676717,3.181227611109981,5.057267978363728,3.7769162616086103,11.495076971807563,2.3017268783955576,4.973976958202027,-0.47339696359826
2.6595820157899017,1.1384846139590097,-1.7164932739054628,0.0606508429992533,-2.7997341498872075,-6.627070339421453,1.930202664055608,1.907991383496492,3.725877378232356,1.0883261360691387,4.902093814382,1.9942953265245835,0.236606142250523,-1.0038123110398895
2.4120276463853383,0.1003893634577214,-1.0603861857317436,-0.7337192446936416,-1.7822989182447375,-3.2066252308548253,3.5432620555247523,8.079294052124247,3.423406438807147,2.6739169025737453,-1.0220765271010923,1.890359567526456,-2.5980955790657654,-1.2751640108174038
-0.3755414664560647,-1.4568177524345394,-1.4778693469943502,-2.4059288294878574,-0.2845927688545667,-0.7914153557365811,4.359953915893518,11.111052342189762,4.2587270272694,1.5042287756842825,-3.1168518185154603,2.4898952094501867,-2.8746396419473506,-0.851531446007652
-3.5087122991537534,-3.940384207939452,-1.7458253208367376,-2.9085904764834085,-0.278751398706662,2.1329721918423967,5.563679478948228,13.139572332092,5.421198250623516,-1.189308311052829,-1.191925830456212,3.188298115490996,-1.5268534290489246,0.0540367399824622
-5.1281533278420985,-4.9032750232709175,-0.7184577626461002,-1.4718772062433385,1.5653048847889166,5.146800671162878,6.456588324159763,13.327393818043705,5.538315380629391,-2.910403227282952,2.1254669656934624,2.85428612861324,-0.2963746847582555,0.7171400883493847
-5.747831003414646,-4.260823548628416,-0.1703395605329659,0.8200747909192545,3.2124798615569183,3.5484722481087454,5.739966440279377,9.925229234267608,3.662494278912307,-4.605761633046567,3.670093093141024,1.171392381244024,-0.4420808076563429,0.5597800733062663
-5.911128309759471,-4.0608343493886,0.5279019181314185,2.221377406633115,2.930531454616132,1.8644358262872185,5.023147157069455,7.182652109424387,0.2341591874219188,-6.351373297206195,2.3098318968771823,-0.7193473162818109,-1.818841360291414,-0.2596723957416031
-5.467572501131114,-2.2742756728763496,1.010683823703344,1.9576052904392487,4.924608318327225,0.3441176798236735,3.777925324973552,4.40256650506248,-2.964279676302464,-7.9375541281494435,-0.2805496899118553,-1.1278841399926156,-3.012979769882688,-0.918474185044368
-5.481258868043745,-1.3562274260206362,0.6925833915623199,0.7198001351531964,4.090159181864534,-1.7464131291980536,2.963218587872265,2.01512954579854,-4.11914645556968,-8.64208079243213,-1.2550245918431564,0.510132502883045,-2.513415039105872,-0.6383579451535786
-4.919246961901659,-2.1608736443111902,0.98728318538892,-0.2551301516856616,1.2258696233062087,-1.9687832991987704,2.8095150965210927,0.779579643294307,-2.960101228787865,-8.335905590821465,0.7736426508339944,2.892870060528526,-0.0812941053663198,0.6256136653730069
-2.914261324800268,-1.2267758717485076,2.083068861190788,-0.391101976846087,0.4690579084281481,-2.151202930800024,2.3170047346231324,-0.521269729706499,-1.1314271342375912,-7.387757309160113,4.375426481360837,3.896194433578703,2.8002495625571826,2.1552314154323167
-1.0180268866266131,-1.21622902061086,3.172871604712197,-0.0474733394465922,-4.281803707813936,-3.1179329727721736,2.412435561019732,-1.490992818924735,-0.8740097349519855,-5.549590416278371,6.387730860547814,2.471704605959682,3.8919425186087167,3.095720802440828
0.0225768600103182,-2.2387028289403275,2.881748791229884,0.2116159447085959,-6.698000685199841,-3.06874330004023,1.1923919367843718,-2.4437328401715885,-3.112736507564552,-4.9674483890849945,4.506241341112667,-0.4104251458511205,1.92102542730365,3.1270679372662995
0.0170531046051957,-1.9212352513949569,0.9357790094365368,0.3571417199408131,-4.034710657779431,-1.378575014154144,-0.4713763865353791,-3.492512697073848,-6.658317440160742,-5.8183371569478215,-0.8218485305513088,-2.654120580036233,-2.320909344129068,2.5867186813802823
-1.0996050088976794,-3.0745743698344423,-1.3389104860138492,0.7625359898516972,-4.015209771217382,0.6929340065911145,-1.4188379438196923,-4.298778969637715,-9.228972668902092,-3.955757706359338,-6.740335814093227,-2.883384614688786,-6.451592935387879,2.013726331499374
-2.658090012525148,-4.990840365282486,-3.312802018895604,1.3973250928477643,-0.8500370036235825,3.7078975058636736,-4.055536991889786,-4.9621000513363205,-9.335137649627228,0.3550826052331349,-10.163983864897125,-1.5178582250287036,-8.200245103926312,1.6063756526383113
-2.200547625702472,-3.963715352019332,-2.84474179099636,1.3917218891111238,1.5260129050004418,5.681468648695685,-4.878626447682861,-5.697714437891256,-7.350079011110922,3.2427144125552245,-9.941319004271309,-0.1931826893982162,-6.972988731746362,1.0961430284288092
-0.8571901060977717,-3.092020235648292,-0.6147376124692557,-0.3041649601758172,-2.030137170587148,3.8128326216825776,-4.323544611982194,-6.494719206512767,-4.937514053242477,5.313312059389059,-7.352625289552952,-0.2137536407187614,-4.067512283476769,0.1086860122047457
0.3791149420412845,-2.3224648788906563,-0.5677562199520072,-3.633280335914934,-3.421551136686014,1.511708625557762,-5.238456672185144,-8.05370786711364,-3.5249768508705754,4.205855123158057,-4.798210336745003,-1.5105797624506487,-1.4918262878670143,-1.352445783571716
3.362220256785041,1.297614840749752,-1.386824735744133,-6.832751199733358,-6.087138017813796,-1.2916834854710315,-3.754909057964668,-10.505580484021795,-3.2488945316539315,-1.076016742708071,-3.9274369899505377,-2.9365272703755383,-0.4533136332244254,-2.7427371497151443
4.039252223689586,1.5853380049433197,-2.281716969292058,-7.416200716045729,-8.227409928579403,-3.614343776953455,-3.6409001514995394,-12.240090799480898,-3.186804179978496,-4.211313216094709,-4.667623849185355,-3.4431514148760787,-0.7148233381979301,-3.2913779941215875
3.564045006663784,0.6116192282455134,-2.6585935436562176,-4.206161096800894,-4.811003919649094,-2.152216330963274,-6.187564268972069,-13.362330289356704,-2.455998728278714,-5.7526005638079365,-5.68978064883968,-2.977740020510718,-1.158635106627524,-2.563319678778697
4.654031533087019,1.9759882903967831,0.5666514708013892,1.266755979621471,-2.2297741342848494,-0.516615009116448,-6.860274319127441,-13.099607400960494,-1.079607078695882,-5.644508913243129,-5.701467828305285,-2.3541603663715964,-0.8971345728843447,-0.842034538045346
3.16157359142359,-0.39214501938731,4.473301880855741,5.410892215901015,1.4298205645352295,0.9054030937913858,-9.416014038350497,-10.986293201209373,0.0976934803788691,-2.4677923914403457,-4.459118738670648,-2.352500090968233,0.0499258621722042,0.9708859940376512
2.920527927307666,-1.0765509517417278,5.375750900687099,5.064619881479339,4.129593741648823,1.876669826445692,-11.521031238442552,-9.16103508014041,0.2346641557186171,-1.2792041300362438,-2.7828868169706547,-2.942876690490952,0.9780501143795864,1.902791749932173
3.923860319636716,0.2041720555171521,3.427133993102264,-0.0113200481698454,1.5253515551067205,-0.4435879844984193,-10.662381425854717,-7.366315970420712,-0.7415404919223969,-1.7996743362348704,-1.7175252524657525,-3.321644986718995,1.2836069054134829,1.5440137324618577
2.2834229405263584,-2.2929284177641938,-0.6234010220805424,-6.692115679572211,-0.3151717150368952,-3.2600511599835498,-11.220206583204916,-5.741880238516124,-2.052473110045592,-3.101696603115249,-1.6349293760739214,-2.6744782701645584,1.0598018053485676,0.329488702954797
2.557048981281045,-2.193492145077089,-4.122831696650443,-10.622124534329126,-3.33450159324448,-6.005776795622031,-10.762384042856624,-4.7342166464155175,-2.6488641239447483,-6.284962985240583,-2.0371077098395327,-0.9590918810841288,0.9884133566707618,-0.7504241095158131
2.2797909850421134,-1.1477087328658422,-4.17528183438525,-9.383496569247376,-5.978858494829584,-7.960835090383705,-9.22639168562897,-3.2879792098791043,-1.938887251154901,-6.137066755847229,-2.151696342348391,0.9762783199570256,1.646266608551223,-0.8399105843618679
0.0980896394039646,-1.6928066206986472,-1.5854049203643337,-4.26550289516462,-3.533549545553128,-6.850277703090169,-8.541548226047848,-1.5765722493176668,-0.1461038231585831,-2.475456630219465,-1.695099938713533,2.027840626887186,2.840848061209564,0.1607919402352315
-0.0545773775864321,0.8865164275234572,0.7585722225224412,0.7552851379625487,-2.196130890371441,-5.0821869809847104,-6.357460014523085,0.635576667545904,1.8658217227438167,0.2058144659775307,-1.0607970890458187,1.681973298988671,3.5706157821163647,1.5022822759924992
-1.7669919550260664,3.19298639846457,1.6071730662936743,2.051318901359024,-0.653230282412899,-2.9544537604237746,-3.5626209694530764,3.5495516529802478,3.110566755284493,2.961003365139308,-0.7906721795159122,0.3820964246853426,2.7097709163852244,2.1281147649666545
-3.2529799299099285,2.971074881554996,0.7774265162992084,-0.9257509031384864,2.271635220293361,-0.9680766343712098,-1.4985765258123054,4.587007106104947,3.025104811338797,3.445001626009204,-0.9202024726036367,-0.8494298940534748,-0.0730737331347901,1.4691130737300957
-1.7995819726851896,3.395776130541298,-0.6840926771124103,-5.287690872166316,1.0806450395098592,-0.2538075223378527,0.6043669512510979,3.655391898509868,1.7916085506043535,0.7644586357546604,-0.9149563804602072,-1.1943868551502796,-3.888756492614124,-0.1283440251764558
-1.5973899065079291,2.9697702830373176,-0.7522852032374578,-6.963704490277375,0.3077058125155565,0.7741610327737332,2.5751869873461133,2.737761336696133,0.2856301595494694,1.9290267619014376,-0.2934690903978971,-0.6060456004754502,-7.096466358397458,-1.6928335953511888
-0.3683092448382823,1.046562154415072,0.700460916486773,-3.843311254053692,1.2823671168151254,2.099749517972528,4.421801972757328,1.2708661886540162,-0.3849221653749484,6.540853488299827,0.7025086917248529,0.2334742305937297,-8.39973186977841,-2.396836917508622
1.038516706239231,1.1792020277228246,1.9563899161589748,2.5543411107841902,0.3583154674142715,3.4128029433178826,6.475585756834053,1.9380806947117408,0.417176463454121,8.463792325602425,1.1202661566899863,0.4693123382601655,-7.773028839412832,-2.158358956358371
-1.1546492708664835,1.2696408568156423,1.776006544833048,8.138904374626092,2.843926545976148,4.262077824025386,8.183879913096208,5.2468254868835,2.336301472199041,8.766095822727733,0.0715176101451307,-0.2957002260791686,-6.471146966042276,-1.5969683225032625
-2.704678349463414,0.1727857149257691,-0.0065341036341591,9.27769034097707,7.145442062843753,4.701210250296603,9.719219170220178,6.619515195583538,4.155015473157457,4.768546004611029,-2.392233500555455,-1.7180007591225324,-6.027979477023628,-1.451493839012222
-4.258787260812239,0.7577391493820322,-3.219840098820776,5.583291855875351,8.947891591789897,5.208761019263046,11.135723209873808,6.601779607787519,4.664850214013628,-4.936308405681823,-5.090955501101805,-2.9169641530212225,-6.959806962276815,-1.991489811523104
-5.220867381883118,1.446235299197279,-4.8156798873366125,0.3845087557377455,12.217458505898165,5.3733116941873,11.66859676580425,6.818059566732507,3.7039326345796577,-7.776325746834249,-6.417345356784377,-3.0077320235016334,-8.207939300511876,-2.853924447974987
-1.132013670974645,3.3232409356511328,-2.689366390717516,-1.5545060946157676,13.349239689416592,6.289837116335822,12.061674641727786,6.485002793053353,2.450275907370552,-3.963164391811984,-5.395274814060177,-1.6513094934112935,-7.854991891476334,-3.3121768881805567
3.801425477457104,7.312720382808094,1.4713334266062172,2.497338933602334,11.631605333771702,7.62627147352123,12.124127290080368,8.712664113372343,2.5346884070246967,1.6186513365871993,-2.3029973111169677,0.6839539795101264,-4.649567855524927,-2.712607883430724
9.145122590404627,11.023829446152837,7.558069803951163,11.069836861794023,12.50787142307405,8.14393931610571,11.036984699241248,13.855531594975446,4.587259039096324,11.810337181009208,1.5514081268567796,2.92383007414146,0.8393478257287246,-0.8577612137079447
12.848460714367189,12.562032945827015,10.480702993948634,19.24852901604203,11.527797096373275,7.949856339383326,10.01044939672709,14.912182374341498,7.505127596312146,14.277907396336918,4.66196802605815,3.9965127579083433,6.409293611555681,1.779051394478469
10.037866797774422,10.35322172634542,6.489034876627207,21.900922848491625,9.44194292622527,6.159413111548603,8.141102996990695,12.201194160028448,9.238279296367764,7.9912501379802094,6.127893082038274,3.518355725388405,9.686178234122591,4.1460389328663805
6.035157033814332,6.425854767011221,0.4050689417957941,17.112315757627066,9.27802692993719,3.058957276581632,4.939842138789021,8.126808920952776,8.520574507939301,2.01966929550298,5.925269600733705,2.088187171382581,9.75166674264201,5.127466008662059
1.1104865898139555,1.2733961449525286,-7.644946758800065,7.397259388501736,5.736158018998663,-0.4632097256105362,1.8742352153696784,1.1689531780032276,5.995257158430799,-6.6227156879553695,4.639468471592607,0.8982882360301652,7.667442751562756,4.286011869330547
-2.546919355355357,-2.137000263089924,-11.992469418662283,-2.123550554116439,2.4994267771943437,-2.4841544633726427,-0.3834220550905186,-1.6169146320721468,3.6457639069958567,-9.242499209636485,3.047096825117712,0.8544779444657995,5.531237860329748,2.264813366819141
-0.5267023787276852,-1.261098771054935,-7.82316464682357,-7.182841511016781,1.0242614878893987,-2.1754926869842914,-0.9306061688106464,0.31809681472218,3.0160279363705422,-4.149112475629351,1.8912798139673068,1.8536403240949235,4.899284493283886,0.3786570617403557
1.5480475554381252,-0.436342588649523,-2.710831389246846,-6.942693329184556,-3.2365070052207248,-1.4535293471271753,-0.4316810264518736,0.0044962070570664,3.875646422286156,-0.2326031999441682,1.806256620024493,2.849029423476506,5.870949026914127,-0.3851469535670577
3.805096776992113,0.9478801692713712,2.925595830026722,-3.9542239475569376,-6.229419695808246,0.2997152443211173,0.485094644933858,-1.051252020664865,4.560528102473327,4.859346188857073,3.1011835813703112,2.7355921467424773,7.44678688230847,-0.0936752035834529
5.602978414285615,1.829751571699306,6.33569795700957,-1.7983841337010675,-7.151517731286001,1.0526149934759486,1.1009504457612938,-2.4561274223947884,3.5901485388711785,7.165646860527374,5.353256686039327,1.3510283352044363,8.60320832996641,0.3696266618491587
4.030289626089366,-0.2780074082685478,3.723518081235345,-2.3664679484852646,-7.6460164791579555,-0.2720053813503766,0.8025752897431074,-5.241823638315178,0.9619250731741632,5.202197200301322,7.250613884048255,-0.2967263292919013,8.982500354167465,0.2867920450154426
2.830462900095651,-1.8700966487884307,1.1208055301599955,-4.789584065024242,-5.736570919634048,-0.7267090270792861,0.9478515116380288,-5.076099685531001,-2.0500788034078368,4.396165752479965,7.197135592500041,-0.833321883322768,8.670520646052838,-0.1311928472527275
1.7285685622299598,-3.33662484984852,-0.5196026822988313,-6.571314834574459,-2.5671467050251606,-1.7158699843483949,1.4884565714527682,-1.9218081883181752,-4.210697311869087,3.4559357655236287,4.533688453999025,0.3173898257908063,7.584203881527671,0.0538698439539762
0.342402493804442,-4.718205625236495,-1.7297584081572364,-5.775551151632977,-2.074667467345628,-2.4356749425640976,1.5923176381593525,-0.4762187395507227,-5.3235813429244185,2.53102184744868,0.396074886218333,2.4343196152548585,5.379813339151403,1.5444998930203364
-0.0324370635636586,-4.341121996899799,-0.9035142129075796,-2.5001215991084145,-3.531809386921111,-1.329049047566209,1.787147728103251,-0.0328863290924868,-5.979563537192667,2.3554918696229934,-2.792256687965107,4.098359220768905,2.0921770087676017,4.000033496700055
-0.9262874228607284,-4.1387957617482245,0.1498510871811128,1.3464017373292725,-4.931374349130985,-0.9002510129955761,1.8715629456625071,0.2581292605749716,-6.523628821415923,1.9987192149174624,-3.0945325932036107,4.32696611738547,-1.2829381146505527,6.118919505756499
-2.1099149462444577,-3.8324181512922846,0.0879166876399663,3.554206843673156,-7.946077739290916,-0.1697281978755681,1.3908740892287237,-0.4297587439474917,-6.48573888185697,1.7661357699790667,-0.6934765688858464,3.237530378136822,-3.16335051065098,6.536867577010733
-2.73679919056445,-3.4216010018730203,0.1224987055325443,3.13481235929204,-7.769279368510197,0.7034873694589824,1.598482298799718,0.4491435608702725,-5.099458901218839,2.2776358189037897,2.169962721840334,1.7399817813442455,-2.600760059595771,4.812546246449013
-2.9412532123050505,-4.188140960340755,-0.0296102018478367,0.7879313204595224,-3.732733373640381,-0.2834450748271781,2.052980092560625,2.9565434174522744,-2.281871272504389,3.54373119787676,3.101126634054559,0.6795065940633614,-0.1851876106768486,1.7642133766571275
-2.91182222888429,-4.597209245452266,-1.013555752859514,-1.8304732012318468,-0.629975486209514,-1.2755354308915483,1.893707066219691,4.644903690360932,1.0350325236930396,4.324218053621964,1.6903833536156472,0.2684990658195232,2.368144663201498,-1.064898084557668
-2.5102479622019223,-4.874117776483823,-1.211202843808048,-3.3355278864013247,5.4049766165152135,-2.183575994117808,2.4173500588165218,5.974132849712751,3.5848739033746364,4.68551179928736,-0.1087258634846399,0.2197627934808887,3.633057818991259,-2.431931591553152
-2.2911270378461865,-5.357501489844919,-0.5941239199334013,-3.418639828133568,7.597397580931407,-3.440826283730553,1.5605603270134392,5.584119301517688,4.730144464560581,4.180140225672217,0.1695279808564862,0.2455369834705694,3.5053828747223807,-2.2064063564214718
-3.082410237803613,-4.353121398263814,0.6064881511966229,-2.755489733457149,2.3298621504735486,-3.686731695633918,-1.4842205454948951,2.91289382697105,4.742121268466354,2.452237623423219,3.0576416676035016,0.3081534415557978,2.8811512603103737,-1.3915303219594497
-3.654463726183727,-3.089633805190847,2.8438086016209327,-2.238344720818846,-1.2947548559218305,-3.5377189524508923,-4.227098687457448,0.5635237692214606,4.239480308166261,0.5558580722007581,6.418734937927737,0.4212076940631115,2.478141610921008,-1.3094205628231146
-4.115729343925434,-2.1803906893107903,4.439187917983185,-2.218130934264155,-8.942042750667223,-3.8772771144813616,-8.557299224174086,-1.877238553277773,3.526890527935344,-1.7260312170549414,7.219190649187638,0.3760463767690467,2.183145467600271,-2.534576931311205
-5.142644100616095,-1.3428782038120124,3.5614567832364705,-2.369296605893021,-14.068476573397088,-4.214710613835472,-11.503673797041133,-3.636870316993991,2.569323957897631,-4.659286577111127,4.260478827077564,-0.1557514442735277,1.580840799182157,-4.406700648100323
-4.988177375656224,-2.310689732718464,1.0527459842535487,-2.2336226294992887,-8.367430684646559,-3.9235540906050894,-10.026848659604052,-4.166620759955085,1.4901728033638708,-8.115513472067287,-0.6468582914486838,-1.1901189824221623,0.836270119726735,-5.548872395078138
-4.745685793617653,-4.304037953196265,-1.5022746173917971,-1.878925973739264,-5.065157748700103,-3.816501999977538,-8.993458874590704,-4.648609373775785,0.8085951117951709,-10.908970288655356,-4.19319234485942,-2.2006643421896603,0.6453036097001057,-5.011671605292557
-5.351547297182822,-6.088453203383246,-3.5782228411309225,-1.9778703568654008,0.4095512036914759,-3.7102311508062873,-6.699993684151041,-4.693677716898648,0.9376238661238904,-12.928998067247644,-4.405054491602748,-2.503798199395608,1.144857794050998,-3.126287358552137
-4.585901786855941,-7.29186590874128,-3.1398426314646213,-3.167009048643848,6.107857058034082,-2.880116816907175,-4.6587054202699765,-4.961147027260781,1.427647992972026,-12.37984889435809,-2.2233925941613184,-2.00274627041678,1.1262837696221402,-1.3561251045984064
-4.478017677157856,-7.379311407156183,-1.1031928423798547,-5.315388240436906,-0.0842389910902883,-3.3365741634979567,-7.356070296582258,-5.603552575885298,0.9427412730331912,-8.674785459441043,-0.4581493291210519,-1.5206734211524644,-1.1950230947088016,-1.2322928369220136
-5.176853185537112,-6.902049313693302,-1.1734463774172443,-7.512957935299207,-5.579972457884314,-4.378427703475969,-9.489175955332785,-7.883505229092965,-1.6772665006579013,-7.24807958261632,-1.2212661573531314,-2.211467970716874,-6.3206196872135605,-3.190669451721801
-4.084100532314007,-6.23894016734085,-1.7726055592120984,-8.87080028101537,-10.044683806882585,-4.388210288865592,-11.373966143417668,-12.185156806858094,-6.124365094962424,-7.815232894908915,-4.267325605788076,-4.425282869845294,-12.444417288709843,-6.205877330768235
-4.3447208102594095,-5.726171506689552,-2.0871760084365887,-9.299458238826675,-15.341439034568577,-4.944157547616147,-12.782546096732506,-13.690096653423735,-10.435837086284184,-8.087620935829655,-7.618066030571301,-7.073170187015053,-16.603040280083086,-8.496352284188237
-4.809637847401135,-4.558045227666224,-2.0218292948914667,-9.357046537628833,-9.497843780667743,-4.806145743936304,-9.065477983826408,-12.48292930706734,-12.360105711676333,-9.166016110516027,-9.565072449636574,-8.240427452563374,-17.13604849669705,-8.75436628429299
-3.607602076573171,-2.5233710732453374,0.9312078049867044,-9.281738612655191,-0.9180651787295666,-3.3031700473974097,-4.494268965769562,-8.980428458832812,-11.215244152585855,-6.205388259944103,-9.96012674072808,-6.69377397604006,-15.084748042478973,-6.975894590740468
-4.33078522726301,-0.4639204137931911,4.440190167075734,-8.377010481881324,5.616818308654219,-2.7671719026496864,0.18357929997182,-1.9387183826281,-8.560231753110543,1.3207469171565684,-9.7074128717231,-3.019171978500534,-13.07228945226772,-4.319637057493541
-3.882644892745026,1.5007546725319385,5.246560908837441,-5.696076441996109,11.81672106031746,-1.8517475762789315,4.447000017698992,1.1422045991359748,-6.968220568404881,4.24712552013332,-9.342853902114491,0.6710512290892856,-12.704662633987963,-2.206833899047808
-1.8425813720013045,2.694995899232598,3.6391854654062255,-1.4852056192508778,10.010317156856392,0.2425874849624659,4.168762566878264,0.078883103003297,-7.90120628949883,3.2401607169868885,-8.387765728542462,2.303573911660176,-13.04377384631839,-1.4206751775864177
-1.227048768354433,3.1919087790332523,0.3433567634239554,2.3159283735778327,4.914878141356811,1.7238518853598068,3.3486440391176915,-1.8323190373131837,-10.513582687684714,0.5266907888491698,-6.068036882127696,1.3832062684204294,-11.633512366053106,-1.8235170800269664
1.2486754467877934,3.9004591402482216,-3.4200493885170338,3.5293409070565,1.2783016799596707,4.002926954720356,2.784137360579617,-6.40503036112769,-12.377912444933973,-5.832791160218914,-2.376729330660795,-0.779295903121767,-6.998251493155411,-2.680294465744508
3.165417220319706,4.773842884624837,-4.896402246142773,2.043799088077405,-1.2878459560248048,6.047680735911164,1.6747175759842376,-7.323190914247061,-11.433388689737402,-5.498555634709069,1.8267573562803088,-2.263215564932932,-0.1227390335513547,-3.121240117684949
3.396848485646547,5.175370694403339,-3.4656273272587854,0.5354253733357268,-0.493638689557812,5.661802899730495,3.2616109333944703,-4.054084326043531,-7.483494077009835,2.14332384284052,5.725824140333929,-2.0406940336271298,6.442243875012862,-2.413173807777809
4.9503147040770665,5.530711207952915,-0.800083107609981,2.3565436936445607,1.2936750545820537,5.154758649721801,4.8411854692310365,0.8508844763273946,-2.119263962045036,9.471341157170876,9.270145823609631,-0.5274472016072957,10.78333093669454,-0.1399141859017736
5.306814611695816,5.774297198543385,2.6037821332445086,8.195114543490718,2.48286193988945,4.309477409039287,5.016238307684268,9.122636093654432,2.629708548611865,18.86465688898188,12.778706128452622,1.087170376644786,12.894165955363588,3.507882206452034
6.5290627087638144,6.142758098851861,4.65846582619691,14.746843494752405,2.814303472698604,3.225056728902285,5.955416581259662,12.388058365588314,5.659680933132442,20.210831365007813,15.911850542565642,1.9031580110816169,13.946278864834404,7.511544416658754
9.070190168247434,8.164086154246014,3.4306950791167696,17.112744397354863,2.83251081985235,3.630330839448855,5.360177923579362,10.080730731277708,7.161038788777612,11.714503675778587,17.369343893361396,1.7927675257153757,14.638042245322069,10.339379760496811
10.540740101138196,10.837176223482588,0.0960615261714461,13.120336110361237,3.5720463793257533,4.1070957996474124,3.719587792405461,5.518884171615089,7.988138027465498,4.110348067743741,15.91137750312022,1.1300558256156954,14.509965876491846,10.897333986863906
13.555023468677984,13.43423594639733,-3.958095316837242,5.652362598877917,4.031099393193478,4.083822430557272,3.270032477937552,-3.549986011733463,8.80026570159765,-5.250131613320285,11.751556419114548,0.3652252707272332,12.857801910789778,9.448962414393227
14.321368191899762,14.848136389135297,-6.072468100339966,0.608460866594382,4.371797871834146,3.847278709221667,2.248630545221158,-6.670365421690398,9.693391115255464,-7.168962551139349,6.80596836147725,-0.0381154224219644,10.049647637895916,7.583368779788088
12.776304817550804,13.682979666235797,-4.3081487319062814,2.0581133437906747,4.317475334718655,3.5716936568478324,2.053265043418654,-3.145240497320517,10.42271243051308,0.7211083019205059,3.387920814172137,0.5122962638054274,7.664705282966468,7.046508539229844
12.372217170718612,11.51687336284519,0.0844280683690482,8.793567232536116,3.2386960491344565,2.977599162516885,3.088349998165446,0.5316987053526888,10.790913335937669,6.287662927013439,2.5239403265095453,2.4817070182692174,7.227612387669335,8.356099528648548
8.839687822423068,8.498773743830412,4.280661433555012,15.317796757019517,2.200485920649708,2.1376120682482616,2.9805213620187803,6.921194849436186,10.771000982771524,12.092381861246404,3.431425091451107,5.538610677933631,8.838496674782673,10.429518465029474
6.455584918783079,6.175330261510061,5.446781072825206,16.36621623141863,1.618883060494184,2.13820600742559,2.5616463369108806,7.515840508051591,10.315364001682555,13.20910409874699,4.483326960683053,8.200405714913895,11.046758343350843,11.56840694656199
6.176412943991613,5.179345452727005,3.4286072738065867,11.004280887104713,0.6338165834112024,1.1284731725512651,1.0460825450234843,1.109485327803214,9.147628426224223,7.294677598945345,4.543866672018023,8.524486124990768,11.972262377568038,10.893428786568847
2.663418994246156,3.393062200934108,0.7529673058896649,2.9133092556041174,-0.5313523440611663,-0.5375432108096029,-1.949946540871126,-4.251024272934493,6.836990004291712,3.340818395634661,3.3948746429923844,5.58032785125998,10.5087715082909,8.933974435336436
0.9047778086266766,1.870881212302292,0.2358052697166952,-3.013509741654328,-1.4708628873244032,-1.034072009421798,-4.5221506034960015,-10.69585812145452,3.1634216750440487,-0.3284301253207664,1.1358445305624016,0.4497014651834998,6.643533291049597,6.906602932301352
-0.877899687198828,-0.1660136228566938,1.7939349291384474,-4.519714260884582,-2.649207351597847,-2.840477532269929,-6.34262256761139,-12.08743387473552,-1.5059160066877857,-4.019677517808178,-2.432609661129888,-4.3061380757323935,1.0443944459266543,5.434304157418856
-5.65717960711506,-3.2602587596096084,3.644176587396994,-3.045982696751933,-3.397546547141756,-4.384627503741561,-7.094170724035124,-6.805355215103162,-6.153625165914503,-6.30382873729714,-7.550016116897854,-6.424665842961401,-5.300527798630277,3.930163240756349
-8.413659199066815,-5.650510077120192,2.8080205151888262,-1.6070322567425936,-3.3887142073775065,-4.4217574899199805,-6.856118938059099,-3.291304302716456,-9.479079030284009,-10.046197745820487,-13.617355719685907,-5.484011899189047,-11.089653534136984,1.213243957119435
-11.968652141222412,-8.572189393244548,-1.6572331822286834,-1.9011528463894027,-3.64656077867469,-6.2945183615801845,-6.524641449970982,0.1350182959605248,-10.536548553731704,-14.889825872427666,-18.80662336516243,-2.930678956074648,-14.849278863383764,-3.2101292973313367
-15.630680367762643,-10.631234857788698,-5.799412796609257,-3.315634203854941,-4.200666712602905,-7.010357628673799,-6.36606586247111,1.759487642985945,-9.305341878180055,-15.797356707783925,-20.890882208371405,-0.7299287487433759,-15.650662585128469,-8.369794250317867
-14.786417139211355,-10.386171093566045,-7.2118003979633345,-4.285578733048821,-4.272831991991412,-5.79493934723825,-5.797886653816162,0.0686555118814107,-6.838184827501676,-12.785359038875615,-18.812428433991947,0.0415548441672672,-13.955838957048668,-12.304727795384172
-13.482669429662415,-9.985219740897492,-6.170233500725757,-4.194803699019586,-4.547102789223029,-6.015712551014493,-4.912398987877613,0.5614548623343469,-4.791191040379376,-9.439703985941849,-13.689554450884314,-0.4720766229817617,-11.583876317914768,-13.461754499342906
-11.681897192627115,-8.414142507223396,-3.734904085525329,-3.8311315255813234,-4.949619792694885,-4.446844690560695,-3.685885161287222,2.5368079199880667,-4.463998433584434,-4.708355710262261,-8.321105755496149,-1.557759635681414,-10.438122234430889,-11.884638401378492
-7.870078480075034,-6.196342317954668,-1.152559888709254,-4.192887355851152,-3.82286147743016,-2.0570690817816217,-1.3918142110880805,4.407818745132272,-5.868525412695677,-2.2394174683329657,-5.426018374256708,-2.600460587898585,-10.945416663105233,-9.193427587530438
-4.791083080873484,-4.668731347927936,0.2506955674124463,-5.162355701802085,-2.577672432902049,-1.794658873517028,0.9308511625815072,7.085424611578532,-7.507351164013784,-2.8158264942375277,-5.824198362678063,-3.120910838816198,-11.667490711620909,-7.333052932203858
-1.3445409603009406,-2.031833622017256,1.387936187590025,-5.510858880770224,-1.330678742085896,-0.0425485045071841,3.407499704546475,10.06923497564128,-7.210341229372629,-2.834578569754373,-7.818134054385214,-2.525507626917597,-10.56101335115046,-7.087289477562019
4.492701785075185,1.4509055946818024,4.905674395260094,-4.157477998236099,1.6141141283376097,2.3318379879780298,7.119075507285818,13.349533884309045,-3.629100041879093,-3.347104165883695,-8.253835845475187,-0.3118504499816161,-6.802920381962521,-7.554591953149648
7.332397522572394,3.441711567956184,6.192901942535275,-1.3205227608106649,3.6381594283224494,2.729523129010336,8.652623314990052,14.210100681811715,2.628666582030629,-3.70171840323233,-4.689179910509603,3.1936937908432856,-1.552966064144936,-7.00199110700093
4.7584968742871725,3.8041524745728217,3.940309023195465,1.5627977789333602,5.706071229154645,4.0718982113050135,8.039028929409204,12.267235254904485,9.134214825175617,-3.455532069061788,2.653309274256328,6.408597012273885,2.950511226474987,-4.397382971374524
2.1059049203882045,3.8237543115293184,3.06480213080766,2.9556363300604698,9.269467277314984,5.8055658616074,7.75959483230611,8.65737557848359,13.06880655448958,-0.198984138321198,10.52457772082099,7.214029080680522,5.037549931916971,-0.3888287711734346
-3.333500069493936,2.561242228833083,-0.4740552360153586,2.2562447033390987,11.66095043769245,5.642619308158762,5.064046551414603,2.5156737358633885,12.982884994554375,6.703124546501663,14.43573322106985,4.562630826355562,4.548692525637717,3.051548061050121
-7.066660821198383,1.6843997508637174,-3.1522962771280545,-0.0618695836484697,12.652841807330796,6.42453085761702,4.036530943726816,0.4709666264046057,9.6376180937334,10.580667137871956,11.703357734606742,-0.3772389056511713,2.494407631411433,4.054032286135884
-2.573135110393848,2.5122057903566697,-1.1756997912356697,-3.007501640563481,11.162596906667996,7.310612335368954,6.442374505410705,3.013707168959973,5.365650606319701,11.806174718416782,3.677372711268574,-4.744967980015504,0.0847372584671894,2.257654899224612
1.453614339659462,2.371262455714693,-2.7825526553754774,-5.584923854916653,7.286923498392658,6.301524536724616,7.257863167675317,5.435741719395444,2.480097860203146,8.146749966571203,-4.7349398893622885,-5.962985089681425,-1.877765213011486,-0.879045048579604
6.05297150745496,2.0429236592009707,-3.848390672429965,-6.897479692842856,2.5145675786048134,6.229027216973406,9.627077224434078,9.35334086269562,1.9063054854616637,-2.2582975749781027,-8.276379945604683,-3.5726396423934546,-2.94014473969132,-3.1019489137792133
11.02303661504445,2.5916410577499005,-2.0705610750428245,-6.154754033579179,-0.6837097281099249,6.520300326317434,11.50413031682584,10.808976480709225,2.9405144117376008,-5.101929128647248,-5.024074513405926,0.6143856557939289,-2.76783621243834,-2.934006959449442
9.835535177350812,2.483604278558873,-1.3686025747525583,-3.010922572138046,-0.7154849187811665,5.882000385675568,9.935818383595455,9.017922029010457,4.133875943197691,-0.582430009574273,2.3790158084173942,4.101077829868824,-1.2449526748518671,-0.5952606847224251
8.53655641320561,2.553596341825416,2.3676301650751217,1.8971040714869536,-0.5634956441546979,5.9415865979590246,9.501641635352271,8.428684694183556,4.478881533945776,6.460083157547038,9.009765654304635,5.556243122637911,1.210509396939365,2.3836927709710665
8.443898177450201,3.5197525481362946,6.718454088181805,6.855013086354616,0.0164020435615062,5.948597992830416,8.400017054664502,8.014930707464991,3.956356086448757,19.34522222233865,11.532304555055193,5.3637953765387945,3.634829121841914,4.427663229307004
5.6678193617548205,2.497683555231774,6.415972244830671,9.842412197403474,0.8648817576968202,5.1717235488801725,6.723273170508658,6.12028130790022,3.12917364235784,21.61166871858027,10.309927039736618,4.66372713340078,5.020018829771445,4.956904864516064
3.092229281262484,-0.0638854456280592,2.880381685604952,9.760757976987016,0.1405014598956036,4.794239298778463,6.765586763518954,3.2016471054743074,2.3089454905464866,12.090405364265818,8.074659608041253,4.083138875927366,4.926032664430771,4.4171807615989405
0.2905312943901761,-2.289190230897709,-1.647274588660747,7.120215306853716,0.5445616972728782,4.739679724867378,6.132971490968469,-1.7231482058548442,1.1550444869967809,2.605556722609694,6.714066930925464,3.419065896318269,3.645988765510465,3.5081187630459354
-5.667977243809387,-6.4762945572314194,-6.981547005445695,3.539510657678692,1.989603619435524,4.187273523362066,5.22559197088756,-9.00682597964198,-0.8926095105510718,-10.761104633965829,5.451539040444297,2.3400608663505142,1.8403415289182288,2.4996887902704774
-8.035694956037684,-8.703680949243408,-8.4000986641378,0.4707336664520198,1.4571279263599122,3.4314402674584006,4.052178509848875,-11.987688336454337,-3.785589730947752,-14.623244815812642,2.1674875577582444,1.0828564982334503,0.0824149042130493,1.2646220769608971
-5.438407460335127,-7.149822048663932,-4.018289035986489,-1.68650221976716,1.318631467001055,3.2188120125078,2.138609113448391,-10.43591920070231,-6.509743377272569,-6.572006979865795,-3.6395438555567257,0.2808364900183164,-1.263106895239762,-0.1919328940770945
-3.254837221851989,-6.524857755030536,0.5927756611939173,-3.282525160257105,1.3633279908916045,2.5817770463529213,0.217616319033963,-8.06126840670857,-7.647364893833732,-1.9761571023582432,-9.444279202342427,0.1739609259544963,-1.8877533771489183,-1.4099446166806686
2.4488810717134117,-3.934748465765541,6.338978640822991,-4.343654214345186,-0.7170222639807601,1.5952460127054924,-2.372001622927477,-3.2605648549953505,-6.430835751161929,2.534004897592407,-11.455615264438098,0.2005025902999833,-1.4938616944493504,-1.7341731346313551
5.524775541878221,-1.379504484102459,9.0061005530315,-4.005506899206416,-0.641567542299068,0.4804012596651621,-4.103085421236931,-1.465564924081584,-3.370320347060158,3.6252930847753375,-7.946593799650202,-0.4676761683669319,-0.027970589196709,-0.8495973317177246
2.6922425396121703,-2.422499092187075,4.739079232579545,-1.278880266376639,-0.7508202794351013,-3.091756268341213,-5.428185958126593,-3.3519127184705,0.0874351143416376,-1.3272808918779553,-0.9607270396414584,-1.9797101035938705,2.070874826245902,0.9535301115997896
1.7539508605152092,-1.948409854802092,0.1740092614735889,3.467239718583357,-3.316257110399162,-7.820944900642564,-7.52887322353023,-3.628078059992794,2.5495825658832416,-0.5326261258423265,5.220324755260325,-3.492868413258272,3.9767175559771495,2.9571764715951048
-1.5421259835497,-1.295638476388242,-5.4333987381273685,7.903845632965126,-3.2580698301229907,-12.419035195720951,-8.395728479961702,-3.5858784941596085,3.4816022691811703,4.945077578563757,7.390337576601574,-3.9013912510876487,4.947720438472693,4.369613104443147
-3.6627103333772686,-1.8125785942389707,-8.004678370909076,9.010433307306734,-4.881880063980287,-15.318390914261448,-9.313078362339349,-3.2636493421054604,3.2589988770842737,7.366348818827657,5.550367564009086,-2.9237118754888343,4.782330385259044,4.597096295391587
-1.7898099969701071,-0.1282107838730935,-3.6386188802287087,5.426193561449068,-8.532118665462292,-13.711982686472664,-10.26662395042614,-1.947662296758158,2.6119628579373853,8.517041826565944,2.257417697145435,-1.4625186742334009,3.8933597724893936,3.45983789588255
-2.394575889500091,1.5950694617200325,-0.1332381375568208,-1.1444386900041863,-9.307713017075182,-10.262869113279404,-9.632857914721582,-2.2047353539389136,2.0531478552707867,4.661857976255076,0.2178062826161095,-0.8395380390628766,2.990086735903578,1.4193672767235697
-1.3883187038170828,2.1809276991991142,3.334850239920137,-6.894312096532516,-12.722741027603858,-5.723981455270596,-9.301128329853505,-3.962197930197426,1.7169888727925695,-5.786850110177512,0.4282999818713051,-1.5944774815049598,2.6502757417587155,-0.4114786207308754
-1.1936775929793038,2.894513236088711,4.79573677116673,-8.649459316611487,-14.045148389803677,-2.50424103714663,-8.922396344641927,-4.65396465047702,1.5546986596238064,-9.314300533677928,2.1456778369013847,-2.968338851886802,3.0441527749317707,-0.8255111869665228
-3.97269024060879,2.226340718104445,1.3246405992170605,-6.19611825627095,-8.014715200780069,-2.717847622588063,-7.701728043288585,-4.66222331488122,1.539699539692066,-6.401365605642693,4.062853336924821,-3.57288622787501,3.886457213296605,0.4877878287801493
-4.683443230258337,0.1692724715921381,0.0833183217288738,-2.316177817280046,-2.823028253285469,-2.758040195424862,-6.7008763151768695,-4.0008370763492325,1.6635345321173567,-0.0665552876661929,5.274078469341401,-2.65715818943368,4.589851686183387,2.342081514928129
-7.208613193211411,-1.8520441882053569,-0.5988925112899279,-0.5506104438924879,5.188469567469015,-3.081461511839168,-5.102605274923182,-2.1654732318710783,1.8046286135483849,12.826219691702171,5.394459053689246,-0.8189207734744137,4.588603422556886,2.6791425395012283
-8.046419323632742,-2.3392598853408795,-1.4488186424940204,-2.5150600643213927,11.661022705050897,-3.2569918435505216,-3.886560447160689,-1.607662367110646,1.6894867970107017,16.729909521635395,4.318429710201944,0.5049948552716543,3.731078251464407,0.2480746723850693
-4.243017193176869,-1.599905434486181,-0.205837623739003,-6.812776557815582,7.854636150050272,-2.902137529176146,-4.040416085896229,-2.3135791506672705,1.0379753375373824,10.963325493769956,2.2574907712412173,0.3222414580746111,2.4859696285338693,-4.017687798093478
-1.769734449271956,-0.7097493000374674,-1.0724429671480125,-10.223482682893644,4.249122567807058,-3.5471207040019106,-4.181152037992551,-2.807067614865015,-0.2192855917328842,3.93284997556847,-0.0462721722030767,-1.0297705727437183,1.70157676016688,-7.342841197984933
3.296295216848656,1.4931194890918749,-1.6862689289029196,-10.134977017651185,-0.4863828309182672,-4.328112015498401,-4.967729061013299,-3.5933319570726048,-1.8251222085091428,-8.105087462972511,-1.5233076685673197,-2.2103218430557483,1.956622188069634,-7.191677803315688
6.992904151601472,0.8283047102299399,-0.4015737643937865,-6.418005383010247,-6.498332171642277,-4.740622488460188,-4.779294878086066,-3.4654091116374626,-3.259979987859825,-12.50288657969378,-1.5268996723603738,-2.0893466137278267,2.957709326518403,-3.4264213340387397
4.44527186439373,-3.4936084538438434,0.1487964648734709,-1.4940310967740018,-5.669805044613894,-3.435399584206812,-2.8022848155807134,-2.1721539270601804,-3.947886338429356,-7.765158039166733,-0.4356839292143419,-0.6965707803071943,3.5453906987604142,1.4156868383474688
3.518506402728688,-6.844192811604536,1.4455215143055131,1.3627334122983292,-5.760075636947113,-1.1501567405257953,-1.156671297734761,-1.349870884253498,-3.5344963679149792,-4.85514217806708,0.6517583130943798,0.9526453238366256,2.4618694190574235,4.124784757502656
0.9535710666715124,-12.923730288484093,1.640848648514209,0.3032569911904659,-8.192794992217344,0.8465289585093783,1.4310984681040089,-0.7081530066407408,-2.1671323514103378,-0.6700067351844178,0.9552953778048804,1.885797902815568,-0.6118196477964997,3.433860541518701
-2.5478869166129865,-16.25889063334461,-0.2735026684982666,-3.780431957417596,-6.822632640393696,2.897146261061003,2.429417027148842,-0.7363415403788743,-0.6411700786685657,-0.7407744006768994,0.7029683877139714,1.980593368759008,-4.577281903979385,0.9512663230531616
-0.8153088284762968,-11.729046441432097,-1.224686634706476,-7.824351480687876,-6.282719326034848,3.307818432528427,0.544224901061604,-1.7669923905470986,-0.1969389538041719,-6.876096056897163,0.6546442399760739,1.798754062700235,-7.504466724774932,-0.4097664058127765
-0.6053973478013344,-8.07148292780505,-0.8965053350368094,-8.71975036979354,-5.968929407235233,2.839858221644551,-0.90078828012292,-3.6033213423210495,-1.858728774670264,-10.366761122801336,0.9257605776098838,1.762945653630097,-7.978688226478532,0.9200310435323829
-1.5358599358174545,-1.906141106319528,0.7687720069774175,-5.533210130887395,-1.3218378296139088,3.18939238972568,-4.045503109960114,-6.538757384548226,-5.587093093271933,-12.757874362111032,0.4891611055673834,1.6453542323144594,-6.223404784298599,3.7953957402725456
-0.0761641820326454,4.409676256325689,2.830593589928428,-0.1692503417075448,0.1571709476996926,2.4461020207138864,-5.880638243276674,-7.761722853789027,-9.896623419299704,-12.992927820973616,-1.876319996378017,0.9064869439442772,-4.047917832036177,5.405041787324893
-1.7257378470865117,3.0059411013492325,2.8993517377890305,4.110603748423484,-0.2084344381885108,0.9616737780835326,-3.934941996742925,-7.11022341267437,-12.490847090138605,-9.482611806844773,-6.036507194910709,-0.5590967235565643,-3.518168468589298,3.702408232543764
-4.073605931587236,2.49992836307851,0.4656550454728376,5.221816994368152,2.3641873524259904,-0.1909967672718788,-2.976519677872709,-4.407211276096059,-11.730061638167294,-8.153624753050709,-10.074406344980009,-2.1402388300804827,-5.325121414078261,-0.9426301273481652
-3.844853288518253,2.9392591452500296,-2.9671132077837585,3.788678376768376,1.509712980372509,-3.039358491049329,-0.7539605565860491,1.2337397934058056,-7.9100582118541425,-8.484050551430345,-11.721887724028775,-3.0088781360533154,-8.203355031828139,-6.170596001335358
-5.30721195385689,0.9236317055882494,-4.729843620783251,2.325332308056767,2.1691730873568664,-4.65633635472279,1.121506260611488,3.39489065864618,-3.2321963496423542,-7.656561928392493,-10.422435155514664,-2.858207132899203,-9.97117523592333,-9.544713158698688
-5.32580450352666,1.7519272471295588,-3.587748304690823,2.71274522162307,5.2102904923708655,-3.5258872629277627,-0.571187616363388,1.9783673518898903,-0.2977201801235338,-6.674227132703673,-7.937440622655174,-2.121147988416851,-9.3671717598546,-10.204357704485776
-2.8167817738806207,2.9254710690079198,-0.5381001036691921,4.235480864501167,4.665221017709195,-3.151728672075037,-1.4496291984339291,-0.9421820358999512,-0.237043562666475,-2.772958480157848,-6.719333607260104,-1.5164427018120996,-7.072680540398235,-9.004443054267291
-2.4917003641759576,1.0918001422923491,2.679843512764372,4.106539745697411,6.610967042376501,-1.407417689644411,-2.6072173697312437,-6.97004571099152,-1.99546733872678,4.574604588395908,-7.534979797109848,-1.4488391272679877,-4.958227675523947,-7.351926330131416
-1.5241354420942776,0.920210710039752,3.7419077100058464,0.190529551846879,6.984293365056054,-0.2197644091371238,-4.144391424869628,-8.600896895733586,-3.3542417759989758,7.766016732754186,-8.682652456933383,-1.8186543213710635,-4.201247242304316,-5.974237918373088
-0.2620124585001105,2.3040091852568976,1.9936407787608408,-6.532652454512924,2.404325873132226,-2.5092544506040464,-3.6226488313767775,-5.399067919528833,-2.769025018926815,7.049354213454536,-7.628560599952014,-2.2602591981715108,-4.032321252876873,-4.648007889888625
-1.0525821495348957,2.17507748056009,-0.6828711476172401,-12.196358742447533,-0.3203178457116077,-3.9409486080743754,-3.297924907920106,-2.5701703904888418,-0.444463904214146,5.3174605814528055,-3.484684310095531,-2.427209344540131,-2.370619372880448,-2.8778926729854675
-0.18139009204675,3.651577407214058,-2.9328769669914823,-12.9968792753998,-5.951492269700902,-5.802801620794542,-3.2699726392074475,1.6314290673836414,2.1586663061558227,0.8995693851478758,2.086165529311046,-2.08600582938287,2.122843592390659,-0.6828460026923651
0.8574250863335225,5.577598579549426,-3.074739158549773,-8.28530907254946,-9.673130024111613,-7.178617630907376,-2.3736853945844065,3.0173927259865043,3.742934636296084,0.0502211934512833,6.366785715984385,-1.1470107712101552,8.432127072470905,1.302842829384275
0.6165055550152515,5.195853327940922,-0.4604848044633882,-0.9893056186802908,-5.561013123638115,-4.447270650325426,-0.8186280077769192,0.7108421227337061,4.150130349819364,3.2838471998919614,7.948051970101972,0.2004638247387475,13.58549925508337,2.4493509190629226
1.5991321312147586,5.6832254619096325,2.9136958396904094,4.9581885020049725,-2.150446622967882,-1.5155704202070184,1.0066010937296532,0.6373964368301763,4.119623228060263,5.166479393015953,7.658627746542727,1.407067422235862,14.872127408421406,2.792193877361157
1.8765043738220708,6.59336331074015,6.223947763276939,7.690318887207432,3.634967727083043,1.8412215379192096,3.549574894386885,1.811360217226211,4.277552185009441,7.111204231023437,7.303504717079186,1.8406294973859327,12.01007651043853,3.017418589806532
1.0034508526253336,5.049818646879107,6.777175567373425,8.148807523399256,7.969430726989203,4.893097602294738,5.426323175786711,2.015880121198491,4.436805703368705,7.082170153348473,7.639451875362454,1.351607294870206,7.355598232539883,3.717956833829348
0.3984986366632423,2.743860576279749,3.334724871300433,8.124716892532412,5.2495194520347,4.308224515453815,4.410730595290075,2.0837923394529665,3.831143204803965,4.173910217662511,7.65246157368,0.5574887220577978,3.9150636774134,4.61977026911287
-1.1211904762290985,0.0365570448597803,-0.4937275868348882,7.930238403276547,3.249915175262004,3.580668331325394,3.121775639321674,-0.4392255009187957,1.953072321149932,2.5613342018206717,5.766815122214595,0.3718961304360633,2.865038343477174,4.602554677067815
-3.352507604564604,-5.001904474295843,-4.895600586479515,6.21229208491912,-0.0168365453452157,2.8912207164224544,1.624575431962875,-5.998497892611263,-0.8283500476402139,1.651220545137576,1.658848506724091,1.0810210099354831,2.753645175657539,2.643882801428589
-4.4546551390805815,-7.66872286446849,-7.1676006844590505,1.9814289886907237,-2.049635945823251,2.293156031101325,0.3360275003051653,-7.680994467200615,-3.382347151834395,-0.8918214330203978,-3.1726309239979718,1.9058270606441567,1.0791306801328489,-1.1117709667798152
-4.783803101852075,-7.247277836794784,-5.178841183245783,-3.4915412964559494,-0.850444040714934,4.194194701284965,2.9233695509517488,-5.679834708620212,-4.513188750149794,-4.516117213102046,-6.609491978467304,1.64994250381325,-3.20610584355299,-5.203017162057833
-5.240598976996426,-7.661102570593185,-3.858217619754241,-7.123452786349645,-1.2321393707320294,6.071488732226989,6.205064352892573,-2.169202462235868,-3.70434172743704,-9.780783756396882,-7.673800540386466,-0.0871889290889385,-8.583693795158169,-7.892610800687677
-4.935397449539073,-5.886943560414243,-2.3658154016834354,-6.551915518788249,-0.0592346892850382,7.616001807838982,8.941716671092053,4.4372155476806485,-1.4540941041202586,-17.11164881404776,-7.166741994685367,-2.364781033759428,-12.287918478368397,-8.530075282405363
-3.706676907281622,-3.352622327494392,-0.2668420564216941,-2.2978891022436017,-0.3024780356056746,8.783753458610452,11.54250867990922,7.987333193155064,0.954218785663727,-18.234899968348103,-6.68798066494422,-3.685991455684132,-12.807238192683442,-7.974539950700091
-1.7434463461263567,-1.2958401183465438,0.5284334029789804,2.580190921716081,-1.0841798033784802,7.783878295063586,10.499309006496668,8.133379903821305,2.139953151667399,-12.67335188748569,-7.091657986692354,-3.4061522276411296,-11.18081539581766,-7.63174855818086
1.6571556221996029,3.502128917366925,1.7420445123244723,5.059054566138343,1.077495770964038,6.381080151132641,8.1469955847613,7.691003272950417,1.4508772055731924,-7.846086294937367,-7.854692354771032,-2.334335948948535,-9.851772782760662,-7.970795211023244
6.231615284328934,9.110542043029575,3.4724489749720675,4.594460668190664,0.7040773863252067,4.785120430533528,6.459447972670685,5.097539018884066,-0.5532586076872548,-1.9414415054347656,-7.818055022088515,-1.8643941700526057,-10.207721913584194,-7.927416924477455
9.755583380621792,11.62363185483522,3.438619637909596,3.3044011911440663,1.8081918919218576,3.378373072558529,5.034246522053345,4.764635045520876,-2.3802453250179383,0.1565417208114844,-6.419875371924121,-2.493322298630602,-11.219420613025491,-5.815039643614142
12.881094750988296,11.127705956133855,2.1672300228048385,3.900275973651617,4.693124263527403,3.643813976866205,5.797289272722067,7.0296044451402055,-2.6150016090724364,-3.082456396036676,-4.192054966432679,-3.259602340895313,-10.49520117884198,-0.9699549680781844
16.440019109582742,9.243533656942558,2.32660329797366,7.313996597866975,4.397630217534157,3.9182568744548174,7.434778956310177,10.76484188814688,-0.9963020303124068,-1.5708451906799905,-2.15035694772034,-2.7157834991710104,-6.69228459091066,5.342697156229761
19.21212232403481,5.076359160664732,2.334329421133964,12.020139648550613,7.053485817578807,4.079370559397317,8.543718700805691,17.21328527355269,1.334475896993098,3.569127474846313,-0.7977736199760272,-0.4580470699332863,-0.9248239471083508,10.605183060338632
20.799550976138285,3.609262194117832,2.005037486253115,15.390060225199967,9.582211132291867,4.497986184176577,8.952594953460792,19.81232244333877,2.75206557170209,7.607073324462284,0.2963131786156197,2.3706267886741585,4.150693557180745,12.78805777036854
19.07835825921688,5.658125041345915,1.4170552816149182,15.707422252668296,7.842189659690671,4.171472418047087,8.165668866741619,18.294300103609054,2.569719666191986,12.17758085719418,2.0678513459753987,4.1576170668223895,6.620232670009607,11.76690009452139
15.08295669667046,6.435759035322127,-1.2232227317569229,13.171683418009977,8.576012583401518,3.84534739824497,7.092359230738135,15.696000920483277,1.750635458299783,14.10615693795048,5.192078007682348,4.408918398686517,6.785417847355518,9.342145620454644
9.98151738686452,8.99712480471137,-4.155717582771262,9.34666622988749,8.165908805765936,4.039991896052575,5.80717983576946,10.392171391868043,2.1978428237347742,12.618694845257153,9.61740434757327,4.232037299733875,6.574824024202215,7.918718817991831
5.548675571396844,10.111641511193415,-5.074104771147447,5.857978455557586,5.162684513435256,3.7480689718152576,4.774153491698414,8.293980107034702,5.1271609731264505,13.578617127729204,14.579208738225717,5.193516397043339,7.657116437045573,8.866855900717233
4.999650737471932,8.421056350083402,-3.6096044307772006,3.512312157215483,6.14571307833518,3.005224166007139,4.391040056775523,9.923157208784088,9.874964640791468,16.331954489503698,18.87956781809352,7.664736098374902,10.088796501537855,11.688588281250986
4.682256830477541,8.597983995477712,-0.9424139411098011,2.3047670857715232,6.289601180398989,2.584689461529687,3.607573584642069,10.19903838400988,14.175858500124406,19.19487414833073,21.24581968528515,10.29197498518171,12.562121399572703,14.43690076053231
3.719639359148565,7.191568276939151,1.7985992389025152,1.8969212313362287,3.964272469403218,1.6604722582933282,2.8392737392249274,10.480935912949368,15.72407704036048,23.23153797005088,20.77305755132759,11.120347394006178,13.705092379898971,14.992440737790917
3.217761058787834,5.573046749927514,2.996939997429388,1.9518761050131843,4.779562110778539,0.9822329991483963,2.713284717799242,8.779339290202167,13.777031967728842,22.22343032360818,17.406650839772674,9.29273814809115,13.078291257673468,12.356752649355627
0.2949574992380105,5.366251644252482,2.2295790832502806,2.17635194440701,3.557467466344748,1.9427394168094136,2.516382498669145,4.262402962099172,9.58335128665037,15.634602569500691,12.173612478087996,5.746076516677903,11.133077497209207,7.225660965858307
-3.066918148420166,3.289187118275488,0.7931263041913266,2.3284184995432966,-0.0794978683971892,2.765657582877471,2.4860204920603883,0.6347525342052157,5.424847187965924,8.809680535186747,6.841407598956986,2.3691388820337576,8.559027903285958,1.5711946242036685
-4.938390344951561,1.634930968219806,-0.2169931265220209,2.332406425465031,-0.2379674701840927,3.732950682849423,3.196074889166978,-2.692715937936822,3.123355668896915,0.2963191366840541,3.069574239073634,0.5400471446535748,5.891845774699395,-2.49370085133792
-7.088943983795534,1.1002379415352166,-0.5027468990378611,2.307064980660768,-1.4049333968662907,4.597984947674559,2.2409241936373427,-4.749171241796867,3.102749932815072,-2.635691261497827,1.5847443580365943,0.3673156408522289,3.657802849468042,-3.8991744721541393
-7.910398767590935,0.7492509417883968,-0.4370148660073246,2.337325452671239,-2.409101616750439,2.914195200052116,-0.5666885592156533,-4.768914957045925,4.468618542126477,1.409391569896733,1.950362220803325,1.056288338464733,2.5384081218414414,-3.128165352978473
-7.088271249349655,1.4560127975289945,-0.1521345747840842,2.212997435850447,0.0593249561580766,0.7247633684680972,-3.2321586404454363,-5.73110957664731,5.7687532209158405,2.443965538090497,3.0286517672071085,1.7189966199575597,3.0066975837966226,-1.718958216633835
-6.8930481312520175,2.5707954994613544,-1.18060777299025,1.5346689100785902,0.7302583683476387,-1.2967624830373938,-7.528689440390954,-7.260253773767598,5.803344931962425,2.2101095284205035,3.6973813899924544,1.7947649964372374,4.6411266365538,-1.1148450782914452
-7.1523105517880055,2.5500742618914107,-2.34543396952265,0.1811862792178544,0.3455725768359442,-4.179060470939326,-10.755966471551345,-8.525327187003473,4.107384605534925,0.4332443133364363,3.284086101618662,0.9908644789073762,5.941818069469022,-1.7231066800342845
-7.631236520114541,1.0158014830647777,-1.8343680814173893,-1.4008804366303451,0.4803090454402239,-5.824723505280267,-11.065672842137598,-10.027765161222638,1.0695088728099194,-4.660997520105825,1.5572982902166856,-0.7582626133996584,5.161976344092082,-2.8998317623973406
-8.84922864532644,-0.7964442259647744,-1.0128072523361231,-2.5388208877612115,-0.8646547440661296,-7.237424929197392,-12.10757435904597,-10.234248483834197,-2.259569361978585,-5.953379442881276,-1.447258341130592,-3.071590310973207,1.6519436009648487,-3.7792627340397047
-9.97398730233066,-3.0480104409718924,1.5802909668556575,-3.0316772843232656,-2.114719257537731,-10.021166469133547,-12.241580018519889,-9.022365477396884,-4.658757206145907,-3.7200364309108855,-5.418458246126065,-5.027499119048756,-3.4423882156978465,-4.101148602155263
-10.253164498596108,-5.37903960471806,3.926746391880919,-3.423288751893637,-2.600315069744038,-10.940657616521127,-11.311607514534336,-8.070671817695416,-5.397456166416362,-2.3570350373094806,-9.566603888443964,-5.634200115636361,-7.828836509110062,-4.229498740928392
-10.941281662491992,-6.667619728767756,3.124829442671139,-4.480807417532475,-2.9521352668006937,-10.486468257681674,-11.137836122840593,-7.074737347369902,-4.678456327336988,-0.5573568733609665,-12.584497646983635,-4.628380245852426,-9.589511935417548,-4.437069980415828
-12.057640300478178,-8.344268056662708,1.8853785391921083,-6.424642741343121,-3.6540532253266047,-10.464339450209422,-9.827419323105987,-6.120910951806566,-3.465982185651228,-0.019193657907781,-13.118369936618734,-2.814049979495536,-8.345025164994638,-4.363221887981183
-12.530790138144605,-10.53849084507876,-0.2068253363235789,-8.766178205537202,-4.463370125338575,-8.157679930476258,-7.319036648329008,-5.510053211317492,-2.744082794756025,-1.4187410187153882,-10.630392316237632,-1.4893632717780747,-5.226454587546371,-3.3890631643881197
-11.431546815471965,-10.55747010126552,-1.8829809107959936,-10.886879860184848,-3.8978540521824767,-6.053014097845972,-5.501481390096945,-5.555976834692892,-2.7995581112242576,-2.7897301318743857,-6.016631889244195,-1.4270204446929995,-1.8960587899030517,-1.5953816697140013
-8.058811047298175,-9.201505667183085,-1.0027851074024767,-12.582560115111448,-4.210411807765357,-5.130492661685618,-4.406389296083589,-6.472811116078344,-3.1645245169546854,-4.732046318886262,-1.3260955146693334,-2.337048449845696,0.4643453091088787,-0.1418634990643426
-2.785898192013532,-7.326291244540548,-0.2659065684922548,-13.84952200040641,-4.469704346048962,-2.024953459829764,-2.808905609655679,-6.778592547766747,-3.245164242735129,-6.572043209409131,1.427354078180187,-3.237451465369503,1.5318206338416331,-0.3636675025877736
3.989899122717072,-3.035810767935097,-0.2761652607989607,-14.210920117411206,-2.72599515068352,0.8262861934989605,-1.4331873651463027,-6.544843386662656,-2.98627452124137,-8.06161948139495,1.5495058447561971,-3.2819727803367016,1.6349260264874204,-2.2886540137360214
7.173084067435044,-1.4693539331217174,-0.7806461980307475,-12.63205971146121,-4.247073760802355,2.0165937343168068,-0.9927630525519212,-6.505462295273916,-2.9016471016344383,-9.264676458920356,0.0240703047384158,-2.288093981507473,1.3663170770591933,-4.143887055318345
6.876019894017171,-2.859521472685791,-1.8393924730437587,-8.519797930845556,-5.594597455936977,3.242033666424577,-0.1567964381699708,-6.370592344417664,-3.4797562512254103,-9.884769607030776,-1.3749560126019844,-0.6740696784896443,1.2396372085273697,-3.654013593145152
6.689512631676622,-2.7741440176627568,-1.779082270055637,-2.9247560994765536,-4.934498547608753,3.215270644977282,0.350549409443722,-7.2957608639429266,-4.618064806892562,-9.772353113320492,-1.489820635768211,0.901768201616278,1.3823214100552264,-0.151453934266641
3.195874858200312,-5.407353154318253,-0.3223838627998083,1.54855407138308,-8.351738850968141,1.897481759839546,-0.5099204528672391,-9.44391442923675,-5.668987915478397,-8.749488592759313,-0.542079939141729,1.83494800051227,1.3642920264402676,4.491111102855257
2.8280482957903077,-6.299221722407715,1.1544708176689171,2.5519580704898885,-8.445884666474614,1.4286130336562746,-0.9599281857433302,-9.59885427766545,-6.007391779122088,-6.991355108990721,0.3172982254870078,1.7604144581635808,0.4546141499870657,7.177853700943473
6.16488703830102,-3.253101038153166,1.2886766172805575,0.1187120821036558,-6.27415149782268,-0.2979161243187275,-2.006690164975172,-7.833530124812028,-5.524191149311974,-4.358880687641641,0.1676405515392502,0.7480425922862253,-1.6405518472797098,6.152448866403262
6.323897540763951,-2.8122915866321256,0.2275404847719259,-2.9947375704984154,-7.888578391057394,-3.5394031179353336,-4.702478271683389,-5.810027200011357,-4.623178285345801,-3.18226454594478,-0.8765808213041169,-0.5833882919790199,-4.109219787113887,2.5534654900458804
9.500980353022353,-0.4145013264183455,-0.9945837734242112,-3.4454214645743093,-5.018490451998758,-6.37420372153915,-6.988104351503268,-2.8456266141183675,-3.8624105407368177,-3.6630340072831222,-1.8636628231028567,-1.3115855586973737,-5.225423747449753,-0.4711842256590728
10.701297940444492,1.5838255115743196,-1.1960137664450003,-0.2637295999290359,-2.979431446557683,-8.337946419405844,-7.5969569657891585,-0.9586928273981604,-3.655557691488127,-4.666711907613634,-1.9222378162824607,-0.8435766526701229,-3.561994620886395,-0.3607309973174324
6.429014200962349,-1.7559639662237467,0.437947343354348,4.055221957778741,-4.743206530612547,-7.208012520603678,-6.526474700296972,-0.4375639207385581,-4.190603308833403,-6.839234685500421,-1.0345289402784772,0.5310653278667417,0.6626695575410508,2.7931254931068
4.968803742959033,-3.6506238526186263,2.6090550786113305,5.55049455900712,-2.44557957714594,-4.209232705930609,-3.971342583706636,0.9858230185915682,-5.380152722652127,-7.340139851560719,-0.0212535162726226,1.7529380353167312,5.360211326775726,6.442215064054324
0.748330243313853,-6.386673130230573,3.540216384752352,2.300645879431272,-2.221806113453445,-0.908860407860566,-0.0932318129347944,2.84525305867754,-6.725410159029167,-5.936235562112968,0.1807096944429815,1.8164379142670557,7.874332885871098,7.75183621754681
-3.993892916382804,-10.191744420930752,2.2584474366830234,-3.7025222295028186,-4.298825694503597,1.168109908640316,1.421042199091154,4.1079229649707,-7.334252143410225,-4.9374849298560175,-0.7102042140893445,0.6155796424968969,6.845365156122483,5.785996045283326
-2.8944956504496724,-8.893212109198055,-0.0369566216156028,-8.140763139160498,-3.963094694919864,0.3255288880957946,0.984648034868651,5.025089078740492,-6.393175242612642,-3.68095354122658,-2.1429268168573685,-1.0007343034332337,3.1101522577240246,1.8998082797947973
-3.7620853959246983,-7.520967738321179,-1.8554813859608317,-8.11501881187877,-5.9506600231544295,-1.008485058976468,1.3230981113912454,5.256208731573735,-3.905540820525175,-2.6820041777085857,-3.268406379315508,-2.0629308086012657,-1.0673372275641668,-1.7428917661110006
-4.617735072664521,-7.306465080310151,-2.7668670911474096,-4.666544133086575,-9.121377178012295,-2.494750071883144,-0.1800376252388894,4.598138733795363,-0.9954073804172764,-2.2533522048862107,-3.70214067882938,-2.4007104284299032,-3.70225284001242,-3.973685284975289
-2.739403309477357,-4.468028056151895,-1.5364375664551584,-1.7083371563086305,-7.480639850008192,-2.4525892309563475,0.2511713390490074,3.552968688001908,0.7405743050672697,-0.8283783752270174,-3.837384076251624,-2.7029816825793205,-4.300706615150347,-5.136186075537864
-3.902791093561445,-2.548195563818186,0.0691753804410151,-2.295368963805913,-3.315346786484393,0.2035996363630045,3.166124759795068,1.972475582974575,0.4645398711046766,1.461634322699507,-4.417275327586822,-3.62738504889856,-3.764694970272245,-6.137720229751636
-4.809125730312021,-1.333235934647397,-0.4541684088040574,-5.673013126866692,1.378209431230163,2.911587934709775,4.347475791262506,0.835255624648626,-1.166314481204111,2.888545000729137,-5.739471006295062,-4.900033711774711,-3.392121389010612,-7.273507740457148
-2.976738621538653,3.003748516777369,-0.747480041484825,-7.864700453229261,10.043118864928188,6.651259175315122,7.535860013700944,0.2891104429914241,-2.523728443648409,3.625019140137628,-7.233426445602163,-5.4436699786714655,-3.979523853462624,-8.065336747185015
-2.9550297400515357,5.778520423574425,-0.635141835588541,-5.290532660303967,13.692012045566123,8.434511821012942,8.857059130046455,-0.3079552365315257,-2.398441114370385,3.638709651210364,-7.842749800740549,-4.521386509306623,-5.58330300156787,-8.082290470687141
-2.5860670662423426,5.816466028566676,-0.6586332792286285,1.882281168221823,10.136915555849724,6.936898900046156,5.885763717220817,-0.6698184333929351,-0.9974689377485504,2.533574393115175,-6.90078448868897,-2.7215585572287324,-7.696416875981853,-7.611402873699546
-0.1900153363448024,7.481476050385916,1.533184215683506,9.663053070683633,7.888199476077128,5.807652129887776,3.9134649194403375,-3.1885658056724284,0.3615494683618294,1.8098340989266533,-4.706169330754648,-1.6224036747092754,-9.400337686729904,-7.31340034204316
0.4634320678835338,7.456667350571907,2.583005124982084,13.424924959344049,1.2057566897619747,2.806158892915436,-0.4208172014843728,-8.120664953528202,0.514824750399896,1.3948944793698432,-2.2794229178978966,-2.2953540138415605,-9.539419790865438,-7.27727455114114
0.7135483348153198,5.30591929499084,0.9472453610850882,11.485576956815764,-2.908892891251993,0.5348884813030289,-3.39095109741128,-9.620923381475466,-0.5656179335142166,-0.4372186564912851,-0.5639768617908913,-4.11365858522632,-7.300227209370746,-6.679855196890284
1.316900218642174,4.149018911101108,-0.4197378494203221,6.077950701018108,0.4560619744508709,0.7181213785297117,-1.8914843668896664,-7.89234048868281,-1.955062812521187,-3.502618161481455,0.1577619591744244,-5.177371273419255,-3.112614421706584,-4.628919959651982
0.2839855120466394,1.146740494043038,-1.6088014672744442,1.2023846414457822,0.8060512422869083,-0.6762833147779873,-1.5891321912875196,-4.719987206646269,-2.8018778910630893,-5.49428645383272,0.1422979579299692,-4.0732860573246334,1.004661097410171,-1.3848746889477717
-0.7944444437340511,-4.057100472229128,-1.1581362954648746,-0.5018578111570662,3.468000211566621,-1.4273039369057696,0.354779193406537,1.2257743684762332,-3.0896912998164225,-6.557763352165141,-0.3751594567972773,-1.265124960075369,2.475666466561684,1.4208881369134474
-0.8716638408110833,-5.76132108861426,1.1458062407419545,0.7544699982605607,5.888031815987333,-1.808079731269219,1.9844054528996768,4.024112848163656,-3.427241690881232,-6.595455601742092,-1.481416239047661,1.308372080822977,0.147490728697349,2.0193515694543294
-1.0947592399878474,-5.16748104722661,2.1982756462829856,2.8883759975915098,3.319842625248541,-3.000100210360158,1.656293369531195,3.3134539356901844,-4.220144659765552,-5.0242035168282735,-3.26758256964294,2.070793817555895,-4.487278539424352,0.12725442626909
-1.3011637495493042,-5.124942723180361,1.2374159100730775,4.057912226247424,3.4390576274372013,-3.012106988590001,3.266537917958158,4.2747156285650805,-5.150020870152417,-7.66505113137097,-5.268468192681695,1.2650165799339277,-8.231806180683321,-2.606475522179096
-1.1467178134087332,-2.026818242010798,-0.897781549589673,3.955831629869749,2.7383813841718108,-3.026033492578163,4.177824833998551,5.633936031130195,-5.43974823859125,-14.763868918183302,-6.372519841653286,0.591764145156759,-8.75327163896634,-3.8499038203842986
-1.863318385303257,-0.476410490016822,-2.9475968629313867,3.467449005591277,1.3912748488538282,-2.7067473211212447,5.02957632086961,6.6173843502389,-4.526346833035518,-15.448596724693148,-5.494368745098342,1.4283646767941036,-6.508210038382401,-2.480990391652369
-3.2154953575219083,-1.4375609822318856,-3.139454186049408,3.430215896383117,2.9076010885461545,-1.7168392905332903,5.689669576530047,7.856671692613596,-2.4508509211082696,-10.34773324576743,-2.52854842225679,3.4316199028267533,-4.176760321923439,0.5029403448151584
-4.478928816367532,-0.0226545088173278,-1.255558287346516,3.793426473889042,2.877915528582115,-0.8113951613828785,4.609625375804999,7.8241469031805,0.2726071155094018,-0.5398155920007034,1.2748248164713232,4.893242968926359,-4.115364039861561,2.7802543525002648
-6.407731066027903,0.0874535294978701,0.8123619803498414,3.7942713290159418,3.1703379932241846,1.1387105085100049,4.447515890722806,6.446979194537727,2.9858158907524057,16.54654981439342,3.9753116662708976,4.440464069429254,-6.275585377876212,2.466057236698532
-7.607707242322276,-0.7344816031785043,1.8770221687109945,2.7384006445865907,3.857111796786642,2.222102967052596,4.225246891165313,6.190971951450193,5.073643708493364,22.47342339571684,4.263845465689656,2.374341115475147,-8.513062394531062,-0.5882002271378042
-7.771186554053185,-1.7214659114104038,1.43292179608444,0.568803006553992,2.117569430991264,2.3811075119581395,4.508769052490015,6.86858453184419,6.066905307636034,16.477816594941572,2.462909345667072,0.3771725190264874,-8.768138351492894,-4.825786282399008
-8.017798545038238,-4.813476520941435,-0.6686821694722445,-2.1836975042616587,0.8228661386657351,3.209108036542728,6.153209516826794,6.7515487731116375,5.886855848616335,11.818263390805008,0.3874156209805051,-0.042212553524962,-6.816020253171359,-8.090522130144223
-7.50163567884018,-8.107621037367718,-2.3234896979665494,-4.830279936413376,-0.6675951037920433,2.8353557607396604,6.630929155512742,6.243899030256074,5.1299141637888965,4.366428106587638,0.0766309735065533,1.1726266433856836,-3.971195878212257,-8.874505143617057
-6.911679644404607,-9.001740250165417,-2.1539674198709924,-6.848751758276535,-2.1113406458819908,2.5709773263287867,6.1265128194545175,5.301419971534118,4.949436953497639,3.809670064628739,2.288564150684124,2.768807588274967,-1.3993654976540029,-6.9545169086476335
-5.882247568675092,-6.244980484782218,-0.2080646295551789,-7.892109001145741,-1.0526585030478797,2.349765296151596,4.129528602905183,3.656181550669306,6.324335933548127,12.4776404173703,5.8933958706900285,3.451739128291365,0.9792752459076156,-3.283542654834718
-3.864971699258585,-2.086188264890026,3.330296792331581,-7.674742718091466,0.1910657667665724,0.6172974970023899,0.4712259636086472,2.6041473109722757,9.18725105077442,16.67840351740533,8.670331548986951,2.9695045649347094,3.9328838758456186,0.5732446320030249
-1.8594976320196488,3.314638858259432,6.517944962279702,-6.047452152837195,1.5831702024025476,-0.7342068624552245,-3.392166087808569,2.132076173787825,12.234968369237208,18.86098620923043,8.934741383667415,2.0556117188874623,7.592581570674838,3.1459609941048257
-0.6433190552961253,6.713965996922786,6.246810452391108,-3.315264233251469,2.0832531368650704,-2.110621655698722,-6.348188618312775,1.130164775347348,13.740957223096643,17.303244722873387,6.744575441441839,1.4898003000745348,10.98699479519371,3.698313746656595
-1.672122724914057,4.844193229346755,2.715661069916035,-0.4947964865905305,-0.2374533521907715,-3.4526653307242583,-7.488994987596242,-0.1718743286188915,12.763772091555325,9.48802959664055,3.73731016828117,1.331702607672696,12.908855699597892,2.5556287178080765
-3.860290855051647,2.748961890166263,-1.9866365958970589,0.9064245027532252,-2.985665159384854,-3.891050142370185,-8.150315301131299,-2.272084296586987,9.753344442125467,2.230037567581833,1.7424658775136097,1.030892486998482,13.01059240111681,0.857355446614747
-6.286585500326582,-0.1522924104284769,-6.852344001682313,-0.2802883178811726,-6.439108236722193,-5.014881881669356,-8.727005938119772,-5.402887033010425,6.123147311458524,-5.575709165366432,1.324437040009684,0.1326811884129028,11.868604033975544,-0.2474861575400382
-6.245448627484893,-1.9653671519983933,-7.243706269309763,-3.858293525382578,-7.840690735288436,-4.114399997262319,-7.13242693134541,-5.606890700855682,3.281180279162868,-9.0132404161155,1.4806715992162935,-1.2293619986153317,10.084342298523552,-0.429367012101693
-1.7769582981071514,1.3867744737712675,-3.038110099696525,-7.84705275704755,-5.499315930474406,0.0938482296034334,-3.789954000674105,-2.7385645206587554,1.9588961307745196,-6.409415572587603,0.754110868517273,-2.4717081093524484,7.6592377541544465,-0.2930217067419107
3.94438195632414,4.727056191530743,-0.145795069638852,-9.30190914686284,-2.889413864330601,4.614119982499191,0.5960871210240147,1.0998650024184409,2.1883864048763826,-2.7581065353123253,-1.201473134292428,-3.02579002941809,4.481777148194851,-0.5674227832473662
11.423932535910309,8.258380852228798,2.6601550621822474,-6.164933936781665,1.5615980519788388,11.695355229217464,7.881401217775576,6.875302285712956,3.6000778141856244,3.710165277653112,-3.009773476410828,-2.6146892549519976,1.2849259104800126,-1.088256429494777
16.01411068411189,11.366495749594778,3.1941989434329816,1.038656931304388,5.195484576680568,15.208395627518696,11.027928299124545,8.934983711136917,5.591265389441219,6.149985852799914,-2.573447331779448,-1.244129677053479,-0.3329027652742979,-0.6652409566044639
15.3679327087438,10.58900061298936,0.0269473777182979,9.089061609327018,6.692741708624713,11.219446298402024,7.98612062011131,6.6650443392315895,7.345804833786133,3.540946340466259,1.0341177987722858,0.8059046290459264,0.7344745008276732,1.825446826831012
15.251852848248706,9.639449841856718,0.3644161955631138,13.986712458773129,9.82007871582745,7.3313117185089425,5.5095115151822815,4.779295951434885,8.016515542213483,0.0536219237597622,6.383198023462683,2.8731412903534874,3.6351680201582894,6.065030742392764
12.917189560720317,8.763691076693295,1.0105671809129082,13.68450825854734,12.336685702948571,0.1329137524459449,-0.8810846299924366,1.870377390285736,7.172489686985273,-6.305030848433334,10.37479561584746,3.998159432931061,5.744667435706106,10.072345304699866
11.818438958999884,8.70800869741364,0.1563840173341912,9.526570584605452,13.022213814832348,-5.17827910743236,-5.147756900459557,0.867614752218083,5.153747206932621,-8.036268660726327,10.474256907278118,3.484764888994391,4.767722590838503,11.614552543087257
14.962844002216798,11.54919512376075,0.7045092556251595,5.141630692439321,11.853160413287814,-3.077509601634808,-2.5455419698291344,2.564959630087131,2.909610636774005,-4.381043767449524,6.794326566837981,1.6223750769257776,0.9628440486342242,10.122847251614983
16.099473422789572,14.714158229761498,-0.991669471419748,3.6384574623753,8.29790395513094,-2.848551945731266,-2.532888226279305,3.5836394011268315,1.3712580377050472,1.3611295856541152,2.275839345012514,-0.1975385737183614,-2.726319337195605,7.352704062144085
18.03606704169881,18.392759636879127,-1.9951610257679704,5.450598781589974,3.291643737386976,-1.4331419605974929,-0.9896625882132994,4.786315657445796,0.8790218496801572,11.297020273977417,0.6429376529539468,-0.350149179404525,-3.010339658973749,6.08954345672646
19.257969847416376,19.454747796111437,-0.4616014294707578,8.595593745324209,-0.3471845995262474,0.8716099483127234,1.138621338995312,3.5126128578654097,1.0965069547937674,13.942286454446892,3.6017894825978374,1.754554090768579,0.9295703713942204,7.965658125840036
16.55390389728931,16.63740433845489,0.1482042642815201,10.882035572176278,-1.677532586255717,-0.3365006148796994,-1.0221401375798709,-0.9313204238082652,1.3182556136295034,8.425013202941116,9.422891270622015,5.105270717655912,6.67180185465088,12.21756521745658
14.281895194817512,13.417531728332197,1.1000865805020523,11.81393371070476,-3.082344877157465,0.3478742500484033,-1.5306607441549194,-5.536397541136775,0.7756476231743363,1.4259745423222332,14.015860399753592,7.765706285072156,10.485493606728255,16.29780891026178
10.918686324161156,7.629068618914624,1.0439361325963317,12.382450702895651,-4.292212043743636,1.9703698554881592,-1.6500108413836294,-11.095794267269854,-1.1934353839652658,-9.991599563613038,13.727538788125456,8.227259943082117,10.198022940590931,17.657197637940726
6.662092811359193,3.495100326445458,-0.3553320733332307,13.18732424218831,-4.602112903053855,2.765829191997566,-2.005030830138488,-12.046498732659607,-4.851316976912017,-13.398668944781464,7.874203934941875,6.3317816482637,6.582049440271703,15.26370102797523
2.9701003334334337,2.119925394200121,-0.3621642272081481,13.109013724634508,-3.800783093149368,4.615251245818769,-0.2575047566029088,-7.455436125307616,-9.51657127340576,-7.355408953167195,-0.6952898388345261,3.157355961769668,2.399173117405269,9.982114482073428
-2.1016607069374955,-1.495473773317161,-0.0134498776957797,10.179739944142,-1.814389426348622,6.468892496649639,1.5890057504590156,-3.910783475829228,-13.263877253782766,-2.201292207961701,-7.308892635266147,0.1820211355786227,0.2703295040143416,3.945323902772543
-7.736346399668756,-3.5698068543075827,0.7275257635876459,3.903978543031201,1.5383289637619375,8.218380525173004,3.932078297949064,-0.0332598724717989,-13.631423664082888,5.174783854725944,-8.331818590653029,-1.540774236437244,1.1421275761451284,-0.5111839849281523
-11.468028508325286,-5.127579438555411,1.4949001082609286,-3.461914332468893,3.6193383368428673,8.726967312527725,4.736138726487412,2.3372780802084336,-9.362451508964398,7.25825046928674,-3.437226389854402,-1.7598537880340928,4.12149128931469,-1.9445605625616624
-11.816465202515602,-7.280690387872587,1.4120297851959065,-8.313860569439044,2.2233528640976,7.488424262085228,3.919739132558537,1.991487343082664,-1.9550937137261712,2.213561959198639,4.099673381686159,-0.9849579782573414,7.251980111155433,-0.6276804216801679
-10.622249642948937,-6.683539151630221,0.4615321253901708,-8.720240378960938,0.6336446278853916,5.87725367507248,3.641828527692065,4.276977724367543,4.606761218336459,-0.0424571023117916,9.386180878943035,-0.1796813936872467,8.542157126421444,1.399547570555001
-8.113527519807949,-6.010690713373594,-1.0524078577402378,-6.162721485269884,-1.4842667333754795,2.555165342718986,1.3208400145447767,8.601392533298785,6.3242355130216765,-1.5024202120020909,9.099814081420618,-0.2465519655021353,6.94946759535668,1.4719795452608937
-5.789315207675699,-5.85321314327935,-1.7712305129041457,-4.159365272067532,-3.028286392621599,0.5487808671541289,0.2238077373730742,8.520415815201849,2.2024943001047177,-1.7979550537947149,3.816862979959865,-1.4453995000725115,3.120203005879062,-1.7776131929962844
-6.0158858856925095,-4.645280724633748,-1.946621652175626,-4.959603579829292,-1.2930702759685149,1.011466731641978,0.8064373989460516,4.478517700093575,-4.724094525791344,0.6719711372363858,-2.334265250745318,-3.137812628973052,-0.6519017763893942,-7.119702154961601
-5.791691442649932,-3.623535417871821,-1.8903700041187217,-7.481507633711189,0.700644476625808,0.2337135367220774,-0.9207195805946696,0.146401218811851,-9.5179061236679,0.0717280859794469,-4.756125962078855,-4.214560089244017,-1.7190109797791706,-11.375252957004705
-4.52032300324481,-2.0055030397061,-1.363258878634519,-8.511922943701222,2.577992121568806,0.6035565319514737,-1.1506959904325724,-5.681003086582389,-9.097532024794177,-3.2744777707439865,-2.0262229031353627,-4.010276294927039,0.8978371709040545,-11.801320836019883
-3.608129498228801,0.3161636981619257,-0.8004403186572772,-5.979070585925626,3.6703139005648566,1.079520276839287,-0.997079440736224,-7.696796622146148,-4.545651915436743,-4.305413423442707,2.8744178572658825,-2.9218948251407824,5.35372779277219,-8.312358950424155
-2.1544208296334046,1.8198691308519788,-0.6088998695136864,-1.055693419637091,2.8107383582877548,-0.6747099231897173,-2.95136131493119,-4.991081177335909,0.0004737184427483,-3.879833592640768,4.985958973869462,-2.0679641920398453,8.035659701565034,-3.554258973486654
-0.4542905770134119,3.347406558153282,0.1679045583825055,2.945479345472882,1.4522298925908923,-1.425237198477725,-3.308228883120328,-5.180999308483382,0.8994899077361822,-1.9999514499192368,1.5655481367515374,-2.223253120329552,6.358597234719359,-0.701053770453822
0.6005022790120118,5.2969204186221415,1.4639896388346498,3.6920961568287503,-0.5155040436585239,-2.039538232478647,-3.736934387985088,-7.097248657228754,-2.105540597699393,2.2800100728855037,-5.550068139238702,-3.06159050458807,1.0409951682729996,-0.9346718068008428
0.883618889247551,5.263197778913811,1.9245545192098,1.822561324183425,-1.9420299278431816,-4.489820125927348,-5.33583760175034,-8.154502834008422,-6.091913278145128,2.862257577644609,-11.52891721096865,-3.516375021735321,-4.264392896223406,-2.835330993761282
0.3203649974211645,2.8525435569306063,2.204200699724898,-0.05903419090059,-4.009298828112327,-7.323996996195987,-4.970713844995268,-9.516305127135317,-7.838326486430631,-0.3815801366928643,-12.65622175544705,-2.938718873021962,-5.894380256018437,-4.062915580568863
-0.791521866597996,-0.0409977541934677,2.61426263267065,-0.1480084162382127,-7.194604320511231,-10.37183956553904,-4.222237360486796,-10.058967637317002,-6.599081392375439,-2.894219146157089,-9.266031974931195,-1.853241680578648,-3.227854623671803,-3.5811337604766607
-2.86462388123323,-5.04731297676183,2.238324855103412,0.9354343642909128,-9.756543472782935,-15.022221375300331,-4.28482183248187,-9.550853839619178,-4.3012382531363045,-5.94814665616627,-4.981097993785141,-1.4757654926223438,0.7934332673976883,-2.336242185150184
-4.446172008880741,-9.376627568002805,1.2763799526327175,1.1554899765503706,-12.001662042419223,-17.518079591949316,-4.141607148605174,-9.484599629450903,-3.2809006650160484,-6.304423160161846,-3.265709465184486,-2.4490022013043244,2.157052162619792,-1.9734242124713857
-4.312189323677544,-10.026751081745038,0.2230799732281157,-0.6319683267190612,-11.306416901952822,-15.95990477636206,-5.014324006156475,-9.619798374981515,-3.962589691441309,-3.081915192478512,-4.666880925284374,-4.113982378449919,-0.8674146789830814,-3.085212767172294
-4.817574252577756,-11.845769366723935,-1.1189144828605797,-3.615660382405423,-8.58587183966419,-14.59134424414604,-7.030482516750892,-6.923217961231293,-4.700030767590249,-1.0736719188812145,-7.089583006993536,-5.107230616071831,-6.379047526367174,-4.753482940259147
-5.229059866493497,-13.58591964478327,-2.263358085938429,-6.167462983184436,-6.221328866598064,-11.416166847707556,-8.783025678944858,-1.3539119636962342,-3.6912650668478193,0.5802410358996494,-8.28717621823111,-4.681880339345497,-10.558460316334788,-5.6574640710231
-4.558558089483595,-13.14592534330482,-1.9023659347721908,-7.669876432900594,-3.712512428542938,-7.345410719364923,-8.654990650468296,1.302974706713031,-0.8686197693596966,0.4109916002821595,-7.794703424301986,-3.3837122296469038,-10.855646906915808,-5.425245112732114
-5.289168834828991,-14.610996498332192,-0.9948301688947484,-8.896906938747861,-3.4860274126876742,-6.577312328483963,-7.40920759668358,1.3379160686647196,2.088959541275244,-2.5472069082836923,-6.629443668899086,-2.4045365960911056,-7.923466835672912,-4.814582737751749
-5.845969185346121,-15.326589706992968,-1.28661253907001,-10.616034925994768,-4.050516784442191,-4.593535158294213,-5.675669036415803,-0.2939595268205089,3.4123208627451334,-5.822094217035752,-5.710183711109892,-2.3415577071353937,-4.831724789447321,-4.675247515696185
-4.932432536374645,-13.29568461569546,-1.5569618824291178,-12.173646513190732,-3.203797976355105,-0.9814731330128962,-2.1605846415716394,-4.950884056352828,2.730643284047602,-10.08281305024338,-5.093568353959142,-2.683345019610641,-4.489079978156923,-4.936459374819918
-5.071133107389112,-12.999587575101204,-1.4366232510680423,-11.84223667094804,-3.3378282249740363,-0.3261192056222344,-0.4067752891302076,-5.6830740685196295,0.978063890429894,-12.4963523936331,-4.706359755404861,-2.495287837062506,-7.557068745675451,-4.734009271182941
-4.04635270936141,-10.833435036044186,-0.7517196421213588,-8.67001644802744,-2.69442060148432,0.3294252861946126,0.1039818876140192,-2.268322299896917,-0.8769392803358471,-12.503115578633986,-5.205302453270406,-1.4571395335530042,-12.399586922036718,-3.474323561735161
-1.4089965922197707,-5.994097677078545,1.5136466543509668,-3.8049891025464433,-1.2299588446686591,1.57943582826268,2.324368181712682,0.237887567722395,-2.7087619925137005,-12.087708562576475,-7.461652510716078,-0.0842626538962179,-16.682190635784423,-1.6039023418629768
-0.0673779843508952,-3.0907138443734112,3.70958105312366,0.2471247803800054,-1.707910533001631,-0.4455410074858904,2.833058706385612,3.330490936671114,-4.819202765583981,-10.370707385847524,-11.070459443692757,1.0315711090184436,-18.97370644611175,-0.2148573676923888
1.7347369072636472,0.2430997026988839,3.443075234613169,1.7631981967299168,-0.5874362756977133,-0.9179864717476728,3.288242449923979,4.755778888337926,-6.927853563197544,-8.127620320078027,-13.823841395588431,1.9787738398317456,-19.11194243435247,0.0802196819866196
3.1683892702728,1.707075766301628,0.9954946028515124,1.1717083034809832,0.9751908631801188,0.2442977322891114,4.744063563738396,3.725352886768965,-7.9438149176387185,-5.468114827460395,-13.239280511642733,3.333644023025414,-17.49588490240086,-0.2263026071493925
3.0828605066986823,0.2836764614188976,-1.742635522482295,0.3120181884783903,0.9131591248750764,-1.2786346042673873,4.179194828637601,4.816133439485535,-6.921746300495272,-1.616607914336804,-8.840545829369773,5.249762310879135,-14.376298487962316,-0.0701200624380362
4.113128286847559,0.3975709691712625,-4.447457523381359,0.479290490862752,3.115175946312277,-1.242000549266724,3.849035691138392,7.485651298020116,-4.150987503419202,3.2669262900189917,-2.749978484095152,6.984871707898918,-9.869709230534966,1.1018945269916856
5.248880133680489,0.3622375559513858,-4.683613730741143,1.3622690341642285,3.550748989472098,-0.423248175281173,4.515135352878631,8.909334879940106,-1.071108798885291,7.025239716553058,2.2332995495070804,7.567631952441985,-4.427944315741058,2.868452632193112
6.026211005230134,0.6490958136636776,-2.3422503020235217,1.8976324912061384,1.9253267917337271,-0.8073844567449395,4.51192515238909,9.735696122554865,1.0331230880410374,9.55773401484318,5.182822449791075,6.941545124131267,0.9949852807865512,4.4259269672693335
7.785271430039977,2.5788139128739287,-0.2766241742928624,1.9221258125597276,2.0464274909860696,0.6680762497160834,4.838332002897367,9.58307556887486,2.223565884451886,12.67691169676389,7.556540704618982,6.230834557941961,5.394652717105657,5.502063975522475
8.895215253318657,2.7680549734465014,2.511344286541096,2.639644132848673,-0.3925761583604983,2.310071750817529,5.510468524786588,7.964145200089825,3.6949432554682176,15.898986968801095,11.138157992203643,6.6401510239909385,8.335829404211921,6.549234294025155
8.35976260078882,2.735210067350018,3.90211287326636,5.260980919778604,-1.1183707425660252,3.361268956610603,5.727987623132078,7.6063787344516465,6.329026928066568,16.864731629387375,15.654453707213191,8.048656342804989,10.089433017296956,8.023620846743455
6.880281062566015,3.81781875389545,2.8848307289599364,9.23751526628979,1.7760236378389798,5.926539403367378,6.2115666889850925,8.435266131188417,9.522738005483248,15.559593981091764,18.69476249891659,8.84943980753809,11.15981298737742,9.57429239624905
4.148671523601187,3.44791792222438,2.8083772855665794,12.067447680916018,3.1880582857824447,8.72600554571115,7.120053648410756,7.743939610635281,11.557543497578308,12.701482303691751,18.07883719955474,7.373980268075897,11.70745365505246,10.056358279218344
0.0933375446076723,3.624582736744596,2.315287216527204,11.104821214664597,7.004860758495516,11.647825622382433,7.889624490284469,5.954563117978884,11.19160304922366,7.671419487078549,14.152814893986331,3.5600763480421875,11.436724646264963,8.40531826078336
-2.9946864409459573,3.65683734234809,1.287311096308583,5.776905089390809,8.306194139885362,13.143958781703338,7.628172659686179,4.149092246365069,8.87199480214656,4.147710557742112,9.5393358344067,-0.8200488869762239,10.006574890221811,4.554547320844293
-5.661449389074432,0.6653000577217713,1.3311180125901112,-1.802817979759709,4.745622484915568,11.199599931801254,6.405366125495166,1.9163271227919476,6.331786492624573,2.356818778139282,6.585894840647057,-3.647867127011125,7.507509555779805,-0.4100393952020766
-9.263094364037826,-2.448745975133538,-0.6640218545308488,-8.302976111331901,2.4147133094195854,8.210907804370216,4.744361396795203,1.2222527224832989,4.974585153578374,-0.1165239385495644,5.208893801116616,-4.234887088603244,4.535995581710793,-4.920014779077377
-12.274528675547426,-5.990380978287844,-3.917193780931735,-11.347517197112763,-3.0861724309101475,3.730249170480362,2.028251399600161,2.3578728158369704,4.661228064557349,-2.387607682074085,3.383129870360108,-3.710199490825758,1.8304027080598215,-7.818094752972144
-14.003277370424884,-8.098891073199189,-4.692206217392497,-10.636734556342994,-5.429651184766384,0.7717362230588731,0.5730157913193679,1.867520539688274,4.06726585728989,-3.6393146816091098,-0.3186525004665625,-3.7526203321511744,-0.1631674571826593,-8.845127867984374
-13.561299234661654,-5.137490831726309,-3.655684310215857,-7.484039545132617,-2.1841467014049645,1.4277616705286782,0.6587000100779539,0.0944744406642026,2.1695914005533865,-3.950592574355693,-4.8939752232155485,-4.974404831429197,-1.4265692503686864,-8.531497159784053
-11.152601787774172,-0.9632889050374028,-1.550048599000463,-3.62805481406442,-1.1842474465533932,1.6111521985725232,0.1366975310237997,-2.9079960660879043,-0.6740836466731466,-4.996179116841054,-7.737087934262341,-6.457896663852146,-2.171222458572849,-7.711403157768686
-7.520468228193625,4.468924529523813,1.7194460677982986,-0.4076201274376174,3.632425774676456,2.758303764318114,0.7689369946024891,-7.895366764586845,-3.0870253840830024,-6.72339333604344,-7.227980122853197,-6.721174579356067,-2.569141067732964,-7.007411496484799
-5.427891140914292,8.208642186118782,3.0246951434194584,1.4188778319669595,6.487856469645934,2.948290634817421,0.567371090048026,-9.676284581077494,-4.001910731216096,-7.155350711742747,-4.375968932812974,-5.091596401681841,-2.6673175649516416,-6.557870924508535
-5.944953994397142,7.166566859123559,1.5849470227341085,1.6305927156195192,4.083023267470468,0.5788956636327085,-1.5345853012136672,-8.116523123189111,-3.567274140011788,-6.532311728495428,-1.890748513798636,-2.292941527940643,-2.491188316399768,-6.11140210919735
-6.260079370899843,6.399844201198197,0.698860189572768,0.5904109891939076,5.248604109229403,-0.834963422341605,-2.692598313241827,-6.352207435372411,-2.797367077865494,-5.013338629807203,-1.7308981989947316,0.085925032216962,-2.1471128472445447,-5.391119394159256
-7.216239364192761,4.634868915185072,0.0872690103735726,-0.8175521560510084,3.7251629003784,-3.033867240004373,-4.703466817449763,-3.2069449551247944,-2.469452310879248,-2.1944275284025294,-3.5786373492207995,0.6722654630160104,-1.7802167746851454,-4.41366463972907
-6.703850111920888,3.0521857865829007,-0.5568559965765785,-1.6328154006550477,1.6391422970883056,-4.44577221867789,-6.374099294957913,-2.4439163699394824,-2.4593309405935138,-2.487284800023874,-5.50754561414022,-0.8342000791300777,-1.445037984113018,-3.452533235506042
-3.522230111207346,3.903853592764233,-0.2518287425417325,-1.4458590413724846,3.10640290119778,-4.078416629962131,-6.097392155563518,-4.653783008662869,-2.110251124497605,-6.171303612319908,-5.857040048001679,-3.4641719897957124,-1.0584558699325548,-2.673678656111459
-0.9344119006789204,2.969532030996026,-0.3828197319067854,-0.6424352558013382,1.2705123663267583,-4.694211504183715,-6.527141623031146,-5.393399625413145,-1.101808543122953,-6.3895057263401,-4.430959229041541,-5.487637521314888,-0.5113039306569469,-1.8612254064821805
2.789988773231497,1.8717823480543565,-0.9390701839066096,0.007680449848852,-0.1104682453483137,-4.069428703715291,-6.354251527117555,-5.544644329626315,0.1563897823570919,-3.8153774374566423,-2.2321947798505057,-5.417363752243062,0.1711891798456974,-0.6238732522172121
5.787571450821587,2.1148158763978264,-0.4263629879339501,0.0340837631516848,0.1209956417784898,-2.9167513880663782,-5.201947923517146,-4.44648525753453,0.9630180092209102,-0.6766541722235963,-0.4771391866314118,-3.0259297751540477,0.7956498366494174,1.0483216669722069
6.17025341318123,1.215177545270545,0.3707399898125045,-0.4115541511347231,-2.0377131529849923,-2.1861364957863567,-4.619774526937771,-1.3136677222073707,1.051831212446814,4.325393205891686,0.0748898157092483,0.3230869864031191,1.151155469884266,2.498618438725046
7.511437448468626,1.2163357032081512,0.3418507162394669,-0.796936303832048,-3.0406717645225023,0.4724308330201752,-3.050035522264106,1.390235346020521,0.8391085681328292,4.2765102552588505,-0.7038068785406111,2.490282799820072,1.2209382018014523,2.857138383079864
7.996620192561375,2.309408025056289,-0.0538192839170367,-0.637820161577821,-3.49797924777401,3.288806984799457,-0.6017685917121468,4.004509960647301,1.0032583822018069,-1.450674176170734,-2.216480723995595,2.145076937925801,1.2615840329020571,1.937821771786993
7.559196643777057,1.3174750178655692,-0.9896365228646038,0.3207933487325078,-3.8518301403372615,4.555390869220307,0.6034774539410633,5.962290807423748,1.879157491759308,-3.678546951228321,-3.100980661234104,-0.0811251713751275,1.6513761216821194,0.6863065398479478
8.644009484104402,1.351666360264208,-1.4522550261395175,2.160976481254366,-0.2351256188766748,5.791681042027337,1.580762193500758,6.743245157850276,3.2261609925803327,-3.70158777319033,-1.758229391685589,-1.9657369886403728,2.595429712894294,0.5746096712859554
8.563542327051843,2.373934969791719,0.3423971601347595,4.754496360091132,4.453105888467484,6.318638235177889,2.9220285036503846,7.346499367004943,4.470498445675183,-0.3429609212270199,2.422573879511404,-1.4693746385397333,3.910398241859952,2.33600975382582
7.48958194254743,1.3008487437409122,2.906629551222046,7.537247684048239,9.69842854553337,5.742134374450873,3.19447771954662,7.434600087149368,5.105995379159161,8.32780473012306,8.069588650660492,1.5254223987477644,5.098715429962979,5.172551974528616
7.570642210018677,2.574206547467599,4.080486663724756,9.45765798041964,12.945641251845167,6.145792688479983,3.5082318216439607,6.75129170631753,4.9370733070015405,11.192501215975549,12.291487311946897,5.060306454117381,5.7200456419295165,7.25328659742496
6.610790494913512,4.007254060721461,2.878565990897651,9.470431330985576,9.439126638355138,5.2832966526769685,3.55779921081355,5.33429150342285,4.104636757338881,8.478559515897606,12.642034629939886,6.730811092764995,5.789493060904249,7.1707497825677535
4.856867028026292,3.2792981473611165,-0.5624738076421563,7.359017669144947,4.699899448022286,2.873503700282849,2.1675683710018903,4.061794668915738,2.984887441709077,5.5154148740289175,9.04174584375454,5.673876787841408,5.816213233267959,5.107210449855742
4.122715766874935,5.618251722450025,-4.120648614781626,4.132194750539668,-1.369835827872658,1.27548669510834,0.7697445614968913,2.958243627520461,2.0108673578586576,-0.0511277911013345,3.906171106811968,3.1457185569774992,6.341808654056578,2.6710853583178533
2.6856171094102272,6.151432196766336,-4.881274994289293,1.460371722010251,-6.062992681411701,-0.5962803423338485,0.2482519477397189,2.771056358175316,1.4481631891138136,-0.936325445371439,0.2932758092459124,1.2326162627212511,7.334586959950059,1.5340819844114293
1.5295866242387934,4.331425792452428,-2.4399257982541585,0.4962883818030548,-3.755923719361552,-0.8368577012693175,0.2473461765187946,3.8393815374147815,1.258999326271805,3.773599449479639,-0.3107254157762327,0.9705329742848648,8.06686785561746,2.066173413717138
1.6170783896086216,4.933153581001228,0.7412828618403693,1.0815323634260494,-1.270613644607152,0.7738297118355921,0.7314020734644509,3.9535743638272223,1.2231327404657577,6.021604378347675,1.283737606495535,1.6385862425092057,7.7458032682742015,3.1530441163252902
0.7951462438544059,2.791275715103072,3.0478481415189487,2.0432973524927576,1.2550649848184652,1.362612628912932,1.6624539409074524,3.290571558709989,1.2648421031165498,7.436315792659282,3.09590098364248,1.7804359132841654,6.386599165040607,3.299661589889169
0.2961030799425762,0.8276004926739394,2.996176989495888,2.284043126422759,3.4207262122811777,1.6326507846660077,1.4169581937281268,2.7050501807640304,1.6406157583769383,7.292798569848353,3.687549869851807,0.7999149311453522,5.000165991451368,1.978943153247968
0.7658373808797352,1.5957846161660232,1.0449572132471652,1.6523200893571328,0.8111491723682959,1.6075913981572367,0.4610295464672672,1.781171520592296,2.6774473167056243,4.225429903150115,2.9700516133903534,-0.5190795273869355,4.708711481093971,0.0203351145499794
0.6666607867347234,0.2390911878915013,-0.5027264683453321,0.8573919759719644,-2.094987988219306,0.3762885887845414,-0.1514704347987106,0.9879249979224562,4.218123140596333,3.068739862648228,1.749013829369474,-1.0290925188705842,5.526056150576324,-1.2224907625144397
1.3869615378162603,-0.1624452553139821,-1.0251704573802525,0.6335066549963386,-4.488546198699831,-0.3035130490200231,-1.696512826253222,0.3844951092599971,5.3709566791985495,3.4128960858107944,0.8050242154322547,-0.5967397124961025,6.082104922306584,-1.0570210936862168
2.1093641135532324,0.1317371812012183,-0.3741447322294372,1.0143616414121652,-5.647756720437605,-0.0042231952417006,-2.1691107263239164,-1.203663497470455,5.003176037917413,2.180003003838217,0.4103637731375329,-0.2998306787850993,4.784254648611714,0.1145191439691757
1.3402071572083014,-0.7586590751918342,0.4979810049904629,1.3528074055980852,-3.655885059578027,-0.6256119812006555,-1.382149694729569,-3.751160319938094,2.6918802341551213,0.1139124912584879,0.4315131355874655,-1.1968656641974815,1.420378326348292,1.3896880771332505
0.8955668535581658,-0.3500469983128377,0.1816995671424855,0.9482427217235808,-1.3169562232370875,-1.0941270143784791,-1.3624091975634989,-5.9151816173019744,-0.7336568084403368,-2.0193313275211837,0.5651735517907142,-3.010908226800076,-2.438691492042921,2.24766638434837
0.3115219401193984,-0.0720339239260131,-1.032161339117534,-0.362454926121849,2.0668718404658426,-0.8759110952628039,-0.1429721016493054,-7.870042550100887,-3.6721346379583215,-4.599561837658314,0.3894422192930946,-4.230465431811382,-4.825056049908518,2.7986747696309138
-0.7547414110462947,-0.0481616683976636,-1.994137959874732,-2.123077573750152,3.1743584455313694,-2.3814557070051667,0.4095994481484297,-8.46281319945233,-4.9300168431458005,-4.96405619044374,-0.5918673925744002,-3.633119958417815,-5.290126554409191,3.2621840560984765
-1.2100418493309566,0.2250345226547516,-1.774542579989206,-3.623670578989959,0.461920722638821,-3.8132282990591575,-0.9797999308144733,-7.296095086699557,-4.5682608683924215,-2.8060948780794197,-2.612750721563579,-1.6598128112389077,-5.3650028341288944,3.3889870908755384
-2.015273067437933,-0.3941666666787875,-0.1312723327975607,-4.334537125042672,-1.5121295531830603,-4.580502734064372,-1.473756265591207,-6.360306837065353,-3.6586807482817534,-2.185876591931726,-5.157620224121594,-0.1318727601760301,-6.899550518809356,2.557612943230403
-3.2591337283638344,-0.4414380762449106,2.272598518023564,-4.131383895582992,-5.621656316901278,-7.22501573113231,-2.7937249610179635,-5.318025965129136,-3.217500852323056,-2.6163430657202045,-6.902672321604399,-0.5044661139010103,-9.808693537440789,0.482910105843267
-3.384698630519946,-0.5272523980324311,3.2748088018386348,-3.288858564338419,-8.145358140578601,-7.801087480838013,-4.157928365165299,-4.225657850888176,-3.3391387849310803,-1.1568956564707198,-6.457945553229898,-2.402489961513382,-11.574328139437185,-2.228514778868643
-2.8492893159512693,-1.815946104608564,1.8747415435158588,-2.3181647458953023,-5.527820830616824,-6.298615221396822,-3.5720802289860494,-3.4370658955944555,-3.2929643477964774,1.6471986707436408,-3.492381894563138,-3.9333574807045153,-9.296871018572917,-4.30904390962948
-1.8291102075187584,-2.3890109019259933,-0.6228100434547936,-1.690588424800424,-4.084601914958203,-5.865946110319784,-3.5246088658744803,-2.3588778308234404,-2.3665145564042014,6.173222762706595,0.7530758221998788,-3.4632020471292435,-2.562477516569075,-4.692263260035382
0.230794590968678,-3.405376454386708,-3.552597795437451,-1.5325174106179595,-1.2751149704338247,-3.012944417323734,-3.3926603461582165,-1.132150456211566,-0.5581643835445931,12.996962156962969,4.20284016849903,-1.084921375594007,5.597743591520437,-3.2557650811327115
1.5773443199348411,-4.480841158818658,-4.627113089357223,-1.5090428448824331,1.4606286470708034,-0.9112583632957276,-2.25241711515524,-0.4138516945835513,1.4979424113476831,13.753873319322173,5.458905159667406,1.6095065140258704,10.73915199423383,-0.8483240228550315
3.400637590740983,-2.618630833820981,-3.002780086064978,-1.0891465580037334,-0.1358952669742975,-1.134830068101963,-1.461108632027751,-0.2017507000576693,3.131609336220833,7.99220516773733,4.78550739969338,3.0815579434319496,10.340371341152496,1.3384299906660502
6.027612516040104,-0.4437616236593978,-0.3961297677797812,-0.0616180052267516,-0.9345572255960898,0.5584168943467434,-0.2824935636860251,1.1447976021495172,4.037570845411739,3.7161018146237343,3.638178289258054,3.105346124615602,5.5398251590575125,2.505503667996292
7.907046551735421,1.595452857641011,2.4015883310739645,1.168378036276998,-1.7046209702147443,1.2247064704334665,1.8325578255078891,3.605016766239884,4.13195577913738,-0.8299444601919223,3.155237156542361,2.6013125667991077,-0.1339118551055627,2.5873832978168405
9.595070964445366,4.0861135604486885,3.4668718777041185,1.8840659852261137,-2.354001022656016,1.134969813164203,3.1416610082349976,4.7723819657188615,3.2461791489610654,-2.3002756972252576,3.080506551412641,2.4737512800187886,-3.7000143942141257,2.083498695090644
8.337614175324031,3.708723026210253,2.672913420883908,1.7686304354981628,-0.1192262785560226,1.9517911488458703,3.641236341827375,4.848026370109639,1.231385660707789,0.8745240396818256,2.222576434649177,2.794895021840061,-4.652534963402857,1.60142742853518
4.916338852857414,2.427770265928664,2.251083526286072,1.3098181570477183,1.9876461263196596,1.3913381273869887,4.44671735921181,3.8593393790650583,-1.536925191611357,-0.5356890451830779,0.0248998221464975,3.079462025989854,-4.428968587626371,1.4391939664992757
1.9139522574673515,2.099410713177197,2.7442176310615016,1.3593247963689348,4.317130357953036,0.5379746229653528,4.607418420175834,1.2473005763070917,-3.9297053223116567,-5.72740646847473,-2.399444466539447,3.0963543085441403,-4.403848094189726,1.4528160645925148
-1.7019371721827703,0.1759772966361275,3.0263145306790307,2.145678706704733,5.117724248195165,-0.2950110690056432,4.004870318014859,-0.3080633579944296,-4.6739786599251545,-8.550921044425287,-3.0216422630288293,3.15044628282091,-4.586778372751971,1.265853134511174
-3.748552744156657,-1.9591769243561907,2.5186864648128187,2.7300442180360185,2.403149412264036,-1.6708098634544493,3.0543401502791667,-0.8327797527396376,-3.4781152273526184,-10.434002094167512,-0.938917264755318,3.516824858245063,-4.146024203797645,0.6452425422589831
-4.550504531509893,-3.739275892870833,-0.0663724173561303,1.627077843785545,-0.493046183768638,-3.379654621262035,1.067990743266754,-2.356397969760148,-1.6172665436003593,-10.20240031669327,2.2352393020985364,3.788039436430979,-2.86415898747331,-0.2741356636521539
-7.243364683066441,-7.766220160319309,-4.904585115851141,-1.7952900966797412,-5.002066179560749,-5.803743321887383,-1.8031739716500177,-4.376003305800939,-1.2233007246211756,-6.786150185470452,3.2033885554987656,3.043459962554772,-1.7730406830239396,-1.1244178359348034
-8.613415582908242,-9.68700011554429,-7.049959943039754,-6.410688379275177,-7.547656903995353,-6.467693239098777,-3.3971859562283404,-6.341921679876236,-3.69091625297494,-7.111927438414268,-0.3679738702888304,0.8140610711476093,-2.25767882481766,-1.6733730126232516
-7.641222920503847,-8.3230655645957,-5.1607259417391935,-9.894451703305505,-5.326677326683085,-6.029265811101381,-3.8536414342580505,-8.481709177548332,-8.517890386525988,-11.01849261013185,-7.582469821174453,-2.154949275239698,-4.608453762100501,-2.0453293340638883
-7.280803893877448,-7.556595909533424,-2.551828022990897,-10.404467240996652,-3.632750941426767,-5.665551261162848,-4.409188861796636,-9.812541299566352,-13.595448746673757,-13.641214167946677,-14.510331682168545,-4.2552801454925735,-7.550387542032851,-2.5324542606655847
-4.846108306224028,-4.46311741796766,1.3117715467781026,-7.948875214483207,-0.2297883829822447,-3.097967689884111,-3.941304804935012,-10.18559007866792,-16.69777592790422,-16.282753026037746,-16.903328405276714,-4.29472699176794,-9.225151335683238,-3.161893844276161
-1.7449060476913676,-1.8671388403068632,3.1031059969247967,-4.235480567081279,2.5469643690344603,-2.232031177048124,-3.664836159985129,-10.181781243964696,-16.89498408868371,-14.831855566486002,-13.3178017280431,-2.541107264065904,-8.650832651143407,-3.4847655155648773
-1.018851845878041,-1.768275713502355,0.7711032741738345,-1.162989299811194,1.418233559170812,-2.170420009633981,-3.365538637049751,-9.51058277921154,-14.80359938256246,-8.235203311887972,-6.142828214443089,-0.529236680242672,-6.317919270273947,-2.884129192991402
0.9347072284759236,0.1171729629600606,0.2208266627038661,0.6772207875906062,1.5488655318942186,0.1637649652487369,-1.6554202819680983,-9.481242653625385,-11.729147854269934,-2.729747329613231,0.2449828390108273,0.2201801369994633,-3.539193186938814,-1.1880030962427703
3.735340576317268,1.545486729508238,0.5329047679433736,2.194557593963161,1.3500878673911216,0.5036180533866402,-0.0184589600525766,-10.219064056360017,-8.678368992697415,2.737528070888159,2.6527154198487146,-0.5817339292992045,-1.3490351036215031,0.9781195175750312
4.361082735842723,2.3774604913370885,0.6637233218654122,4.623836752716056,1.0036295856666426,1.6001843837510912,1.8841525793929097,-8.384980281127888,-6.07046068373516,4.88943731932123,1.066702740921805,-1.881682863761192,0.0184697491711602,2.494448342549376
4.289941362194826,3.3969649159574664,2.4449933317006654,8.122385729684105,2.848318787988559,3.813985232447621,4.108574954732979,-4.060948576430034,-4.065675103150195,2.2867439518812978,-1.9000478671059893,-2.2721517490293017,0.8222107430287906,2.5370175627248663
4.160223644116088,3.0884497841229925,2.646043251357256,11.396923730268387,4.182834102107987,3.520715316706311,5.895101370672155,2.2748674592682883,-2.819721134965178,0.9047298415999516,-3.358305230123257,-1.129415984295278,1.264218062405874,1.2316597059848071
1.941097499394906,2.7378720813210937,2.112667967053937,12.650134276062456,5.536711990384735,4.809812989001443,8.461296652623368,11.45813722040056,-2.276621116939872,-0.3339876980639992,-2.250083712238091,1.0231218904265198,1.336700964970806,-0.3853723706984304
-0.2416207825085489,1.8849553149018292,1.824244490424678,11.011260230170013,6.227885231662711,6.188993791115545,9.81108592711979,16.271398306807875,-1.864975463882864,-0.972476974303426,0.3288909078674287,3.039435493117708,1.0821026923128372,-1.1170797746764016
-1.236253202678335,0.7280800168349009,0.520228952378871,7.25988000585923,5.534911839824804,5.257168475316811,8.767548523134975,16.310348892332534,-0.7065341571114878,0.0330961717891754,2.4754658634143603,3.961179079064781,0.7754926263102035,-0.5074982599593767
-3.876991649328735,-0.1791131462605456,-0.337093456004089,3.266207233728643,4.78018555095158,5.771236301300737,7.644473699874013,16.936522738681546,1.6466047102583443,0.3783461267520282,3.0779546308505985,3.498848101398906,0.7055521259303816,0.8060696458397629
-6.983790112424077,-2.518103925915035,-1.9700068506729955,0.6048788374287568,2.935706465734438,5.442536195070122,4.935841959145825,16.48344720184545,4.6545610623344125,0.5001293098856875,2.334138288398808,2.0411036108587237,0.8012823021728401,1.573771177272377
-7.769062500904104,-3.507738251089368,-3.242323861598176,-0.5532731695686586,1.184745583441159,3.225807325052573,2.324430545735483,15.224543136922131,7.078987231270435,0.7138662058104907,1.0448271571125964,0.3857202857685635,0.6092462250541715,0.8853732507286658
-7.76548227051451,-2.7059681991064286,-2.64376038127537,-1.3770160210072788,-1.1140816457636191,2.5666360042981475,1.9354017368753116,13.724084478162071,7.949927101844317,0.7022708965758965,-0.3608530061048469,-0.6468051559571144,-0.2480549175616566,-1.13688962739905
-7.449494559073877,-2.853405732888503,-2.790144415895854,-3.1829192689543007,-4.959007615992491,0.9603937422860108,0.2720643951897897,10.236843510706896,7.315134032857706,-0.1767140234475066,-2.060605540479329,-0.6526036857730055,-1.5816221170910438,-3.426580337044939
-4.859801373845307,-1.2177154159643495,-1.9629084048458447,-6.118499884533566,-8.449384695929995,-2.2853873383470065,-1.5710493366666358,4.905106405850602,6.083741985223714,-2.0614899522749126,-4.227223364634078,0.0493171901919744,-2.6711798120414585,-4.747631667113353
-3.661014823688607,0.3629769277075031,-0.3121231718694219,-8.889055216716695,-9.90264077375248,-2.2905906749460847,-2.0543417917882367,2.1633144579171733,5.195605361504647,-2.6269055795139407,-6.363760936223272,0.5602201226878201,-2.85877139497525,-4.540141414737022
-4.050762780370579,-0.1426313383996392,0.5098057082486934,-9.825001129441606,-7.661062347952169,-1.521233996638791,-3.523151822910845,2.0850711772317188,4.971541318201346,-1.907407959194688,-7.409174823642113,0.0650578422318339,-2.1322739866246536,-3.213669618635862
-2.498493723177889,1.3265187539118142,1.8193396086489857,-8.360589189560825,-3.3077899659750503,-1.4476881033404518,-4.598015315285204,0.0896835530186299,5.177471061871508,-0.1094831255962116,-6.610992783995798,-1.4583372920045612,-1.1031194867576453,-1.73981760944066
-2.0063602975863275,2.62289616532701,2.752393711302722,-5.549023863473707,2.4571307804271334,1.940693273995325,-4.223816371462181,-3.000917433196384,5.510867498466174,3.3723546169574825,-4.326567262227538,-3.1698721999429083,-0.3852053759614264,-0.9349877853207182
-1.594651267227846,1.2814564591094164,2.2393893947837302,-3.099308180232704,5.180103017764396,2.7494241973892284,-5.014885966901062,-4.445901550581958,5.856069925392299,4.990429126990835,-1.9011406929440664,-4.096420716228639,0.0135252212139089,-0.9837592865733438
0.7262928189403037,0.8992587078052527,1.0179275023725582,-1.848569066960808,2.2266633918663525,1.1738029622640054,-5.351866544759966,-4.776953832252167,6.112264048335389,4.665348771044927,-0.6146342582489606,-3.9910486362257167,0.6797436483611943,-1.471261659136168
1.834358880978896,-0.7230831536661319,0.0720346642852499,-1.174329660032111,-1.2051297008845825,2.1837025717355445,-4.141106556478324,-3.960986438128268,6.022049629615747,2.1699731548319856,-0.5852930943955155,-3.4447244495366043,2.16129054995821,-1.7785301504749356
3.139493100447909,-4.857645209690658,-1.0447230019022062,0.055278090671667,-6.474689285682337,0.3751363116509548,-4.020785841796402,-1.4905740063106638,5.413903574600505,-3.5324633119022923,-0.6155221748772881,-3.117998993906623,4.309936745940485,-1.4930103836996
4.83938702408168,-5.024929173692378,-1.558721231037601,1.9629820636867252,-8.63021899057928,-0.0806911649236615,-2.7474374487712456,-0.1044976778469668,4.644069392356855,-3.9548706503993576,0.8467796502606291,-2.9026184394147325,6.236673367928901,-0.5872768492706744
4.100743779183855,-5.583539212396104,-1.4134909251081516,3.185559812570017,-4.377313107750273,2.7641965137066395,0.1857354804449152,0.1895685180354373,4.604427037348588,1.1176199350813742,4.438519363568472,-1.9311159206284887,6.986573069253829,0.6564783860990246
3.239749709403672,-7.971245446988725,-1.0077076384757668,2.061744648134759,-0.6041430490443905,3.1672440011334704,2.258422167401984,3.675891314319611,6.048060044189654,11.09350286662032,9.367478672445042,0.5258099992951406,6.424818937454659,1.8562492155898715
2.461526621016275,-6.123037042168326,0.1212338809431466,-1.5727653825856462,5.482472584073849,5.690836609670959,5.917468255194954,10.045548584014687,8.779205397763983,28.369375986321863,14.034829539393346,4.162891598848455,5.605995956557782,2.7343345331241444
1.4375382696720114,-5.693737215237476,0.8524192122647672,-5.743013785395807,8.08774985599198,7.010998651597878,7.761130521327752,12.038334513866946,11.530699940098602,33.81966941018337,17.18502708861324,7.628568559616105,6.207809314225201,3.215850391662752
3.042662088402695,-2.811644393830807,1.1260259929391117,-7.602214504273556,3.810562264733536,3.914252270066874,4.746783621304993,9.93314936070759,12.745810555253636,26.68644599850835,18.56497628978319,9.407029579071237,9.250207159894403,3.3798485912468768
5.286025305182179,5.605333727978059,1.3686620418185358,-5.610405681994203,0.6734998307509712,2.205986108404183,1.680952148552726,5.022516231354513,11.61681793871647,16.059555691992617,18.595557961764253,8.801418200402805,13.92575940450267,3.3143114784384
6.942938215788248,11.419543844810825,1.5908071622014412,-0.7716441145823123,-5.847481177532355,-1.6011266679423766,-3.4316638132061885,-4.4538650656159335,8.52672602643461,-2.816627856316644,17.517069974317188,6.26162277367721,17.528201781035417,3.009314641161861
7.982473817163878,15.081580093190778,1.693965442553466,4.107039396603755,-8.463277468366897,-4.100715450057117,-7.060292119500736,-7.926073944165609,4.6691456472016,-9.466960681327876,14.982413074289749,2.9773496454271373,16.906572675769148,2.4035430256565755
6.1936082378502,14.482757583102249,1.4874935077537046,6.485837479938061,-3.216531939101838,-1.6175498753739028,-4.994845900096097,-4.934403536814763,1.358908493645621,-1.9792184695260884,10.624557313783,0.2047655151254079,10.762128910632203,1.5469677953624723
3.004427176884556,8.707054299882342,0.1861584764024987,5.802966548683792,-0.0940361996519209,-0.3633265576339637,-3.5220323711159964,-2.11916652339729,-0.3770270120998806,3.226185451498731,5.091870378248622,-1.2353921220556514,1.1749823138029425,0.6919617699026719
-0.2670045534268813,3.115753075319891,-2.2261696422915267,3.5664965153397503,7.164874676386751,2.672980566620553,-0.991773194028316,2.9847031689903667,0.1103413535941566,11.079017420884758,0.3877447892429648,-1.187000424272339,-7.086604640509402,0.1617164378300359
-2.251436392749372,0.7414376637723412,-3.374285021358892,1.9509868953249776,12.108676600183928,5.320864392335766,1.8445144830920048,5.002682150711004,2.924299081564473,13.034614240806102,-1.193932396810354,-0.1813336661830087,-9.449008934764938,0.0740353938821405
-2.3365969884543323,1.1686384293241476,-2.816671226264,2.1404570157946914,9.860167895589706,4.192739678701203,1.7028207844001904,2.9444466649246195,7.225774327674666,6.503239866478546,1.0757753706609456,0.769327727146706,-4.752665863124372,0.1887952891155739
-1.8001886132708744,2.890003709706619,-1.9238788253841157,3.670763448029814,10.931459213345528,4.647596467173804,2.737273404335841,2.03538975620884,11.08279896745262,3.722607605137896,5.337267856776448,0.6641223785723298,3.6673879205305138,0.0777176439307867
-0.4918396706977614,5.444362594989725,-0.848586108264366,5.095225731046965,9.226235359164695,4.4615582897355015,4.35778253863655,0.8531286838648491,12.19111438636007,2.3033315441925906,8.167151141922956,-0.8653957609639686,10.129018637778572,-0.4796961400248927
-0.5019022782276539,5.373026334167396,-0.6414980778880013,5.269880906084668,6.20223069767642,2.266315808208806,3.527883617503808,-0.9982580555950084,9.35514646242288,0.4785256175965489,7.142457945729326,-3.2210006602051227,10.563519199687564,-1.2080354009191945
-0.4832954226651435,4.769066480207299,-1.2432443417238577,4.1995387968124085,5.900660042288214,-0.0578648087536075,0.7628912945015881,-2.949357000432068,3.629633884102085,0.0200077717775347,2.8674105089852207,-5.140041767528957,5.297456525766245,-1.441660418876685
0.5812886950330654,5.577034388839293,-0.4843234835097229,2.859119214540976,1.7414030815170978,-4.215080307242087,-3.1459882352233293,-5.312094179366784,-2.0851365276474905,-1.694176422881642,-1.434888687624574,-5.535982843858234,-1.51760693937819,-0.6073226185549192
0.4490721960298024,4.5052191848494445,1.853262737114677,2.24909971413745,-2.867752514361156,-9.97127893901478,-9.161241072662005,-7.970400269878897,-5.014495885724433,-4.529321952250488,-2.63772976025976,-4.297080552651008,-5.317224233413205,1.2411167854233884
2.1635406889831525,4.849284843583792,4.165156141295096,2.515153014002766,-4.366957796033472,-12.064557873764224,-12.448556235634507,-8.862523612443585,-4.558426725480691,-5.3703457853379,-0.4610331488616292,-2.405254944288574,-4.55035737067232,3.257748037771929
3.617331215570891,4.74593008323481,5.131941801851785,2.8680863439397086,-4.204105349303462,-9.74701378912732,-10.59380885959582,-7.7714224998969135,-2.621936220439025,-4.474352821231535,2.2210386314106554,-1.2152849195456898,-1.3693904517183686,4.233155802832505
3.4375064940666946,2.0630082970309847,4.192198501589441,2.3700024785689884,-2.251969684633879,-6.8401050457982455,-8.639964931945027,-8.03786722999049,-1.854553485576682,-5.242179923380814,1.9017230698540644,-1.4076391881136985,0.7396314571178486,3.4369877871041545
5.858526908362324,1.4963466367952478,2.029353970354642,0.908507899028402,1.3068663623086971,-1.035633280216932,-4.772130525718248,-9.297796248987927,-3.350927776997459,-7.289805033182919,-2.377944119194,-2.441603139770132,0.090538695178342,1.3077758910409756
5.266268999698516,0.12309857851935,-0.0986681651248337,-0.5398239863559358,3.3116167333689543,2.5945903555814893,-1.624048621970404,-10.096736957916123,-5.90148438543763,-8.549130925964578,-8.021418141453099,-2.986527644906987,-2.082237707534361,-0.6282317752217494
2.2621622646139725,-1.648039857081839,-0.9683721384921978,-0.7105431595161189,3.2954715523663167,1.0589150163706864,-2.140920781227856,-11.005230704964749,-7.408837993083064,-9.554827125052448,-10.98958694082616,-2.0240285341165247,-3.273225233254651,-0.7538122190350496
