AF3,F7,F3,FC5,T7,P7,O1,O2,P8,T8,FC6,F4,F8,AF4
6.488421667182102,0.3443997910466174,5.276816277815268,3.166444977901758,6.566938705458295,0.8056561666476334,-0.6199716819109149,4.753374272849783,-1.3723167380972563,-0.8095455621891526,-1.3608026414932572,3.705222455312384,6.09725377667603,-0.5338862260096975
5.418716211998277,-0.3218821778904233,5.492932715470932,3.236087965527581,5.954835209100242,0.5564258536498343,-0.6332701197523551,3.8155759702548018,-0.5327816752496735,-0.1496934786751112,-0.5312339904830823,2.9749276108596554,4.981352946018877,0.0253996671842484
4.413234721661691,-1.1069243123038797,5.593404754988658,3.154588768576584,6.021072906893683,0.2406408475595753,-0.8400388614452261,2.9540935635363965,1.0020572984852734,1.1381162426530882,1.0261922108420418,2.2582604762968863,4.017329447571086,1.206438845857073
3.6276755318485776,-1.6629716999695003,5.840637240670446,3.011400103157218,6.014204529967482,0.0326198937344131,-0.9342015698927836,2.4527709068173422,1.8481027206561236,1.7953571148240053,1.931649255163927,1.5963844978870334,3.321891374376466,1.7942834007257769
2.937433683195096,-1.9926577189294536,6.365969602618993,3.0430074651657506,5.6305970849939815,-0.0262150767997972,-0.726984605477476,2.0915263989414328,1.6565760754690844,1.5740077175269005,1.776273002298886,0.9176061037003757,2.5672985902113474,1.551888169943754
2.1717486105912087,-2.38482691837184,6.980689899671408,3.32844279263859,5.54452410156502,-0.0962255790561208,-0.4518142095440609,1.522727092342958,1.0804518126563865,0.8926584910548689,1.153731048357647,0.1900268210597495,1.5906264323911614,0.7373499970573947
1.3182565202027623,-2.55495690306144,7.257704075417415,3.5628694259727247,5.800070755803908,-0.3383978159036545,-0.5075524388788395,0.784540397055661,-0.0724873996072048,-0.2881002710389593,-0.1240108858376795,-0.4746178029583028,0.72876559140499,-0.5425063561189909
0.4706157728758029,-2.589791913475981,6.832763665324496,3.242041156446444,5.874110843581606,-0.7083825430343502,-0.990079809457125,0.2626123031098863,-0.8789295224205025,-1.1307592360650105,-1.010856442696548,-0.9372549870707338,0.426058029236966,-1.393620764437668
-0.3216163885678398,-2.6612510830246143,5.662467241345599,2.149492484210686,5.967823073014295,-1.0275353771592393,-1.639055185405919,0.1963373448756158,-1.1503234303289247,-1.6152402823219232,-1.2741252029075445,-1.1935589999947602,0.7302313176400013,-1.876895948901685
-1.074995774287789,-2.5958116045108093,4.005428617115889,0.6278776224690894,6.365721332560878,-1.2423413900704467,-2.262688340003848,0.3899896105472464,-1.4727097038023589,-2.210866950522834,-1.555519165749123,-1.3475763862175718,1.369456424805918,-2.338355742280765
-1.7973281939339216,-2.381750942795776,2.1694921323744296,-0.7638024508818262,6.690197004899413,-1.5215313074117989,-3.028082957973613,0.4820623848554106,-1.964240738071577,-2.972872854643911,-2.043091746544121,-1.4495091331109895,2.1809172880387777,-2.848152198043437
-2.489702717152074,-2.083810023640411,0.3075150591834727,-1.856745504376228,7.150859493263862,-2.022978756543395,-4.158704871891064,0.3856718015635358,-1.7806178626357658,-2.645754026773008,-1.9021333575816712,-1.4663439528549986,3.176874537645752,-2.351224041596249
-3.2038697058470937,-1.8546101856383763,-1.5398684992152596,-2.9947756581986624,8.007766922138277,-2.6142509227867485,-5.432086331979676,0.3355118186796666,-0.8937007871264092,-1.1899069516273757,-1.054583027977543,-1.4295797430599857,4.204828429537553,-0.936583801244928
-3.99745566965089,-1.5812002920474926,-3.2984351723010263,-4.478591495353935,9.188276516699249,-2.9685733571781974,-6.2807691136946815,0.5144913287559838,0.2936673725881082,0.5528626286018705,0.1950814411215897,-1.4954094588382034,4.890883854237615,0.6992189456526513
-4.808296560420423,-1.145548650544656,-4.894002670684571,-6.048792698058662,10.506329437967064,-3.005954050186915,-6.555091940950831,0.776592489787479,2.014239434410467,2.839727469883269,2.081201760877862,-1.7477732947996856,5.162169099037026,2.945910526454026
-5.472422565007051,-1.14107431521958,-6.446692860714581,-7.172298720060276,10.239220745991936,-3.114216363555048,-6.957145978305181,0.8479134925696385,2.349635351795189,3.220600754787056,2.534642326587558,-1.9894985972262305,5.621018041976921,3.3359708965436825
-5.952007817387873,-1.4549074867092306,-8.259365572957211,-7.850508955303514,8.717785248867022,-3.727551767944135,-8.304236759479068,0.7447227026838839,1.4729546364537578,1.97950575320512,1.6839276531906364,-1.9043668529947269,6.951983892041685,2.145335362315201
-6.484764137801012,-1.6478442747874409,-10.39983121299121,-8.807810168309416,6.693516517800888,-4.64009677335865,-10.2309300574357,0.8063470081102828,1.7087652155025066,2.472640479980225,1.940877608671844,-1.5419353035536467,8.765976960153942,2.5669704022261888
-7.363499580002937,-2.356119378942532,-12.26880557727572,-10.526721958806188,2.9219212544650226,-4.933782655015042,-10.959892515340725,1.1702382163523772,1.7863450216409695,2.931777576445534,2.1545668648838623,-1.5701209715324822,9.303567034521697,2.62531894719846
-8.494352588062846,-2.503929516753179,-12.773183174843023,-12.107650936153428,0.2967846002530161,-3.811940562540002,-8.809673973101809,1.300322292284168,1.508776801149844,2.685205348363328,2.0219728001250377,-2.823148969474444,6.785827320341209,2.068507987350698
-9.264223185365555,-1.4227903440097047,-11.18227990219625,-11.534999417953651,-1.724103370043739,-1.5321997731922783,-4.057043913524097,0.2623710686989042,1.3379650305000947,2.2156278870886497,1.8060668035006235,-5.459786898641518,1.279481146107095,1.7503449115248753
-8.968029268765711,-0.4864615551551951,-7.893426944093628,-7.49769565817007,-5.5724995407460245,0.6739023225715979,0.9715259426775428,-2.2956520047067155,-0.8592621324741068,-1.22086777438772,-0.7031957921464769,-8.548202576232196,-4.856888931373492,-1.3386841301701868
-7.446142315297866,0.973754869097053,-4.277852683699983,-1.0126087443834957,-8.266588539495439,1.7241648781586765,3.888080116086076,-5.4613489276383245,-3.3189877549043336,-5.1303634590789065,-3.776958237639412,-10.625503482263673,-8.650177392770406,-4.636003604089118
-5.298586882863145,2.388997963814541,-1.6704169345962754,5.019230052770622,-10.437689176233302,1.6667769855433257,4.306253355330401,-7.543183625079806,-3.5426403316723247,-5.557056526332466,-4.35120885516014,-10.784382507922466,-8.847756683637403,-4.762914124218351
-3.4446871457674,2.611936683162368,-0.4498438231446222,8.104317545651016,-12.455501329174242,1.448356169669195,3.829850621967781,-7.431812477796363,-2.664445423104871,-3.830653720014569,-3.193802746482919,-9.299823936369542,-6.726205417792894,-3.553200421066379
-2.456289255157907,3.131592553259009,-0.0558970482464573,8.053437641325726,-12.55313486723607,1.7911199464205687,4.1371131059595765,-5.538478118355904,-1.3639067165383123,-1.5043316352878335,-1.4447443454011346,-7.263659420746748,-4.718280760238328,-1.9204873133726816
-2.223147814647475,3.702324384271441,0.250250718051106,6.674022546607873,-12.502720554813738,2.532267389130069,5.411533458778157,-3.297248932941054,-0.3714326799686532,0.473805377797911,-0.009147282213144,-5.611811915749344,-4.236426591081395,-0.8833614595379156
-2.1612139971959534,3.931058378798504,0.7619032839696267,5.800130770471767,-13.434386964440913,3.117063497668324,6.724215019204175,-1.7310734347172625,-0.59490416728393,0.4463693548697906,-0.1027317158797843,-4.464661151572491,-4.729347536644156,-1.415916067059143
-1.7210180142231533,4.753852136110321,1.3787460387346968,5.821566710625235,-14.389160678268476,3.459774455521337,7.53212556900658,-0.6057933546533834,-1.2212369975104138,-0.7339039530694778,-0.9731386013603804,-3.3003954693464657,-4.677583087829191,-2.0559445676016743
-0.82169704872212,5.545253644538497,1.976831531548556,5.993499226941478,-15.1722403702206,3.9733158521202254,8.250714377337964,0.9143980947492398,-0.5401625265938946,-0.2253884866588152,-0.3175428326103726,-1.6991024584282854,-3.396598626015693,-0.7063739322479126
0.1304226717259728,5.917384881326584,2.562653321829588,5.731221767231363,-16.17982639882544,4.8127990250979344,9.371288816877954,3.017616304715144,1.0585552703089802,1.353112477529696,1.4474892435223945,0.1781773373606263,-1.7481316113519902,1.8829421019928263
0.6651473220361912,6.50621667275885,3.131682856418472,5.226534796133305,-17.470351486865454,5.510825003791118,10.590768771215956,4.967297799031936,2.15147007492639,2.20110308473068,2.2832179075920003,1.8227091587898137,-1.0776455288949505,3.343641093174909
0.7645057630362277,7.025193039493537,3.600168359384811,4.912641182653825,-19.066519474052896,5.657508410610778,11.304523281216188,6.149068996224608,2.802511374110876,2.55021198846371,2.165657062497225,3.0150586765278526,-1.5608592431316666,3.667092671810984
0.9785352511500396,6.933375937654127,3.999074561759379,4.783479300554956,-21.37128644587545,5.708993492419897,11.748247732101468,7.087771753624828,3.4042881858546905,2.642373665455789,2.0098463924443566,4.146106080243288,-1.818999502037861,4.26246074986589
1.8611923642075656,7.046339761341446,4.560194908310866,4.52234704013852,-24.202776971054345,6.579182333965544,12.93597726337598,8.92673792364885,4.625554181207921,3.1400879408207443,2.7011509280024737,5.791060937866682,-0.4587907939620446,6.368067043805788
3.1853092164442494,7.017724365998385,5.403831953915383,4.140039626261295,-22.72773927118929,8.206904382760872,15.06501480974114,11.727345085808729,5.152408674949477,3.661143506875854,3.9227541543633975,7.928702823241301,1.9409375760094,7.940711442661149
3.866702681774228,5.414304291538054,6.177361912281028,4.135539457936075,-16.99137923017573,8.913233590367854,16.346417793857828,13.625313861115815,3.3502181655481613,2.6419202669873347,3.81435878934546,9.667985909377151,2.6862561766048274,6.061564767673408
2.951404407908204,3.7028452105529777,6.240280635209395,4.913540842816079,-10.218474426993271,6.775882771324014,14.15519646272212,12.199781655051362,-0.2477131009253219,-0.225001095021497,0.5071139095171484,9.914539616250078,-0.6855356854602475,0.2998583114625691
0.831512368282223,1.9039485924871549,5.395898682123727,6.240275983853681,0.9584065478235622,1.852680975392284,7.726426813930326,6.939512719641903,-6.229936697106592,-5.041250551761183,-5.690933370277719,8.439480624650523,-7.634119186244096,-9.704129317773546
-0.7121075379622099,-0.2606065596259221,4.339245985349524,7.437516294586621,8.306593176398168,-3.274189419634898,-0.5085942843673443,0.1799939167142201,-9.572009949084205,-7.732043504721819,-9.297492435286182,6.246665538081686,-14.381523015939855,-15.317795763100966
0.0044674056208799,-0.0789491750589878,4.12732610418112,8.038761011331202,9.755340062542595,-5.566830919848306,-6.663714985800703,-4.691934631553241,-7.063853201644927,-5.691746224063957,-7.123529258069269,4.754687603172349,-16.879009616254706,-11.140841042883824
2.90850172592657,1.0438582424434737,5.093175613426726,8.098306014401643,13.921285241894578,-4.241608246177633,-8.603446147210118,-6.054675559607461,-3.878960871217485,-2.605319932111697,-2.2229584199009804,4.553559411370611,-14.26824925795897,-4.425784256795538
6.09288734094684,1.39737185584057,6.41044452439546,7.877831422061765,14.575879992525772,-1.317726729394189,-7.397161550018539,-5.085979147943591,0.231138397956646,1.115913111623646,3.4795855759484917,4.995218511567521,-9.433509448482166,3.83018497747687
7.527884848371745,1.7653224762230983,6.883571463408005,7.442125067022097,14.194376273777982,0.4992217914427534,-5.73813558287225,-4.133308388324474,2.735732184558733,2.951768433172405,5.452679680970122,5.020208867163445,-6.106878311318537,7.785969645538088
6.840238910176881,0.8305437172193054,6.132672274495111,6.680014780248927,16.41009877170227,0.2724379442388258,-5.265627033061825,-4.353706605973365,1.2521479501704735,1.269064264613296,2.008961873760992,4.277327316848604,-5.544989252392045,3.66832987360672
5.327175188350767,-1.1407242176547785,4.848037197405938,5.585476709561981,14.143483958492348,-0.8472561285602538,-5.579378395629588,-5.114513048075395,1.1329648735787263,0.6250608244306818,-0.4643327630251587,3.288923630451336,-6.109283710721887,1.0908861207414415
4.36375230207215,-2.554514490572301,3.8859863873682974,4.33433964246475,10.821713750439915,-1.37873637113307,-5.510542133517012,-5.381927659069419,2.3749947673441856,1.2356191399413303,-0.7302487372529312,2.619693168921015,-5.745814472853079,1.0631904678845805
4.084316856279781,-3.548306441827521,3.339667459508364,3.092529628171784,9.927814702095525,-1.1099206640092554,-4.745869190222904,-5.120151242254313,3.056159796728037,1.7965001361288444,0.1877122534995942,2.1790994601255544,-4.275983946577376,1.5568272732786497
3.69021085667996,-4.587636333119475,2.672168917951491,1.8919775225954627,8.57477555014362,-0.8823607944694416,-3.949719155691753,-5.084255556578951,3.541808142652148,2.426921413240854,2.224283753798334,1.502523491769714,-3.040767715504564,2.888691967561028
2.730341530670895,-5.629780237443021,1.6033616500677337,0.7284144097591501,7.214966371366554,-1.2534140843321957,-3.666796490857848,-5.5985947862264105,3.1468457908874767,2.1997423713141337,2.6572965223849105,0.5272110553336278,-2.80164980061687,1.9301341947592752
1.6509034583924835,-6.589813184928322,0.5171955706448514,-0.3510186384534304,6.897819851701698,-1.8513741347896515,-3.6279333866893193,-6.110559991031352,2.1960224205855488,1.649080348562748,2.213750704969381,-0.2754358435566422,-2.7696901920218044,-0.8445061845810805
1.028641911767215,-7.781880087067013,-0.1494995533083098,-1.3747245473198024,6.227307180451364,-2.0789772287255293,-3.2859434398639875,-6.087490321984607,1.960604594108956,1.8025601041233,2.513834765885799,-0.6308255023373217,-1.8847847912505733,-1.163629514934178
0.6741252461262466,-9.156284116443508,-0.6321601443350211,-2.545265947442001,5.375878919844926,-1.991647345466124,-2.640950259256984,-5.890624179251899,2.0092850195066663,2.0037760657916914,2.675185985859639,-0.983788211735865,-0.429469298502557,0.797158357242161
-0.0930675288298861,-10.432877024028777,-1.568273913281753,-4.00805390939878,6.039080870905591,-2.136809488801104,-2.179841466798978,-6.287707500696241,1.0234751636151784,1.1676373584660218,1.82606197368464,-1.932298234404647,0.3393451885831311,2.187582164860165
-1.3709224169382337,-11.758191192879446,-3.006959769703302,-5.526932189834072,7.1694801031673165,-2.6724834818448238,-2.083343325318541,-7.221534054452282,-0.8004005690730016,-0.4310747265795118,-0.0598106530903426,-3.247775864342977,0.0954572323378482,2.795675684465284
-2.376499715491299,-13.039292829362754,-4.129792430786502,-6.644039876387984,4.3081562372486095,-3.091071001079144,-1.9095336804590968,-7.67323623258149,-2.468807523457848,-1.9281471150266465,-1.9482889630276432,-3.967052241073516,0.1811457483017022,0.6421472906524344
-2.5297127698210264,-14.0678563779155,-4.339880915683121,-7.336714944198533,-0.8965891392626528,-2.995254599899459,-1.2672664845831818,-7.099832035723294,-3.565683566504779,-2.93537208366559,-3.061547832489813,-3.742739923471984,1.8430772129360171,-3.2147900063942605
-2.5858610397202053,-14.542439650045134,-4.437304573392981,-8.350828612088444,-6.467308109892333,-2.8601015086287607,-0.5643833167241579,-6.629202284002956,-5.026767444056657,-4.24467502006213,-4.264491862450328,-3.751725833427921,4.022054819490954,-4.651668426859141
-4.094958864448476,-14.968952742612604,-6.060177513939405,-10.492663628232224,-16.047948845482797,-3.576598651273894,-0.6384506790170121,-8.030990896004518,-8.584765072592818,-7.870311622194828,-7.950330197553763,-5.553328274890845,3.845170525242434,-6.946561851260053
-7.4020341590471475,-14.026110699107608,-9.492497365762995,-13.399037755345953,-17.857484736676287,-5.125321817607695,-1.4992349311324062,-11.10801791082178,-10.51336246174302,-10.134075526110747,-10.55444481228924,-8.737455024844593,-0.0376815778730872,-7.474257325944773
-10.437732438180076,-9.663425129673044,-12.284312858554475,-15.24659620223544,-10.23548511928613,-6.031306075932029,-1.7764626993854726,-12.54045605520626,-7.438528749604769,-7.354031868293385,-8.131125733258587,-10.161481121266192,-4.840876910906603,-3.506398132531529
-10.109050414457156,-4.274738884213822,-10.833035220913011,-14.123597357536,-3.919877600412249,-4.553274739144196,0.1111989986094288,-8.228677947511859,0.1483318883602297,-0.4055503336996676,-0.5033951155397163,-6.38109532072485,-5.229741182262078,-0.0839762771177572
-5.377441139297909,2.417430305102467,-4.006119450311092,-9.98751217054576,10.280118664216156,-0.57891030190902,4.015209174834716,2.5450397960266784,14.16507376935257,12.368460886600628,14.477573645596197,2.6158592103468274,1.7484284527059586,8.80812987210568
0.9988948112610174,6.898357956532612,4.775894026790086,-5.216419913093382,18.77290620999814,3.785367469637396,7.448957776811935,15.215501739493448,21.72010455699801,19.487810315960274,22.813056812776164,12.181650730330873,13.13236927197809,15.193060018156055
4.151568075819926,4.619126850939212,9.5917949651757,-2.931028790087465,13.39697885731153,5.723721406279736,7.2647524017800755,22.629368825964104,14.081834444225308,12.946560155878332,14.755324890293355,16.038925453474924,21.713084042647445,9.303846038489691
1.0428302984189024,1.2398922002839732,6.794848553919806,-4.519366350508754,12.469661570225975,3.985271096917256,2.2935163160772545,20.343261206504916,1.7677025565385267,2.700995097959102,0.7003798762546867,11.175863130833385,21.678023348645336,1.3440190947608095
-6.781374896041221,-3.595006903297272,-1.8010082838289456,-8.571446451859199,6.1986413491744905,-0.173234321358418,-5.474228006110832,9.988149335061523,-15.925408119050076,-11.323382556314538,-19.444133537386,0.2851099684367657,13.161615276224314,-13.165057607736316
-14.134163297661203,-6.289793183624598,-10.319996133517838,-12.092068387711077,-0.8328269298364914,-4.119484207540172,-12.262667912603492,-2.084722178271923,-24.51832718838052,-18.0367999198945,-28.743016044016585,-10.328135341161056,1.775715118992891,-22.32875851252746
-16.059877797049943,-1.7007246373092944,-13.51313025159344,-12.770819876139608,1.7951397062093404,-5.8462472778555306,-15.186381015358297,-9.475363889728124,-13.127844211300872,-9.04908866641983,-15.086800823585705,-15.363591563718062,-6.025821185785485,-12.98851557612703
-11.35029344884732,2.9173457826051226,-10.507767772402117,-10.341419023221317,-0.9135124374651052,-5.068905755398053,-13.928346246238569,-9.741150575018477,-1.5917888251693528,-0.9342559967564594,-1.0410454336245416,-13.736928811879816,-7.360748999151931,-3.3355465593593294
-2.900034905908917,8.458384973684062,-4.603671476902707,-6.179151092415684,-4.292149194012904,-2.80836255593845,-10.26450672304643,-4.875101110837448,10.302847371233552,6.0979890104101,13.382222985987664,-8.18329768964255,-3.622338781152109,8.41819753564039
5.016996087863893,12.661649110264989,0.0552513473369777,-1.926240425045684,-3.995751176796913,-0.2876839916251006,-6.280194797429825,1.3044338136619356,16.31862849299565,9.103892239103848,20.45745512407307,-2.3613293000733675,2.138901002868508,15.990629962164698
9.95117093100558,10.912357479947616,1.590872844085764,1.546570032630056,-7.434186601643046,1.7366063138621983,-3.029062117511245,6.124114570986077,7.947870919865166,2.7543271716865223,10.109225860541375,1.731029233812155,8.012519134814871,9.510822159694662
12.26498881998076,9.5993077477401,0.8447968204975602,4.178576160920112,-9.062932621372248,2.955163897787876,-0.5369418954354774,9.053622595921237,3.870709490023859,0.8120529381169008,4.740086416661637,4.155747213932943,13.703280338566747,7.655190423350307
13.5100895324722,7.650252912355318,-0.390978145298007,6.1184297666741205,-8.329260822871726,3.3198784481217976,1.4035802062805356,10.612934873995066,3.266530911052206,2.611716185663437,3.152531777853454,5.6438072489838,19.013665241174905,8.927083602949036
14.195115047460732,4.808033417884979,-1.1697620604607444,7.19821456895566,-8.449114539570598,3.0631162892728137,2.699743275590725,10.852429995390306,1.7971531191731631,3.4620591636326687,0.7351757025336911,6.193034120201682,22.557504158148607,6.622196004377595
13.217218230350625,4.264451802581789,-1.7183599221079486,6.878243592847348,-4.110145739605187,2.719015414665133,3.112695844158802,9.044324830300248,2.918824819091736,4.418185162363095,2.1095060539612045,5.008250927122933,22.28045490656044,3.7148156797396
9.407478513979685,2.646818343208392,-2.584772669000495,4.688857318904752,2.404404078295967,2.7738324255433677,2.6214430465210525,4.731842520248002,-1.026638302300024,0.4595377544182737,-1.9813156055822436,1.6621054907853967,17.268428556940105,-3.7551870897467783
3.45723731775559,-0.2148083593860529,-3.812427503309441,0.856438524702825,8.915887716201166,3.183310845909797,1.4896758598596411,-1.0937902075347377,-9.07342420545811,-6.85483910304001,-10.364756896845874,-2.8334331118825644,8.995055766564988,-15.14336085796888
-1.8912759230827056,-1.1706606725775532,-4.852716661952864,-3.3361437029735166,13.804410422517568,3.36336971816934,0.0614022364020065,-6.083815718325016,-11.918585922114245,-10.146620463156603,-12.621650145870042,-6.269905837426203,0.6558508642704703,-17.946337851580758
-3.7862816560340313,-0.4808360888502609,-5.00016670227595,-5.913894694479522,10.987255599443069,2.914000957754864,-1.216577441618938,-7.989460250332252,-8.274278951402229,-7.288637089594656,-7.641587174137193,-6.757822645934834,-4.941843634603841,-9.140428670232165
-1.6252647096207866,0.1737227511591089,-3.8534006544338375,-5.352193627838267,5.847255515091336,2.3732970422755466,-1.52138319618747,-6.280800044609075,-2.0270621601265377,-0.8252769582409851,-0.1063830910002673,-4.230419232313761,-7.189324395276453,-0.262162601328696
2.3524036263391475,2.471374258926271,-1.5596230505361963,-1.7730306380238952,0.2032471070834088,3.005121196489953,0.2616496463274913,-2.513982139630645,6.279000134588289,6.844052529789739,9.70597016440067,-0.557870487342587,-7.708369970656461,10.827050041668317
4.8051076937258514,4.163531005824852,1.1498927816332525,2.8774249104945997,-5.570432270073853,5.485834307620827,4.567809324425575,0.813061743411977,9.83311128492314,9.921510201456435,13.215640700498689,1.8514086183534284,-8.688155781245683,15.695277079336275
3.805937021307853,1.971597778484656,3.168983834427067,6.081260078340791,-5.4467368847723385,8.631042249285116,9.859086350104365,1.8743699761801904,6.0304625586984,6.551206531916922,7.353292325435526,1.7041857995156056,-11.0426888190093,9.133685518402668
0.0137085812116355,0.2064981671404452,3.5539887478246674,6.549756886718922,-4.805051469921839,9.623969960732245,12.525108223088749,0.3398930776438607,1.2936848390783575,0.4696812978806266,1.414537104770855,-0.6449713542047792,-13.924110393930764,3.829112610176381
-4.268981648065573,-1.383683051292505,2.202965159642793,5.009529662890532,-6.3481870303769785,5.991941334932631,8.941158897526707,-2.9173859372630826,-3.403819055822253,-5.088299723795622,-4.720553274459267,-3.946245993737059,-15.81163422995277,-3.1365693826819525
-7.032862330297113,-4.549288555300524,0.1655578928338468,3.2318778501846257,-4.366216944098983,-2.118675575214501,-1.3579670059448192,-6.567595341786856,-4.846749464640929,-6.356769000976845,-7.263384237411773,-7.045034441089692,-15.975169534372991,-7.563598822215797
-7.732169109302106,-5.369830938047446,-0.8308091118791214,2.2574170822382427,-1.5096822033204838,-11.35811168397053,-14.065222253387455,-9.286150996793875,-2.200400424834009,-4.022129465335144,-4.747618773508584,-9.134843863975153,-14.902173447766684,-5.528614724130204
-6.928481946569956,-5.2331082728709575,0.5415566710446194,1.6133534403299574,0.920114613657497,-17.018671115005628,-22.059280896928776,-9.873512000219035,-0.9439811082125168,-1.8561489292863296,-5.766519904354566,-9.408260791364723,-13.405430722072587,-7.39695197387084
-5.140406452532497,-7.296482968346315,4.281962707712823,0.32270066688625,8.040757517831292,-16.062944132856998,-20.071856722632965,-7.446800910392723,-2.133327046050061,-2.5294907914908022,-9.593951018255572,-6.98774622962412,-11.444249781247317,-11.414828786219104
-2.19429529936558,-5.68888018381093,9.004286827468746,-1.4157809211264354,10.75565363231892,-9.098894948729646,-8.57264442934325,-1.874146797157497,-4.347228670023528,-4.784284046046739,-11.322104020820683,-1.544369751089734,-7.930878408114973,-12.6724087382171
2.3324081620215846,0.7163306003881431,12.803200182510045,-1.8226196980784035,6.3796579688405615,0.1018498262197176,6.388057785034061,5.8825717911922775,-6.731060017941993,-6.370917496034096,-10.369869160090808,6.003880065996336,-1.80220161375399,-11.991759324888202
8.110916047408802,6.441558068073019,14.364756585940778,0.8950749675276759,3.719359223435693,7.062597223974985,17.41868977185038,13.92148283255521,-3.19955993771249,-3.082991621842329,-1.788943065311451,13.588139980571292,6.585650087714008,-1.1935045922498206
13.552785271965098,16.165633450762307,13.513678066544388,6.431860640947459,-3.400224776295301,9.200631872774718,20.715648185961683,20.047035729592277,5.447287198199526,5.626420380883977,12.78835277778951,18.962015763245045,15.022072141272544,18.1390588670811
16.406251671049787,23.01311468188442,10.951002650331596,11.958247763287062,-8.16945598739596,6.858495963761864,17.78170272318085,22.55669536510945,11.084883303253765,11.678087388590573,20.307410858365326,20.770648715814563,20.47599371207001,27.251014021592685
15.131240715505784,18.89424988052737,7.618267470649324,14.11464355282923,-4.629622578148519,2.4025799729947623,12.94097253525496,20.833411117186618,11.817860207774784,12.26835436492516,18.284906075055293,18.94599740774724,20.9265071760011,21.91826093349492
10.062399454650048,15.272594144165792,4.288272926988096,11.815619809022936,-3.6006472199901816,-1.6370152031912897,9.263392871985667,15.59068473675758,7.148631764488332,9.315656352973171,12.259442286639851,14.399724462241435,16.652218390373974,8.483927418773588
3.416836038185031,9.39860628941064,1.5334752707868122,7.321581701155114,-0.3329991589535329,-3.9892746496297424,6.553036061520079,8.658071627232786,0.1119340792747034,3.998056503791628,4.127435372494991,8.500439052601678,9.987302049645844,-11.056408806536709
-2.035429520850724,0.8698762185291176,-0.2600525943741103,4.487135540190379,2.733064352505694,-4.834011126417715,2.7795665605243816,2.2254151745987145,-3.3229173712377684,0.3211121312937862,-0.7589830794530212,2.6566447803421127,3.670132387391643,-19.981432252208727
-4.804706368959311,-0.7444880191533725,-1.092093094920569,5.607586451864185,0.507697754299011,-4.968256560309367,-2.912435982492923,-2.2072753132615546,-0.9600149187644196,0.9217496426365684,0.7034875953250326,-2.0424322791408103,-0.9589161929808354,-9.512102952655882
-5.719335413219129,-3.987065143956148,-1.5792055896453665,9.48308446950633,0.5382126103582957,-4.833743957210833,-8.70541401814436,-4.561635684656174,1.4360220452835184,0.15986933384617,-0.5952247614222023,-5.219266613482198,-4.551018685058894,0.2676613981476292
-7.265542495413532,-11.327003824723368,-2.728463392527627,12.279850388746542,-0.0835687053954785,-4.1864634321899175,-11.46654310109396,-5.959914749145144,-0.3072911707151721,-4.276683751522544,-7.594592705307397,-7.357832732504387,-8.67568411808976,6.865289114019155
-11.548805283618318,-12.51155903981022,-5.15915586803133,10.437008829077408,-1.8985760124779176,-2.5571095851140506,-9.537654682000548,-7.627753961444428,-3.0705414312148283,-7.079540254649362,-11.550012388299509,-9.388177515668673,-14.033030812863831,9.407669426659632
-18.32344229971649,-11.88757893023704,-8.353350228229885,3.327833896163609,-2.7431652927568537,0.0040392303060761,-4.326545877320289,-9.794227679007037,-6.874880471653189,-8.88592126167007,-12.471291432937178,-11.831941894800917,-19.513234542581376,0.3034815306735459
-24.679234871927235,-12.4362811815572,-10.744292623884125,-6.246195925282478,-5.473966943439424,2.5761224740670245,0.6508536290460079,-11.577782327772187,-10.63877628873158,-11.444928029417277,-13.46457436444463,-14.198243089217137,-22.933994478490582,-6.843006709924592
-26.75735092891384,-6.301877193186464,-10.707110592357251,-13.848711543733254,-8.475844292209029,3.7822644575119537,2.385889224055168,-11.859601623065814,-10.443335015027106,-11.605733198043684,-9.972996588159502,-15.144643875007567,-22.67016941224969,-9.084719089043514
-22.346507020425605,-2.413834427574011,-7.701419341086318,-16.05614018725059,-8.685570006605722,2.724550227988228,0.4801591919644519,-10.265513969877626,-7.149390722912573,-9.191415830076222,-5.461610631532966,-13.357565857576857,-18.67679401136445,-8.9492901957462
-12.477488741724551,-2.7657909120573247,-2.634327876034426,-12.234507496144488,-5.20773238278159,-0.2168410726026772,-2.77070317642815,-7.320124055206032,-3.03666841898891,-4.893696179363455,-3.021539775474712,-8.514575184634715,-12.128361670045956,-3.539983355617664
-0.8332413330350184,2.2317113315552604,2.801676332472728,-4.589472320418491,-0.0296505382931049,-3.3243720389185043,-4.097884370165121,-3.714066786419089,3.9003766944035942,4.138330718332698,5.154563531982936,-1.6263837028850714,-4.313057440797627,3.864645220746012
8.524825310262859,5.184218238398431,7.138969767721881,3.201247654559664,6.872027281488761,-4.425217875816488,-1.429659568689127,0.3713427192912988,12.486357853452605,16.312529684361916,16.289942334840255,5.410438717003905,3.882050978386081,11.938389855675364
13.443628195002798,6.1488359636607335,9.69958481458882,7.849014538342807,10.1246182785961,-2.277058954909352,4.873684667114233,5.08052762352346,14.321506250737857,19.817627313240244,18.974579092280003,10.747924343680774,11.4755216981059,13.657582126533429
14.4318890897547,10.118833863391592,10.505149912713764,7.933339441746369,5.874289200159688,2.4016974057510723,12.25925930013826,10.019706138283611,9.768608014835502,13.017017385086325,13.706714706509535,13.430050441431934,16.787541875290863,6.516432963232582
13.565892006799828,11.357057740432174,9.89718601483157,4.393917718225648,0.8967599640959913,7.064337166135842,17.374480813987702,13.774560216351922,5.092638024292492,5.389215635914476,5.64924460063827,13.663488997988178,17.903858344360614,-2.387026263137846
12.63887425249456,11.570775497355154,8.314928670576418,-0.1616044470319195,-6.474332677308458,8.801080231567504,17.856232844086556,14.636953325598698,-2.492961789228086,-4.981346948001109,-6.719307684539762,12.422536189714616,14.20509884379018,-14.919472643759564
12.054680744714611,12.96787342901666,6.2947702531117695,-3.0012955459376363,-11.468864217537506,6.344659854459733,13.6473419962859,12.09003198570186,-6.7110055866430365,-9.538511743994224,-12.61313226404065,10.721193137807184,7.549568774242785,-19.50433339381593
11.200026090166896,11.270664599125263,4.4688833932509375,-2.765900338878641,-8.426455784764032,1.2201892573622122,7.119257248475189,7.62401720248741,-3.843908949902864,-3.890325970689992,-7.457626282235293,9.12117155400491,1.675972159805052,-9.832358726998692
9.725324981102284,8.164197699820923,3.397043285286244,0.0729873590823393,-6.252150109901311,-3.0155839029968208,1.7661077371103642,3.851470302138555,-3.268316976603808,-2.3128720583738764,-3.4999784525359803,7.790351963987033,-0.0883108455968493,-0.6047329039877224
8.351856049188598,5.005056121643847,3.2789490698205577,4.008398875468027,-2.921386592698766,-3.2055386734517475,0.0517221213786808,2.4301572790209187,-1.452870236570682,-1.324431528943435,1.6195658190424185,6.8295823876801,2.829461794387119,11.888517552483618
8.291237451148866,1.6245634173095425,3.71408075031062,7.6983057134366035,-0.0369296983101604,0.9442880925962382,1.742974899717033,2.599805579624657,1.665604386607098,0.0823003826780329,5.421016019313397,6.3082206339752975,7.744575389184687,18.368997498907657
9.729334156372266,0.1952112124930673,3.690693689528048,10.40482425232943,-3.2829340976477828,6.32801499070095,4.005137616864909,1.782400966968126,0.4151723689134142,-2.655293124294269,1.842759362610927,5.858700804812281,10.533921679084363,9.751369318258774
10.888793119609932,-1.1500374334604155,1.9460511464454937,11.431036199657475,-5.3904867534032,8.517973299262461,3.4051041197110106,-2.1485758009653697,-1.2820701836126147,-2.3350095977005974,-1.3091202798554495,4.372338255607017,8.438135710743456,3.940394445279473
8.92585702015312,-2.985751045663589,-2.3068751184115173,9.59876526597789,-7.299047455210121,5.078667456858623,-1.525424870708259,-8.874396530245305,-4.196011105438863,-1.8757563028865536,-4.020106113315644,0.5250062981563577,1.82637243073113,-3.4649245813407914
2.259498922638751,-4.446242734075753,-8.635021083142611,3.8872694413740914,-8.46779111345279,-2.438005746691755,-9.110759207183472,-15.692914296149976,-6.914237602681227,-3.10681140160904,-5.777404249457067,-5.980170920936714,-6.261664551058308,-9.07294853199726
-7.635995870053208,-7.294320657944346,-15.236131561876444,-5.075644002788245,-3.6178739079024433,-9.490396158700566,-15.690572249597455,-19.58369483131199,-3.749662959216357,-1.101631082901754,-1.7366356737488895,-13.572385587725549,-12.31493085852529,-2.918053075140844
-16.739185861873743,-10.045992660444917,-19.742682246522158,-14.332765269566943,1.8725804422989116,-11.84783228343085,-18.229230317297525,-19.431344062533206,0.9831237775905088,0.094741309502646,1.664767374843068,-19.420603449643195,-14.584900511351648,-2.1111797604775457
-21.092119100520133,-11.829711024802007,-20.566490524851627,-19.927184616042805,7.949511856626257,-8.554227321654217,-16.281803460861244,-16.515121035800195,6.064391632524671,2.6848027788184994,3.6765256022544177,-21.24478584841387,-13.757338346139294,-2.2612019519354725
-19.45863735396186,-13.472490373292151,-17.849910016619592,-19.528823109336116,12.9349104606405,-2.272713094952639,-11.906396867693353,-13.11264405356916,8.779149888933553,6.048500830073487,4.8786381450388765,-18.88985323291984,-11.828038743313972,1.20216149324879
-13.862281171175198,-12.410765306083844,-13.263237794073769,-14.082364109601224,12.10213078215821,3.08940945892751,-7.814024402895281,-10.675088589692836,4.923265188138507,4.603330756144923,2.096952534902053,-14.290192775721618,-10.333142548613464,-0.2111056810801189
-7.774646631309799,-9.516127187270405,-8.847649967757542,-7.006200868534874,10.639868638357155,5.276652828026796,-5.484666491743954,-9.17900192163787,1.1794539057571292,3.151188751892086,0.6398088103802055,-9.926986726173048,-9.456498910292115,1.7839850327040634
-3.6784397971632457,-6.744912598497941,-5.832476435820705,-1.6970910876037737,8.634804853364136,4.739699405159227,-4.696215195825117,-7.874237046854944,-1.4988484597921947,0.8336120786081012,0.4620185112805096,-7.178634002057184,-8.52508172682548,4.974153456981323
-1.9466991475859812,-4.280434438021937,-4.244613488246602,0.4925737102866332,6.380273042144926,3.3797297592663647,-4.450538875819051,-6.340578348736651,-2.7797808006349163,-1.8608915812456412,-0.2026382983885284,-5.869768657387628,-7.071808854266674,3.447484426206673
-1.4839262136284963,-3.81400344196486,-3.367557886442455,0.3925385829814267,6.73927014402529,2.584800607099787,-4.084163418851247,-4.762122073943374,-1.146580734777661,-1.592349514951622,-0.181108214319933,-5.05378431453277,-5.28115083195387,1.2170230715325172
-1.0832260825607705,-4.236606149046933,-2.477848084886896,-0.3142931301980418,6.281669007967752,2.403246979650984,-3.5713791705075657,-3.4291996628723,-0.2359683861932387,-1.2546164023573736,-0.3883672192288374,-4.045487769967206,-3.557024902497025,-0.3451769213214464
-0.2517144749074962,-4.139861865954098,-1.2882723229827455,-0.4615422385142445,4.830262418600368,2.208761694086781,-3.0906453370667872,-2.2797322618021028,0.0416721364003748,-1.0803127133906196,-0.4499464478796653,-2.7988261032518,-1.9638173266321708,-1.5044496267598544
0.8368633024169663,-3.73529459932009,0.0659985948412753,0.1067810941896834,3.890035257230266,1.7003117179596283,-2.6389355261386878,-1.029422201339003,-0.2119859521530451,-1.0634949244179788,-0.6545619599029168,-1.589229010658376,-0.2741196138881876,-2.098867893043656
1.8129013084583343,-2.890940345902205,1.3109302288174378,0.8339699047488236,2.7748599379352967,1.116776152147751,-2.1116798257357017,0.4110204242169972,-1.2943768728170124,-1.6783690130315714,-1.2220338642160835,-0.5683550926556009,1.5588831167849468,-2.47014894277118
2.500049973820872,-1.993015908251804,2.338859730271904,1.0888660779884525,1.8129333617419527,0.7168211455980114,-1.5535737772892677,1.837323189995452,-2.215153626392564,-2.2186519996063727,-2.288857128286885,0.3660924284056861,3.272169424973564,-4.302940487765197
3.0383147580194487,-1.427869332220326,3.3165901242962947,0.7512005512484814,1.2456457451090972,0.4089086650076963,-1.109896372867606,3.078381548185116,-3.410141906419508,-2.739208786600976,-4.120506719673154,1.3994463309447085,4.71950964340378,-7.136810711681654
3.7406892973928354,-1.0665961861466968,4.5014341863905205,0.375076937777818,0.3551251965706479,-0.0174909343699951,-0.7512825580843323,4.252564875770295,-2.979919520391922,-2.186154614889575,-3.825241960270511,2.589636189037994,6.190949563868364,-6.359077173584725
4.766662789722334,-0.5467849590352597,5.917373202860171,0.6709900103822282,-1.0065104726176466,-0.5193520004325922,-0.2558027167312264,5.581714311452068,-0.3470346553067481,-0.3508286573717157,-1.0132218446239372,3.811499738908365,8.043675037824638,-2.230555969915675
5.871515534160713,-0.1423163286045644,7.259932241826213,1.6147123035436035,-2.401822387704072,-0.8847516243266025,0.4514764798763391,7.029977725491278,2.3571977719626034,1.6972213199167805,1.982557134320282,4.882239898102876,10.084469814040666,2.116107029391701
6.606371247279268,0.0646129538702947,8.252450815485616,2.2177643077563687,-3.795418798387632,-1.120142791357873,1.1005473684612763,8.334410786104808,5.315963276899131,4.022422074703702,5.430187161795798,5.778753886486202,11.69529256555035,7.506951011672491
6.924274672546108,0.6067812213172059,9.112821840908396,1.6042383540977507,-4.375500468726747,-1.4915861940117203,1.427341409114856,9.447507142257662,4.793889216666492,3.897935284154384,5.2764319016232,6.743579471500432,12.765194924113429,8.0380852082396
7.465876045231456,0.9576197664639268,10.42577159610848,0.4586653967064062,-4.142251279342985,-2.0947096392790776,1.658128024046711,10.71562163536651,0.5957891275956713,1.2128949013820591,1.3704685006405712,8.047827530669036,14.15378759348809,3.4468509350111183
8.824843223815886,0.8853563862694913,12.210619620456342,0.8697898152167163,-3.4337408526443447,-2.6066263696141654,2.3107216116955875,12.275952874120442,-0.6593687712410128,0.8503593514574854,0.6007417708030391,9.456272460004907,16.576965235572782,3.1292494652578795
10.251518954913612,1.234707396838998,13.084505989383583,4.034968371437971,-1.850884754924907,-2.7327064342144727,3.301799638145461,13.22083118560182,-0.9033592999779344,2.12295912946986,0.9276191126849452,9.913824233622693,18.83282247236513,3.4702414869249045
9.396726849472149,2.0091161883951822,10.831025980366348,8.07879151809704,0.2725073892870107,-2.8006007636345203,3.5325739410994803,11.787762958235705,0.9941374073567952,4.652515811589106,2.6508058505916,8.081094096704437,17.762870190982596,4.160948693711742
4.188842315248245,2.934547308283648,4.514652443110187,9.021404741514171,3.951043715399503,-3.4570905736185478,1.9696593279452583,7.048908829541364,5.3280304651312855,7.216893968813105,6.0091508196275845,3.680016946505301,11.006042215439576,6.674805632611509
-4.407279117679922,4.730921126963864,-3.647618433237145,4.79645388498864,8.761054545570579,-4.433546866975568,-0.5279295412094243,0.7441013016154585,2.771018716551961,3.1075456798428527,1.9771828864029568,-1.4634685049475813,0.2834633059367881,-0.0403163252163993
-11.6934824712655,6.907427974073181,-8.932422834772334,-1.711963848276303,14.135311535996712,-3.869946457451736,-0.8577839830796155,-2.9484754025853324,-0.5941644176284445,-3.5669113503687964,-3.8089048376158745,-4.00025621854741,-8.545084369580879,-8.813078435425114
-12.281507769579584,5.831343917818152,-7.534424545135792,-4.622391620801723,15.968137694135647,0.3623429011926493,3.9060026511114128,-0.4049346462002567,-2.43510266282109,-7.99255902717301,-6.535425721868054,-1.3703838081773778,-9.77638851542935,-10.4668897894054
-4.936437115806092,2.6374498907636235,-0.134754927490575,-1.0196122590361814,10.617075367433834,8.063021041665909,13.07212015650652,7.855567841603342,-6.1588268366541685,-10.124774306604907,-8.586431436977746,5.813529391805675,-3.049926539032038,-8.886774166415318
5.271304480102716,-0.71015128891941,7.844712804805368,5.063152603200489,3.3156425231287483,15.51787471258575,21.485435846500025,16.482359719321906,-5.268094639259297,-7.533092007728189,-5.638043571183795,13.549612013394611,5.679496571155131,-2.910998614205358
10.255577852678774,-7.43444320864457,10.158350758173702,5.5608106083584925,-6.98317913587483,17.717106737789912,23.07531025251966,18.946340135571376,-8.687447741419131,-7.8208234195663024,-5.397069640398054,17.050997119220106,8.880602058405378,0.2510480106975463
5.502906085486563,-9.59485547930581,4.8352969095872655,-3.684250789512245,-13.0735463494634,12.640895012715507,16.22667004534975,12.934923119535185,-12.998273459042462,-9.448638572817996,-7.64239189703388,14.337295912962396,3.866411495779607,-3.0133718297532592
-5.690394808719447,-5.354182878433369,-3.9364025582261455,-17.581642524152137,-8.040402430610495,3.7276872313045466,5.969951062557392,2.781136082160863,-8.908412931233824,-6.734872642993555,-6.069893286522306,7.874977350266246,-4.906298519705935,-6.066516820603204
-14.4030272969275,-3.02990301345627,-8.963686711857854,-24.91183754716037,-3.034877785029676,-2.278195343812733,0.3422713280335188,-3.6314353815155886,-3.475739307710233,-2.4415510932386773,-3.2333102283767667,2.780099256398298,-9.682542159424688,-3.814628456879911
-13.1894564391609,3.792080203762647,-5.732272634490272,-17.78108003131309,4.581188036416027,-0.7223344116006967,3.676915960640109,-1.177705071613982,11.503413277050807,11.096159183621031,7.3478687980493556,2.9418618281456315,-5.816730350965495,6.78680339943448
-2.160150985362417,8.500598699389021,4.0245426768880925,0.9938022267494552,9.127298640277475,6.945355557122369,12.75630233730125,8.315707256735227,23.55536488369101,21.5749004853693,16.300893130209154,8.124822314009087,4.756046339180168,15.5741386899686
11.069257335949416,4.0751389316931,13.664762475907777,19.33980629403322,1.4088816399835435,14.158334695589732,19.37158334967045,17.54364050255997,18.26821780309347,17.267013338615406,14.35157674654565,14.240671608431086,15.356082392117198,14.456469649933878
17.366114754586448,2.139193181754497,16.62394543255602,25.08331451683352,-5.568006865119566,14.416608663004208,17.026851339601002,19.439355038740757,11.295720012816757,11.535497152221645,12.063810666094575,16.396752206392065,19.47237616870209,7.648576519579455
12.885009011318637,-1.5576135760034384,11.050217420713883,15.056517236231588,-14.107186968967042,6.203964946584865,5.882094264647016,12.200419160591553,-2.5400733461245903,-0.788081920964514,5.409544147802694,12.26734917327834,14.719146293245968,-3.904149620498465
1.2818020565723032,-6.279965604849509,0.7104896363241391,-3.1226323150479285,-20.634011040043987,-6.321550668085834,-8.05023121117828,-0.2456307481564863,-13.889401963476097,-10.765621820502156,-1.4349162272674172,3.3725636311997,3.5469821753223965,-10.409843662790667
-9.853461515791512,-4.178751243837022,-8.119422626514213,-17.400225724356105,-15.335316133354429,-16.896622126014584,-18.06919490558107,-11.92584199026142,-8.095364413027001,-5.809950974756607,-0.2369732364037062,-6.330347306520617,-8.823635034989772,-5.604668536135483
-14.836128532352571,-3.078088623151755,-11.133825148551615,-20.15685234632697,-9.964402529995011,-21.5201696240628,-21.379630242139207,-18.970977646388896,-4.643233772491186,-4.4468612910441125,-3.7871722234370218,-13.165474440387174,-17.423538699707745,-1.145176763254131
-13.257132402951314,-3.1187816176900225,-8.537995550873525,-12.761692786322008,-3.5480237092581337,-20.175185829601595,-19.56655324673703,-21.024738272190135,-1.84477252596318,-4.420652098518102,-10.295736816883169,-15.738836079902876,-19.8918571235461,0.7628894503880546
-8.868514572737567,-1.2813156076771104,-4.103018443536573,-3.0278239112090546,2.671413017640459,-15.389419057337372,-15.688137125382433,-19.79094393817361,2.3944942371445483,-1.637486775412118,-10.979669801891903,-15.075640074875594,-17.205328442495,1.0694170028458991
-5.782644586180616,-1.091783408994598,-1.8789180882438643,1.5335422881616123,0.910619174281877,-9.779706806907704,-11.497793525967046,-16.953652416501132,-1.280200204996734,-3.732133179113165,-9.263247711536494,-13.264055764281364,-12.536284296158984,-2.218824742297321
-5.450263301107633,-1.0237909113150658,-3.2757647153868312,-0.9552215104929864,-0.3226714985645277,-4.811979190002994,-7.182499650631108,-13.40499848538338,-2.748034571756224,-2.5058817752811624,-4.889050970797615,-11.897080975760602,-8.965518793910235,-3.19129087855979
-6.501661131563814,0.7260976361445936,-6.626422083551329,-6.643290171427847,-0.8132043610094448,-1.0799218508961346,-2.8671914240346954,-9.755973268265004,-0.9332769943329376,2.2157474629246576,2.628897125576541,-11.402470646783785,-7.650406901884159,-0.399437849398239
-6.808443300106699,2.2056785347911685,-9.151164992647,-10.272101785291838,-2.422059314734167,1.0938644111301272,0.4693016319928773,-6.839244841397498,-0.844531104952067,3.2834253421762245,5.35794841258256,-11.384188160845849,-7.757544073455685,1.459063981480222
-5.521725597355246,2.662762447260033,-9.337386570705895,-9.61382954157738,-1.3761308364907634,1.6623495970442017,1.7461735764103778,-5.40342927114034,0.1474359945030859,2.224978601933,2.5425960702944783,-11.318518478643664,-7.894496485850333,1.7190001888734456
-3.396683680716489,3.453178594854676,-7.71303209304309,-6.247060020457926,-0.9999052237183056,1.13656648955579,1.0348302442175663,-5.445058079390801,1.3639141195367095,1.3899280423804576,1.7415353570974756,-10.94400983782927,-7.439872305977875,1.3774839472851883
-1.5754962573555495,4.392991258715409,-5.7328654919251925,-2.7857458324320525,-2.107937465411934,0.3648910440250041,-0.3839646523184292,-6.105035497092132,1.617645467340808,0.1871428127854303,1.8595961535736072,-10.255411980128578,-6.585055448245718,0.2384936356512396
-0.3379512887071989,4.551746271840258,-4.240934517150709,-0.0410156008550863,-1.7263453392590409,-0.1769901136772702,-1.2906972688563236,-6.386891475676212,1.8428206557563844,-0.2162422507459361,2.0738415086665305,-9.410033231342704,-5.560061388114207,-0.2473976584733421
0.927208054112988,5.152607756230364,-3.0441017970873787,2.934429676325834,-0.5984686376648701,-0.7108955266219468,-1.6163228109398275,-6.0100932736767305,2.4813473917724145,0.8933911529935594,3.591853892985991,-8.690227728642448,-4.351598339002557,0.2542616351654539
2.733680950503796,6.700131722047642,-1.678589539039045,6.590313639033269,0.6241651152844474,-1.5690698953680382,-2.113188637379917,-5.543399050625187,2.6844637619763847,0.6361914341274656,2.667238409735661,-8.32797671036803,-3.206216233442337,-0.1592321569851328
4.745698728846357,7.1739460532457215,-0.1883543079702327,9.61975596422982,3.0710559223630214,-2.337784518170727,-3.1041475293882232,-5.666796411993346,1.714765398614866,-1.6702500876095472,-0.6447029178551525,-8.110785581677135,-2.8505674980211406,-1.6344315333121804
6.147390422938269,7.363667165628142,0.9900388841612476,10.42475200745502,4.086659939860318,-1.898942584497064,-3.911891865275241,-6.291127542172267,-0.2148298247609472,-3.4364156350298574,-2.968338595990747,-7.1867072066096895,-3.644980204649352,-2.671178425906432
6.645852226229197,9.55417441745812,1.6670058757443709,9.409539071997257,3.3003066290645817,0.393340873506272,-3.726440358501789,-6.466118673636476,-2.3461543498934967,-3.665119502990912,-3.8443415301302206,-4.599758596473118,-4.583364022335383,-2.734580767155828
6.8214186309562805,10.746703677084891,2.0782485232072023,8.95437495939424,3.056756637148887,3.578430979481505,-2.884539586966021,-5.298090697491791,-2.4133848131603504,-1.59342515358113,-2.229804841059256,-0.3604296193272436,-3.775510261488346,-1.2297671866783344
7.292510651701246,11.4834484431592,2.36581868365489,10.723064499962518,1.5092448326791026,5.397555791824811,-2.92182067972788,-3.062936514917965,-0.2021872286870194,3.224944239464097,1.3058331349422792,4.013344114980104,-0.452749899079798,1.1888709735543224
7.665928794084751,13.269059817714073,2.171591850610838,13.41571997372578,0.7968532591313195,4.060759147254943,-5.08635074990703,-1.3231419101292057,2.2762548273430387,6.319018097083055,3.519958650601521,6.369340794878658,3.6274226670142617,2.388306428731291
6.687440560436542,10.30214783281441,1.0587388131425026,13.882097624834554,1.9817977288619664,-0.0852073212371298,-8.76734231050652,-1.6631389099936804,2.470259272677194,4.751412693039455,3.031073432372529,5.7067310184080124,5.348096418485531,2.2985441123412382
3.699986516031746,5.145656723322905,-0.6578898478247535,10.58688892554936,2.0209401008061567,-4.595859977532191,-11.561529824920594,-4.038423126263201,-1.8762419807602853,0.5550370256892715,-0.1984642235021423,3.2048719230648697,3.214264441042758,2.046839165036069
-0.1423416907963552,1.618244719682698,-1.798225665933698,5.549432258628276,2.9718204269427257,-6.711206238116759,-11.070973823918443,-6.354463942984328,-7.736405722771163,-4.94689933485343,-3.5586603207693166,1.31862303985082,-0.8824367906386943,2.8854965327000066
-2.44607365340225,-2.715355550549678,-1.2977108601599046,2.472595005981708,3.778722596785224,-5.318546535651633,-6.79476029030555,-5.9208705490010445,-9.62155912698612,-7.315328793802557,-4.229123325342168,1.6631232982064716,-3.142525119701153,3.6940492089988313
-1.6029516638955892,-3.744172360835968,0.6781909194419455,3.093894748277002,2.669186766295073,-1.4838120996237398,-0.4258940473570893,-1.6506696234517897,-5.682917111620425,-4.002009419859453,-2.078055647794428,3.7010108258809833,-1.2392777718847463,2.734352966953951
1.7186683130505926,-1.8915947347169448,2.732559585992385,5.672968191517248,2.348390454217303,2.6459238811709387,5.528844076377841,4.952050582177659,1.5589863358265506,0.216268295037068,1.4668496693808462,5.467891342386175,3.719659033233862,0.2653044152021812
5.13396003573323,-2.07833823444256,3.4294620846317705,6.983803341412415,1.668190807475283,5.388603908837987,9.38887518987172,10.908459251666406,8.2136722736505,3.5683716339978133,3.4095052804367825,5.498252303681648,8.424136083731604,-4.756196525196517
6.550502589322455,-2.929851756750436,2.483139300814862,5.378216218875094,0.4904581933075355,6.266491681702647,10.852597702049014,13.930283532677514,9.605133377790514,4.595856906478476,2.5111713329113234,3.994195251114028,10.29049413051476,-7.524874464711599
5.640390677447905,-4.360861493392879,0.8156754375562709,1.8131328633581223,0.4416357097653757,5.684122600950396,10.433004262525731,13.744912833705271,5.6225255960343326,2.2885028308384525,0.2455429526130642,2.263697002311666,9.210754461303136,-4.607813010087001
3.5662065621992154,-7.093929948948298,-0.4129184177153968,-1.6310885232315524,0.0814589882512978,4.246826392648403,8.74327183994998,11.671374483764888,1.9460770858829772,0.6361720050619362,-1.7391563498508873,1.3110229686639556,6.856067838453328,-0.7877654630260579
1.6401238411351278,-9.240440657857029,-0.7348408340228136,-3.6646775600130113,-0.58542662243802,2.40786943922428,6.325817573211779,9.238205375191122,-0.0864514684179157,0.3512140136681838,-2.4175585942689204,1.1270805559678865,4.816759196674847,4.424216986167124
0.3868074384998863,-10.905501662247582,-0.4836984272908253,-4.375722079470515,-1.1338507890000855,0.4880714019354553,3.760258068855432,7.207647693343622,-0.6042397215827209,0.18333295790978,-1.6485821537982064,1.1385456504381946,3.5118574499236743,6.997860960996906
-0.4004353279784745,-12.894834029025873,-0.2609785540470266,-4.66482823317892,-2.11806381849547,-1.275848818383615,1.5088962653154496,5.55975618857582,0.5640456458166875,0.6188896001655748,-0.2255677037251413,0.9819002939488612,2.4686162292474894,4.11608679555235
-1.1764269575213555,-14.656663796253254,-0.4179159733124677,-5.538636448809385,-3.35402522018664,-2.846385792110855,-0.4603599120068296,3.956240865018039,-0.0107983870561048,0.1809780060005323,0.5426827006381544,0.6897035976281352,1.137637329925813,1.7337740964450474
-2.34304019135549,-16.616627000764645,-0.9003474577472179,-7.538204425864439,-4.612139608410737,-4.45062904256722,-2.649832321114724,2.0910906882632894,-2.4605980722984944,-1.5248363668078744,0.8374981222518468,0.3621241472662788,-0.6403616673774284,-0.0531230033495616
-4.045329389232702,-16.297804124872716,-1.3556426463562925,-10.102718279866968,-4.158215015833635,-6.328041500152651,-5.32691887474364,-0.1113573846966318,-3.343908959015973,-2.0615435663102097,0.9842444384774895,0.0050157815070139,-2.59872499412476,-0.7745938204648903
-5.8531131220966,-12.515824754203916,-1.359936522719126,-11.386560732945862,-2.1910022947597243,-8.270571333811573,-7.794799304894385,-2.273557875111329,-2.7910399405218205,-1.3737805203310152,0.9222089459109286,-0.2514761330787571,-4.154998059109946,-0.3867503019441533
-6.730450801832259,-8.289615245678315,-0.7502223198647489,-9.453223678969245,0.2163891408766715,-9.428631514370611,-8.60350324965593,-3.5144645653049764,-2.0510767155972034,-0.6113724749460796,1.8698683773136704,-0.0604531503990539,-4.671068601989816,-3.2317193542895253
-5.8320531602950245,-1.4697407126415671,0.1003634162441127,-4.396324304886174,4.519585515286832,-8.732517910663093,-6.766568222561073,-2.946301683600141,0.3907660941406268,1.3374699028048096,4.168453421002726,0.7407148362341189,-3.966335969584352,-9.20730406759149
-3.7186484030171223,3.315530507084927,0.4112005059398482,0.7897330039277626,6.125064251363605,-5.749140926724915,-2.8745089716164216,-0.5639428888062175,2.515383184708397,2.6690302852947974,5.742321623314622,1.6560219504676974,-2.77135973084691,-11.957689601409124
-2.517350746250864,1.6162766862630955,-0.3196448461615855,2.2826123809565675,4.36527095673556,-1.2639179849746989,1.125485399855828,2.3749185792547705,2.3884999973666416,1.8500046215068229,5.250018194521403,1.7705962761266711,-2.4274367181131216,-8.267396362333558
-4.266530885145791,0.2378394588636054,-1.6262324427304553,-1.0105221292633244,3.4642915836086696,2.988570137083536,3.4139035286668094,4.092727023851143,3.253197174030924,1.5479100156312235,2.125404346433318,0.6882074546951684,-3.759473761918678,0.7983862684881149
-8.701258472735109,-2.527182273258961,-2.215665362122802,-6.056496311686296,-0.098117348691174,5.342881233245647,3.629209412910794,3.6121062821801138,3.879732431455115,0.9324016014861372,-3.4752119193680286,-0.8267044148618936,-6.074775486639605,14.774905420017168
-12.84713345655928,-5.313986985929112,-1.0891444618842785,-8.353898483561258,-3.5579820152767003,5.178730342663201,2.698896718778425,1.3351345855116523,1.510762775829215,-0.7458487616711271,-7.850111044694015,-1.4046303802787603,-7.46943489279373,20.84195113658713
-13.306878678265893,-3.4973327645790637,1.307477462182863,-6.261290349396506,-5.013397881255246,3.060954248640205,1.3696736375798224,-1.7448498644675867,-1.9687344631067247,-2.013625859185748,-8.623664787350274,-0.4802242488244079,-6.491365940421563,12.685116863384753
-9.306748119332068,-1.6573038107989764,3.1356020810011582,-2.543473136160083,-8.880342539632185,0.0231087612148721,-0.902756252541983,-5.28882811646108,-6.162632558329278,-4.1401102638783165,-7.563213519535323,0.8676718923090379,-3.7104207331501424,1.000208313516226
-3.482856163592261,-0.6117813816890468,2.631687394612241,-1.3859217166881006,-12.696314809526902,-3.188912170800036,-5.258016360234132,-9.775548452224315,-12.92836736917807,-7.6482964660718835,-6.906520593860181,0.7177742072020088,-1.5022381980501631,-14.406252802282092
0.5451646788788427,1.092991064458917,-0.1869263695724878,-3.845859944793253,-11.330882667132414,-6.098138929770553,-11.344664197000844,-15.190785033912356,-14.263022213435296,-8.024821617252195,-5.593222420844076,-1.742966028941881,-1.8645953953254304,-21.45116062605861
1.5449754191270646,4.664342081534862,-3.133331910704639,-6.401405429273963,-4.435934837933166,-7.820714458766014,-15.989439041512227,-19.63892595654036,-6.800639138143405,-3.9692761851627743,-3.417583361376467,-4.890885904516727,-4.094538392981144,-11.711692369178907
1.6846310287553925,8.938139904998993,-3.2579302549868263,-4.141293675661304,5.10106420395201,-6.816618556978733,-14.58900295603966,-19.74639494326543,-0.000931736377848,0.3195249277709691,-0.0858772844876999,-5.409963446538793,-4.672459245849159,-1.0772318536447534
4.195452681350318,13.503221948426653,0.9618435674263548,4.395054163358003,19.167405886247963,-1.8765980963845763,-4.802885580774706,-13.105857151396778,10.922945282037478,6.695981312957078,8.78996042923251,-0.8273626436136077,0.0332639797727196,11.405482371612411
9.959867530750769,18.051785299555416,8.299458491400914,15.22622273377317,26.225724616761184,6.22020094734202,10.361735667847032,-0.8254412079997859,17.939148464922567,10.232825626699666,15.06702159291352,8.134533136317662,10.280748744478212,17.760627607220385
16.36291611575217,16.76293951605736,15.340256600635374,21.62869676495076,20.222650706236607,14.114221979345386,23.224554606423133,12.329168492937733,12.053063110686429,7.020195536154233,12.97435627971121,17.474890106207024,21.902122681496408,8.939343607704087
19.4843893870224,12.785763703511243,18.5576586941448,19.273283438207063,14.026888149412416,17.484490043328588,26.18632584058463,20.81805333979875,8.505552718738,5.5350275730152,9.455536785685204,22.44992813972687,29.07069362386507,0.5573079852084212
17.51721016890329,10.073779915277068,16.488109196967137,9.642129333780328,2.547507770465468,14.036867617088372,17.27262746352568,22.154347860762805,2.662786937339634,3.514072469825182,0.0705610909698271,20.85996877076201,28.820395010601672,-8.124376507165342
12.208630615245047,6.451739879959175,10.526976604733346,-0.9425865766954526,-6.812302121648057,5.478997981978113,1.9900021045156908,18.53625016459558,-4.122293095506645,0.5359718365216877,-8.625369402592096,14.459617432960965,23.34215188700505,-12.743725921859154
7.113239735363029,5.458068343920534,3.8392386086153536,-5.910197522790895,-5.337619227772001,-3.3142034357111374,-10.28269783858526,14.863254225869238,-3.5996897591305768,-0.4820176412875135,-7.419595545112434,7.368546682670768,17.872924468761227,-5.766389635091381
4.476259622144134,6.533993023123655,-0.7817867049802771,-3.1776483086287968,-7.067702311728523,-7.401459527336501,-12.672989250606026,14.771368759716292,-4.658072164497793,-2.8426587301482664,-4.987950742880082,2.918183177973763,16.02748481658977,-0.2773858679011158
3.708887783517465,5.023181221829034,-2.512723664682184,3.600023452559965,-8.401407373983698,-4.7512361172259325,-4.991556353026823,18.00279528005759,-6.210924496086355,-5.952615935370455,-1.0141552932572668,1.6409211522480869,16.91174828002781,3.769791890902858
2.673661171978578,3.5174515865360028,-2.455840893470993,8.205242216520643,-6.72840272014762,2.980384275153176,7.235245146662667,21.16609740143038,-5.142101428549479,-6.596336142521824,3.152598113275991,1.8751769447639592,16.617851486241488,5.753901770175899
0.230159806708059,3.423381438361094,-2.2201408382714725,6.865451546564495,-6.660424753475064,11.98344906605794,17.441521398077168,20.94326478598727,-3.9015057346927655,-4.383126885782371,1.1069011171538068,1.9542162422258027,12.395323748729448,1.8692302266337375
-2.596468640473912,2.173133232061838,-2.50824467822234,0.9438918456517608,-3.658773024010018,18.57501488576262,22.209696438359344,16.779211499431494,-2.044121971684822,-2.1488340836523565,-2.8105674380548207,1.6533309853844995,5.299145993560554,1.4601591363340487
-3.8329096382588776,1.8111404174290748,-2.8809016257020943,-4.781986513806974,2.160326154098632,20.69963727592685,22.0274950577872,10.887782340117829,1.75938181642313,1.003894235440524,-4.726590187383027,1.7079333776048156,-1.0752557699772698,3.579860178761075
-2.6842816261212814,2.4322827708670705,-2.636660710518708,-6.439137934520224,5.316399112014974,18.258909566897287,19.163100581966688,6.029018316928294,4.156381024261603,3.225321661369425,-4.411923740619879,2.3801531978907384,-4.095303090771674,4.072552224773522
-0.3165171467450136,1.1202097654157608,-1.7250261011731496,-3.9896556262260336,4.73662040777919,12.720454431132929,15.39500402394526,3.367846404279508,4.01749963980909,3.1245530597226097,-0.5999942565416755,2.8824342068863498,-4.164147693411669,4.115773642293407
1.3575775192830282,-0.1648435121746981,-0.7864089649076753,-0.4302670997589377,3.85223725605924,6.3992031425002,11.471999184390086,2.197721679199338,2.3894749757526696,2.10778440040938,3.286535410622604,2.228929708247419,-3.627713744069053,-0.4213522556618412
1.4380592286465603,-0.5455931522519831,-0.4528658483429097,1.3906030518556989,2.0291404007453275,1.489291487931979,7.845089087530333,1.2594263825041845,-0.873136533849098,0.1746069772153988,4.5343822908677,0.3805870388338483,-4.185203676488317,-6.940704928602673
0.5218458750000465,-1.4789051263448203,-0.7804169954999924,1.0114379694705864,0.3530976197334856,-0.9185675191484748,5.120270537362373,0.0165072899963423,-2.455553981233833,-0.7760190286180396,3.5828495920657524,-1.6856675377724013,-5.637978925815531,-8.269926773284167
-0.2942258659032379,-1.946391321694008,-1.3488439501971552,-0.1243247575679049,1.1264612637890323,-1.2462862578993352,3.649941310942912,-1.23929985245538,-1.839117570958553,-0.8068927919945268,0.8252477311287465,-2.9831497001988936,-6.823292317728043,-5.473230082679498
-0.581340294837732,-1.7235900898505452,-1.7814395363637132,-0.7022096092824412,1.456043118588621,-0.8531383662050604,3.0458658314046705,-2.139890718073012,-0.7874523612362953,-0.4123520330103071,-0.8792847920575877,-3.4174774129698697,-7.191070687276608,-1.5887499050358032
-0.7025741420765881,-1.97142611997483,-2.050695287002553,-0.7164886708467275,0.883072910068116,-0.8781885105866278,2.4562110143276925,-2.7837202463519937,-0.0556434844863015,-0.2035903980533585,-1.7891385471864008,-3.660963911168059,-7.2188701498969055,1.949428247211968
-1.0780612305119035,-2.5158663518156943,-2.3315770822678408,-0.8985389182023091,0.6012770345408327,-1.4899250436792393,1.363016064081144,-3.551304293576676,-0.3367046624690167,-0.6532327175443375,-2.1996746234278133,-4.312622653394737,-7.58382354393327,2.2893821293996925
-1.6581657542920745,-2.8175872871703604,-2.7094434398659413,-1.5597992591630234,0.1851867005896506,-2.141363862686914,-0.0399019764298325,-4.614535007927032,-1.2412762173153629,-1.1771737088176482,-1.6528203514232769,-5.34327482103481,-8.367382528047308,0.131547163864792
-2.1415459250396798,-3.1492939302069267,-3.1098221320080484,-2.311821420551192,-0.2524059019420613,-2.407809795158224,-1.2746957251599742,-5.787975387622756,-0.9211946038496724,-0.7388380078722684,-1.0936162444020678,-6.31631921536451,-9.15818495378769,0.1757171607052219
-2.44384328796818,-3.733363543273383,-3.4465610350024702,-2.732800246607292,-0.4688581796391883,-2.454130870188324,-2.209026036248119,-6.8192101476765785,0.6841457522199075,0.7180232104852861,0.1382450907704108,-6.959929385116667,-9.66039464023766,1.8137520956437672
-2.741116835236979,-4.110382003119013,-3.7300320352201313,-2.9209007536409777,-0.6095187717003192,-2.712875040861144,-3.1334853379591565,-7.694773672420936,1.7529325509398206,1.5847642317085235,1.3713978529512136,-7.415344107436196,-9.972466942290891,2.7358264595881305
-3.1423686966454403,-4.279190594321698,-4.0151751455207325,-3.266136045379901,-0.8987757787895558,-3.285488082472736,-4.306174029726348,-8.611602728005723,2.361038386729214,1.9772812849041463,2.087735878832294,-7.99540691763885,-10.34575044625484,3.4443743575839325
-3.534394836353668,-4.653411020579002,-4.310994585862685,-3.875747179677665,-1.274973589658654,-3.85013433978516,-5.632740214719745,-9.722418875147746,2.719649479324373,2.215865498911832,2.8549989465718024,-8.82558985171038,-10.884299656477229,3.406497827364501
-3.817339837467592,-4.960603041415383,-4.598988543422252,-4.480051333190215,-1.4605815283139931,-4.137311299020778,-6.867878959561498,-10.97232720408672,2.807446121864658,2.125595633458929,3.6315943194386175,-9.74448908747526,-11.525172665100044,2.841017871011096
-4.112175865296551,-5.429851688240367,-4.885946970232686,-4.859013217997021,-1.77272082225182,-4.316628483688602,-7.979905546454907,-12.181345706141132,2.352125058072807,1.7663658750049045,3.283001077310453,-10.496598176280107,-12.15763741367589,2.4659773659012107
-4.563801140235537,-6.581085388921449,-5.184441684991963,-5.154505209957869,-2.5563208426544617,-4.755693671512901,-9.156072597137817,-13.245904477536442,0.9881738895795656,0.8979637736443913,1.7042024421201578,-11.000397689491296,-12.676563291565946,1.6069516470281184
-5.018192927043822,-8.42949179541061,-5.447418826864161,-5.622683855932982,-3.7077620415220607,-5.470912334041372,-10.478913607644836,-14.255709678292549,-0.8113799967478819,-0.2157996742925353,-0.2330182872574264,-11.45182890469415,-13.017260548507643,0.1336582215636224
-5.148561013351074,-10.370638720797151,-5.606653448828739,-6.218620888657656,-4.88996578917607,-6.050795496267028,-11.794159052825949,-15.428090737697383,-2.913159482188859,-1.264767819264126,-2.817791584373076,-12.155937668729544,-13.273060027089713,-1.408903489482705
-5.030237447929226,-11.57194200364275,-5.724723729637477,-6.657493718818009,-6.004666708384098,-6.267957980656646,-13.014271967736532,-16.89414256295074,-3.292595978327596,-1.6401117883066592,-3.5864418910204843,-13.174040461757857,-13.7388916553673,-2.693364355832899
-5.436116956967367,-13.290074924365008,-6.038998277540987,-6.95293276936009,-7.775724209655731,-6.60129618761324,-14.404574373195306,-18.44388063771757,-2.101758835016408,-1.923833583474001,-2.452812167233044,-14.086482930653744,-14.669235944625484,-4.321357075723511
-7.256060381798234,-14.586484085150728,-6.738782422968836,-7.672726563900624,-9.133107294553607,-7.784905116546328,-16.234557063479645,-19.39042828121903,-2.674644404194735,-3.846572800065225,-3.299969014473491,-14.17989293231927,-15.932107811211512,-7.635863705014055
-10.395058012990816,-15.060691518823829,-7.600149994716385,-9.290428370900871,-10.406821635959176,-9.61178814334732,-17.92481452239426,-18.709377760909863,-4.023264553903162,-7.034808200010087,-5.172627581921145,-13.000561878736466,-16.987534580809736,-13.000846954235891
-13.244445252349198,-14.49180980045842,-7.859487826856077,-11.061616006933862,-10.781494763060705,-10.371524624735324,-17.67274795814992,-15.491501145817876,-4.736198384272427,-8.090863446539489,-6.206418748007121,-10.75556815113497,-17.255721911537414,-14.57885221692974
-13.48764115652128,-8.217496205908938,-6.596551371021301,-10.721261670374702,-6.274747179987101,-7.983439559218887,-13.412913455610374,-9.533180915635722,-4.128309231631345,-5.123917842290565,-5.349774248750618,-8.087267502512724,-16.416913910018586,-9.24615878426298
-9.803137214271077,0.822620793368716,-3.471929802280165,-5.884350147937942,-0.2356747164181374,-2.138239100542963,-4.74128372101504,-1.7402045606424936,0.0592221522729547,0.352972990095694,0.0571697557812262,-5.416199067149009,-14.28081526314916,-0.0264487010959683
-3.1433590895763928,10.452676222744689,0.7383709701154553,3.605962494237722,6.31990496013799,4.673473770998184,5.834831006884429,5.977348134817502,5.8730810576336765,7.960164546407666,8.63693860775404,-2.621440483323286,-10.560592795693946,14.313204008610946
3.562486797180205,18.525843736704456,4.377264786117835,14.493005771876662,13.296483680802222,8.68621707517022,13.84964604295407,11.435954028961548,8.552871955379443,11.83320923219108,13.112223643543306,0.5079519004911521,-5.131776336336673,22.7804468881085
7.2807222673798275,18.78386986397909,5.979830789582932,21.6925913170109,14.921061879733164,7.950249615414258,15.838967164427704,13.299553032641008,7.211229869906765,8.836165135032447,10.341537011175204,3.602611489535656,1.369219057819981,18.58807195674705
7.050756613682214,16.626065432695004,5.508005021271696,21.91454302109512,15.07504525080407,4.195560136832702,12.11691641675415,11.973724345321209,3.9782973003673394,5.321472419698742,3.4922214387226687,5.798169398964742,7.526395657781556,12.692901066006456
4.771901871175894,14.5587839011544,4.658154056211179,16.396594669266612,16.99964878570887,1.5113872520514242,6.833016573191606,9.538333194295998,0.6738799775429481,1.1219298020440989,-5.793548846197247,6.702176707853088,12.163678882090377,3.377569652676704
3.78393169860225,10.4309061489107,5.649014275769303,10.095237062872709,14.553301145638333,2.7830826119905403,4.782283512485028,8.456537074649217,-1.0422131561561654,-2.163213049688657,-10.821682536506556,7.144333738983098,15.45611585234422,-4.913478045009112
6.136693509317068,7.557446115583684,9.187176327788634,7.6557742376269,9.7590433398336,7.037759751402036,7.359974071802111,9.76611290652884,-1.1348714612771322,-1.968901905966784,-7.771686377909362,8.583365360524427,18.662499477269357,-4.11684402356306
10.693210248205078,3.9226260018511967,13.354844905183889,9.5104359539056,5.077384187714743,10.16070861837174,11.16417041002899,12.168557015969643,-0.7908200050449606,-2.0612510737730467,-1.4258134667151872,11.517570336649367,22.41706492829888,-3.973772998341808
13.771161057048642,-3.758570538298606,14.712216456103691,11.641489316423812,-5.422594117026592,8.41089165283418,10.752427310478312,12.975051235953828,-2.352300286556944,-3.431471967522,4.952971185483876,14.576385940919725,25.406684240037087,-6.221711301936763
12.003476779807649,-8.473955239215542,11.007607541047149,9.321392891802605,-12.336919434221048,1.6246697694436951,3.372459421799933,10.32596763890871,-3.900272906513498,-3.843184401542464,7.205080826515822,15.487396183371128,25.206736357527006,-6.304824012341517
5.134620555059229,-8.803918520446292,3.213590903713309,1.4680124107799395,-11.501806595750434,-6.689068067523648,-8.478673501398434,4.811531616191186,-3.411123729981882,-3.1868541740364265,3.710456227402469,13.146298668090036,20.734683616302327,-7.732358568677972
-3.59784599100848,-10.10189397439139,-5.01154894692331,-8.319946313824461,-13.034699599521849,-12.3164380638907,-18.983689721469013,-0.9955589842869568,-3.696501532468605,-3.189472948458662,-1.4867557865878152,8.731118179157455,13.765565258034592,-10.924534448089531
-9.820808853021976,-8.307215278541095,-10.02433257844885,-14.850670368883092,-11.091432183908248,-13.607636859930832,-23.638587990150917,-4.671975300179789,-2.0433893418154763,-1.5518488767802536,-4.3850913401111615,4.716463062258033,7.741263738647058,-10.349039169210648
-11.13153926618724,-5.8962102435618,-10.651487728883644,-15.561994284918605,-7.532947586621373,-12.18360218848712,-22.359238039603166,-5.72996376601001,0.4712810545153859,0.4925505756112727,-3.507163308840205,2.799640955958731,4.977599812506576,-6.925068842002176
-8.431058656897036,-5.921995326424803,-8.36398116688472,-12.051217546596188,-7.786820136771474,-10.768513028696685,-18.48160463591206,-5.455645906221857,1.289418536391204,1.3662627396103133,0.6080013491428758,2.785111637322218,5.10252452293258,-2.3846801872939967
-4.6308593315890185,-2.8575701082677787,-5.443884508553023,-7.925154655393454,-4.188548519876924,-10.50912217982866,-15.147200959472332,-5.261059989594132,2.4091993710561743,2.5625824466183063,3.1892253425046224,3.3138326609118387,6.094488471291724,4.845965917360372
-2.086281415198843,1.2780626121193055,-3.158050852033659,-5.418236390549524,1.2382932162819864,-10.430208522186398,-12.874270343042442,-5.429233259441781,2.818373387207752,2.816487034376085,2.5727474277118136,3.3879380405312984,6.485523241397722,11.38639332715462
-0.9714367929462436,3.3869663312193143,-1.4433150246938755,-4.02262128048781,3.402757890631744,-9.28741559103447,-10.387239926993017,-5.451623359326935,2.525398990426304,2.1228022672340603,0.9155727440361974,3.041141019511977,6.305597785636998,12.214909162983206
0.2527690170084682,5.256903620313449,0.2467674078169839,-1.971114395451816,4.764695419164619,-7.462745351914592,-7.057827737346422,-5.180173556822976,1.9858403215333105,1.0430044814817234,-1.4852915849653603,2.7757376200289903,6.211961104614886,9.092371897739657
2.9220161505899998,6.543544123932887,2.214301854673776,1.4185065308247449,5.139696340630487,-6.5777894615602,-3.8093302488406033,-5.153038354354358,0.652992208027201,-0.186429547678541,-2.805904697334856,2.751463612776778,6.352818733978933,7.412272950168416
6.573643210094854,6.661099097949262,4.4587697541304605,5.01722644857272,3.4798605637838604,-7.166958714049166,-1.5461622204423375,-5.654479744226309,-1.49841588718426,-1.5865316523538746,-3.7007882803756575,2.736428677779568,6.440189016597813,6.163103925490794
9.086591768617213,7.24835606085917,6.77861386842439,7.223073811682052,2.864045048867144,-7.205508444334683,0.6406800976615741,-5.804825162357243,-3.1256017585648137,-2.248185278435653,-4.504603986427757,2.6877627135884765,6.596215362098168,4.7506385106048485
8.458225343524912,7.235908153652175,8.586144492369817,7.630963962908482,1.2931676209320846,-3.664130512322832,4.849727015283434,-4.109604002035303,-3.1564813671624465,-1.7437308002250924,-3.726964525441751,3.00865615985102,7.438058719438032,2.1601164638315478
4.729174274019836,5.929438534051574,8.89452312079898,7.229800003880666,-2.100755849990624,4.083546549462668,11.649005652876014,-0.1301933909073152,-0.9605376733170968,-0.5987718285450372,-0.7365986583980797,4.073972012090808,9.049122511993952,-3.2901779951265326
0.3632141663178179,4.455159560657469,7.071513307901416,7.116255988604678,-5.174637544644106,12.59361348836401,18.37358770570286,4.587689389966797,2.2523212363432936,1.208926537400921,5.001264988996272,5.638305822049324,10.24122449957409,-10.8101711327491
-1.4306834978993486,3.176035547635826,3.848231368576832,7.285413087044136,-7.60004987000182,16.62058275660884,20.765907617777543,7.544591591183858,3.368557801738053,1.9712132711916972,8.467240231859932,6.909899663042872,9.353217420476284,-13.914022385411185
0.8540292982921613,3.3471841161828646,1.281665397212869,6.785432223397229,-5.435892342527247,13.493313311876072,16.679382921117735,7.373394637487272,2.1057244740958336,1.331515966121391,6.650435481388008,7.245250394726721,5.945603248782314,-9.411486855850477
5.901756156314037,4.192986652444848,1.2666422253130465,4.935126707708195,-0.6281890134324111,5.417848301560576,8.176228099023056,4.90888190083191,-0.3510268449400233,0.5904703509031259,2.5526633658230846,6.702826846758052,1.482853816588694,-4.607829150946976
10.680152428044412,4.679729568936435,3.802414843558201,2.194171449161952,3.7586790970485113,-2.418916963672008,-0.000729555501898,2.2799612579910526,-2.352612346522581,-0.2515639753192414,-3.2320763936287005,5.851723150164413,-1.8501814971614048,1.7169774796410686
12.82921755574476,4.8861856964550885,6.93443942562751,-0.1895329484618848,7.256977647063815,-6.165728343435944,-4.256318820075347,0.9942421784626504,-2.1179881031174346,-0.5589966895154095,-5.988488767561398,5.151767578025817,-3.048673172421073,5.759844287465466
12.18457180631059,4.033780053204128,8.494218393225124,-1.318714716090282,6.611358011018593,-5.837557754679789,-4.493834539193684,0.9691255627253188,-0.2402194791563623,-0.0881305687964148,-2.9047862044508523,4.608871446246297,-2.902297606704442,3.924313874695759
10.28601139344045,2.681684076109795,7.91435957648428,-1.3405073947081083,4.117976806307477,-4.114775253585949,-3.138053325253353,1.190858125210454,0.8398519877596808,-0.1337854232617777,-0.230283512161489,3.9916041139905474,-2.8622237192999123,2.981434528866188
8.665693001015097,1.58977271626991,6.347928474981867,-1.0921127945990765,2.363819584150638,-3.2494762333950877,-2.3504766173840483,0.985486300265098,0.7732386891501258,-0.5304460961097579,1.1650995694038209,3.218687412485835,-3.565997849134412,2.041957535081119
7.671949503658809,0.6816455897259958,5.200409277034463,-1.2186982639398174,1.229909917319631,-3.351261395762285,-2.37583566435582,0.5256324943429309,0.2324000646196087,-0.6631312898733224,1.352092600912454,2.428884476415518,-4.552436310561882,0.8857830919127004
6.731766337273368,0.0258011776148645,4.798787133109107,-1.699696667099456,1.1638554403392716,-3.265428484644368,-2.2418463369007444,0.3073598866431073,-0.6894957558159434,-0.855663957949247,-0.9525013776518824,1.7428662960478842,-5.162610715428842,0.7712081959421776
5.37883719194116,-0.5399034442741355,4.493450697787209,-2.128272394460252,1.212143184014499,-2.394394668099256,-1.42052688144841,0.4558683785644408,-0.993471146750554,-0.9382757118276444,-1.969941187941985,1.1065626465760454,-5.368648166228041,-0.2191220855805216
3.79807277495364,-1.1364553578336067,3.726824270392717,-2.269875552066237,0.8774017344091811,-1.2661740330640558,-0.4013280223737485,0.6665832735460446,-1.0018864760919055,-0.8866042937784611,-1.4185420576764347,0.409082711748975,-5.633137062334161,-2.107951598742469
2.431211402424596,-1.813991646925924,2.651564266021439,-2.274068020703756,0.0899207650525454,-0.5909525574598149,0.1731775941842066,0.673137281459383,-1.1046339701400776,-0.8297611677349106,-0.9674607537977512,-0.3431225074959174,-6.217811151058224,-2.898650493940335
1.3578945618456402,-2.5059663295890098,1.7360618378158152,-2.4100248862103104,-0.6130452814748066,-0.303206592873404,0.4323152861080412,0.5759658699712276,-0.8245407526704212,-0.5515271767156651,-0.3340243127163045,-1.0567939764579393,-6.8917673944460205,-2.460692722698969
0.2522943415634247,-3.1365938296997524,1.098741192882743,-2.734365803240183,-0.8327810968889824,0.2120367824257014,1.0228165389322743,0.6550364181889012,-0.2438080933784263,-0.0013449406659788,0.1093312503124409,-1.7153106503233015,-7.327721313873784,-1.4269702875651742
-1.1291538894878412,-3.7344893035085422,0.4553881964769308,-3.072274648388376,-1.3240777475443353,1.1999045708666802,2.1333119898463533,0.9846478419809132,0.5988475699001881,0.6395946880292958,0.5654610096177098,-2.4114775979345096,-7.555451300024261,0.5557586752205635
-2.62640430774867,-4.239377510061573,-0.4004945259991723,-3.261112540865424,-1.9375026735285328,2.2402762273278336,3.2038311625370577,1.3575199182798912,1.400264311973299,1.2228629063699328,1.4128444216012204,-3.1930819431774067,-7.877300580898142,2.1338471761323863
-3.929483610532797,-4.778875661219835,-1.341065952490221,-3.335308692718044,-2.21759896799506,2.90777640871642,3.7454232126268208,1.5863460738290307,2.0817108710045558,1.903495594979257,2.4577228075744806,-3.9652904430548057,-8.412619618505945,3.1290249329068884
-5.020283352893741,-5.391428049342547,-2.171870139941599,-3.456953071633496,-2.627955920652365,3.3942350670150203,4.1114061594687845,1.757560801773133,2.9688017631515766,2.870030358950294,3.433738198106371,-4.624686590742133,-8.929371374056629,4.472237770375233
-6.190574060898613,-5.855079580733979,-2.9392517906373943,-3.712351171983169,-3.118287385124604,4.221115846218423,5.066234871078744,2.1102232966450574,4.162358069740059,4.087101368282553,4.31687315546691,-5.238413710710013,-9.19439643478506,6.094823679734291
-7.631407016782839,-6.29318491964673,-3.821638997959499,-4.024086568192874,-3.4238454033523187,5.450357436579308,6.639958780601696,2.695482385791828,4.0726554591086535,3.941496861166875,3.9319552452232767,-5.98573187891984,-9.337159106499929,5.754595400339874
-9.152392039049335,-6.839017054218435,-4.810561329459008,-4.245914114544785,-4.122484884701327,6.557360129264374,7.932376168621072,3.3001139162809032,2.320739772794292,2.132888202448564,2.23598340787377,-6.889251168822277,-9.684087620164556,3.0860039364384675
-10.429968583068336,-7.190613854376418,-5.708793417133338,-4.329418119261903,-5.471165958974767,7.188068086392143,8.329729467975714,3.736018412863821,-0.0224121595050099,-0.1201437690059974,0.1374694200466983,-7.724620338656564,-10.260848029356575,-0.5366671853533035
-11.467715833385938,-7.495431216809641,-6.457777108032909,-4.397647260732384,-6.574121722674399,7.743811634910953,8.562532101193469,4.108658869060549,-3.009554495966104,-2.8323608056721894,-2.8699398757981496,-8.308020813306007,-10.701655990504026,-5.680713728419499
-12.633410885669363,-8.091818422799605,-7.272470748693529,-4.633064990045282,-6.320353978815499,8.878581077724057,9.939663256960916,4.690263469569813,-4.222475843824364,-3.80475727383736,-4.513271581509141,-8.815648393482315,-10.766289978488048,-7.616968151077501
-14.208686963729829,-8.442560814999352,-8.368340707230557,-5.061719898115612,-5.712584257432213,10.496443908635982,12.395457826102096,5.52193368016483,-3.721733995886876,-3.223268603894909,-4.41017489422693,-9.659013110932946,-10.796851435322129,-5.614545670987098
-15.957255614222149,-8.291488368794852,-9.645771162694771,-5.362991338934289,-4.53769129709684,11.72962761259653,13.96640885042724,6.356875417767022,-5.231828243835341,-4.737925336890787,-5.7615874129937135,-10.8726165305226,-11.283659586915658,-6.009625576599023
-17.138165543953555,-8.474837018943608,-10.730473118606817,-4.896351466887931,-1.8825892749379016,12.163284701460372,12.872544303648198,7.1395719146663374,-7.883293687963375,-7.41152084792501,-7.742377051837231,-11.640697514267256,-11.802524557355577,-7.078407653236133
-16.819222398029517,-6.15516989242519,-11.196585759212685,-3.0642653425987483,0.4345684804199691,12.722063780111016,9.979382184904518,8.414698997399784,-8.503832501734049,-8.133077100389823,-7.824470450350148,-10.613756870267787,-10.649954028627008,-7.182286532109188
-14.12721954556156,0.2810781987444611,-10.563342115154342,0.1459448882962473,4.31772448057693,14.715278334162802,8.414086107296338,10.93114063873901,-6.199724424079848,-5.90373172947201,-5.511089615229314,-6.928778812198399,-6.0122826675759775,-6.6893072458030245
-8.576824843328925,7.524576766464742,-8.28849284091223,3.8429819108684775,10.585701111338931,17.86028523893188,10.24948105323887,14.609585891374005,0.8613350660456122,0.8870845432320489,0.7996767395145079,-1.1545125694206888,2.166441957779959,0.541044837260059
-0.7616945906570134,17.283148097466526,-4.326800823566888,6.555322970978864,16.38991402920876,19.874356307120216,14.04536666029553,18.04574559681868,11.133434616656148,10.809073998855986,10.63285341910235,4.666109575327456,11.556270239955609,10.600710903053026
6.985919354964203,23.51203352728899,-0.0573559264790617,7.166355048643851,18.829395739569453,18.701368434572927,16.3901110922654,19.3746485728216,14.88846264103313,14.576500731865458,14.884470747194976,8.019222435480767,18.91428199771061,13.09641730125244
11.154952466267025,21.0999974748204,1.7616336571308029,5.802829922000351,16.66005538304057,15.103261420873189,15.843253327437443,17.829602602514488,10.35749773199574,9.966138600009932,10.733019451670415,7.375976241515925,22.35611839220763,9.439334935310248
9.32246332349799,17.890484366478514,-1.0778580892359368,3.857347734669311,11.945003576708086,12.303123634620569,14.462728708697368,14.351718870566328,4.529617636475996,3.5255164757228696,4.70594693756323,3.190657435830856,22.22575632490325,5.019332168234792
2.610908108462114,11.791834638305604,-7.688546869313333,2.942293088522751,4.401302856692724,12.470686604197589,14.762416559051788,10.495476414361567,-2.397244175759072,-4.5606485268500805,-3.5172526543584013,-2.231683813167729,19.897160319102056,2.88686416453073
-4.241382247082025,6.267291507487819,-13.683340346187205,3.5775736192111784,-0.0614936098489651,13.833168802886824,15.725412267535091,6.831731829655749,-5.130384113212463,-8.081426703336627,-7.688316948344658,-5.996168562541687,16.111689490706997,4.9437761976777
-6.074869258943571,6.139237838122405,-14.170862489321095,4.772145169713996,0.1616994504067224,12.033684203090772,13.068859491449492,2.679073363694481,-0.9624017944617088,-3.5299568117047344,-3.781853298028016,-6.301291687165538,10.776810848041867,7.203701470332122
-1.388371018924051,3.7158474788925298,-7.905430109802405,4.926545472266264,-1.5473606292124438,4.691243650038514,4.013753198305448,-2.567206610145899,-0.6739284227462344,-1.037879830586165,-1.556923773453071,-3.486652702337019,4.197272716923456,0.9503029572566188
6.413916176893645,0.751118044034333,1.3628094205404355,3.2539104658120945,-1.420728346454374,-5.699111111231044,-8.784403869740212,-8.124857142643702,-2.837618709861957,0.1577839939812407,-0.6973204639392202,0.3296467120596995,-2.0597377341934235,-11.976089129022824
11.916005723937191,-1.0389476866876193,7.90115384516962,0.4161728924705237,-1.0010898667620844,-13.85198242225448,-18.962813423855856,-12.184492161894916,-3.051962169189148,1.4751499496706244,0.3666466609119625,2.796046625442221,-5.968264025645704,-17.859709128080084
12.089468566451036,-3.8377716826182433,8.638637600641932,-2.142307516440717,-3.4891678117545406,-16.606713961817835,-22.249787344459065,-13.601174017690097,-3.868573429487819,-0.2603607569055932,-0.9068024889460328,2.8973580201652247,-6.705424413538491,-12.603276783370394
8.192982354040893,-5.2615050942862345,5.117919101613782,-3.4401577055266066,-3.693232786081092,-15.446008170639438,-20.08453698888197,-12.992648036401375,-2.1901171056806144,-0.313444505438236,-0.5570272293148587,1.355812808098447,-5.284701212915429,-2.398558597486604
3.786864447252449,-5.732974457794709,1.2458304628413623,-3.605468126143518,-3.240011898714628,-14.233687742048716,-17.379798092062074,-12.037448053377474,1.306414643664421,1.3883133705040849,1.8839683550534905,-0.3289152150413885,-3.497140715677244,9.765851531671414
1.2382986295997211,-7.030321336109754,-0.5214717091166303,-3.469721512627709,-4.271258264922949,-15.11646613739148,-17.358081913858413,-11.862592197014248,2.1456169023325744,1.648633102778179,2.811645833473621,-1.236773945548519,-2.4095738660171997,13.407738425734856
0.1218817767236286,-8.51068359893778,-0.7975092078784236,-3.708236224773613,-4.454468866159905,-17.130483275630006,-19.2018382372997,-12.32166802131734,1.3607318722450574,1.767461200456017,2.8070419489265634,-1.5900034517909365,-1.931983141814925,6.744113340112295
-1.4645541105579358,-9.157943974913923,-1.6739573209060694,-4.394093507344205,-4.291011979311675,-18.41332944299777,-20.36377446351088,-12.710844476429315,1.4126575012841356,1.691991245096485,2.2878076645995566,-2.190308338611056,-1.5106697371579312,2.440141707149836
-4.5447883273457705,-9.7830027411516,-4.138302345794226,-5.201505310220145,-4.88954319057085,-18.725328853839063,-19.97286648413779,-12.755915327376613,1.8351600265515344,0.6293463981473238,0.3740858308583797,-3.44315596287052,-0.8196120516884404,0.0296596491379617
-8.279186002163176,-10.330372033324602,-7.177525644803243,-5.806685352790119,-5.331507195928765,-19.184649767609688,-19.25768573779862,-12.665706233251926,1.1528691358877532,-0.9827923532677342,-1.889306581455025,-4.9292081258690885,0.1890368185142525,-2.395620222587829
-10.93778093626987,-8.917887784468277,-9.017040175278758,-6.032101889393193,-4.996434679198281,-20.023852244245223,-19.236192870912262,-12.52288531307202,-0.6486358918071566,-3.037850873610945,-4.040921013181877,-5.833316640977989,1.359193794218147,-3.651854880052053
-11.515908215649908,-7.470712793579505,-8.818983603204707,-5.761017029333909,-4.90431123550671,-19.660535157633444,-19.21489349433095,-12.166455488481432,-3.047659155845352,-5.1129976718319,-5.935130012436353,-5.732742020906175,2.0117665754672345,-7.694584773068922
-10.434507239389998,-6.166171331232049,-7.18284079173743,-4.909025741315558,-5.051366485331509,-16.51200887933647,-18.05283600629855,-11.849660369813972,-6.381457390282009,-7.143711073065367,-7.533944230590139,-5.012474853209271,0.8002902289800655,-13.871457320397962
-8.863201319554229,-1.6427893615321056,-5.279977444690617,-3.4915850213903017,-3.0332288406801067,-11.291992370962255,-16.136464602559965,-12.547612789687888,-6.401714570954904,-6.047718690816062,-6.023890769169222,-4.523269257386037,-3.285376684732721,-13.531329937298104
-7.407189521867181,2.4145219121850703,-3.6606346350897496,-1.5559275893536206,0.245042134316559,-6.798633533581439,-15.086026762190276,-14.986103556282195,-2.5192758677555616,-1.8454825341995795,-1.7447192985689848,-4.748005770468957,-9.195239516691052,-7.124302528342435
-5.3498072606915805,5.891640906326224,-1.7758992472226716,1.0413281651982107,3.546193851825122,-5.201459028816483,-15.327091853861482,-18.15959794614748,-0.0448343594526006,1.3234179159194022,1.486397468593832,-5.137021452577541,-13.33456187347108,0.33633164121169
-1.1848808611624229,13.317771804800133,1.5078006942161295,4.69417271108051,9.166777477226818,-5.834560071042716,-14.669959585909144,-19.20549297072849,3.260762905933019,5.577367375720066,6.560537769670693,-4.20982929892091,-11.65148159969586,12.430849008570751
5.814337479726671,16.56708659546394,6.813047898442736,9.617456659982274,11.195132206347484,-5.988152075465024,-10.115752063553844,-15.4161292760311,5.087908629448883,6.977314222450957,8.906036056602305,-0.5599091846014854,-3.035913326778237,18.096963223689404
14.269277012292656,15.767972883921146,13.380849027733555,15.152156535932154,7.830128698366229,-3.834879403559072,-1.2932936125120769,-6.845612993597626,3.7980822541597097,4.143087079863209,6.282443231806132,5.833052139623021,9.076831028552526,13.05356201356476
21.015388610611897,17.513212429675146,19.17871765262777,19.52649008854065,4.698714016152176,-0.3531573720684768,8.195079863314323,3.000338696414918,6.265248520188535,5.052079096868394,6.435126405735666,13.032492876761133,18.742928632753426,10.335113904567608
23.19951732110389,14.373291401735669,22.098230825158403,20.59187539476141,-2.0376604329701444,1.6916678051545126,13.241109896112912,9.31980988292375,9.106614084621452,5.169789394204593,3.905844277604929,18.01000065976287,21.677730278351437,3.937756728234591
20.524341384711,9.54877392210415,21.40811612831458,17.22535604191788,-6.487382892398113,0.5483312633703434,11.39119478163278,9.350047294635964,8.169610723629347,3.2711289798676715,-0.4466798687107719,18.54532281749536,18.01415534678084,-2.6550988092436407
15.55799673881472,7.104016989837153,18.240848385892576,10.385487803176638,-5.003538572464772,-2.744576810312868,4.949177476261895,4.168879430750728,4.686545773587341,2.2035323003532925,-1.2678705123939091,14.778700255849976,11.474568864767242,-1.7813135825109518
11.65874111665039,0.0037092485418955,14.637204467266614,2.8979986714567296,-5.690039149763257,-5.195814810055758,-0.7628744519718822,-2.361341524620677,-2.6860445622137563,-3.351972183850156,-4.108580651155053,9.1279535149793,6.059980212905177,-5.630325104521214
10.325169915415689,-8.688118790572808,11.96932614117256,-2.0874590103667963,-4.370999621700365,-4.391281319041621,-1.435796504704392,-6.461162658875768,-11.576786659185538,-8.982811770160307,-5.109901031872754,4.541046536406988,3.2889187392805006,-10.708228540867438
10.345862181931782,-11.389171101851376,10.112328485087268,-3.02437220115295,-2.213159509230283,-0.4556060824563452,3.1158845206643377,-6.829173803983995,-13.728141307330125,-8.526662455093367,-2.292985424194752,2.445633965571986,2.007411969607372,-9.195688567839616
9.363227780225774,-10.163791955867367,7.973555559258934,-0.9313709261065312,-2.381978357917303,4.08348898908665,8.973746643615161,-4.958234881666655,-8.669304432824738,-4.78070790241207,-1.3199625937031028,2.02717349302862,0.2624579360649051,-5.878693027631655
6.213018995201423,-7.907314247021931,4.741373845325157,1.4039762668878026,0.5954202312928465,6.258193156678161,11.074240754463627,-3.474264755791303,-3.7834237315799775,-0.2775941792734037,-2.1827003278297226,1.3387202535113012,-2.77900887263586,-1.231679575838959
1.9033587002867665,-0.7994095948188007,0.7180269417386853,1.5253080489164006,4.112578684706329,4.864908966033536,6.953644340098371,-3.9272627435155663,0.8718035896543563,3.414346753376959,-4.897683947711362,-0.788361568001477,-6.338588372645674,5.308051654005275
-1.3924307459593273,2.869253570980793,-2.8523963523346403,-0.8487298758933903,4.469386997034771,1.296008817685113,-1.3096829166998063,-5.640434469063116,2.247917527195421,2.697286567681815,-7.549884692548311,-3.6717311451213632,-8.888265016033465,5.762653149722247
-2.1472915986479717,-0.1394696418923493,-4.668046172354458,-3.7435420134625614,3.6987817360466506,-1.5232514479020978,-8.369497151337999,-6.318738096158846,-0.537037771374034,-0.7538269483804455,-5.546095570143704,-5.351443243617847,-9.302484501921054,0.5452801825816893
-0.5783525473898692,-0.2094059871098634,-4.3130254542223945,-4.780132981388441,1.231559682434788,-1.3114289156166556,-9.388583556213703,-3.916738396529365,0.3878013607185229,-1.0659037884766551,0.1131197152192209,-4.2668382110294765,-7.481905150917669,-0.8714771562696207
1.615336982391593,-2.1626351005975115,-2.6264905655707445,-3.3661567631415146,-3.38033209979626,1.881844362800756,-3.663661193735301,1.6448870600557548,3.7624272576894935,0.6846186102389078,7.679025283908057,-0.6118957678146728,-4.288812584143511,-1.7465694971905874
2.471172775357715,-4.39221835725244,-1.174281346783264,-1.1659317701125147,-4.2185905373319335,5.757742470824756,4.765803660556916,8.265095467577947,6.002975668235911,2.8665779885495453,11.892383069385255,3.7055836255354464,-1.0699747197153116,-0.7623766314717692
1.065937304146377,-1.2872713677919574,-1.0518211910687576,-0.3080624023475451,-3.051811557667691,7.594466378570598,10.276391959518044,13.19393573502468,6.8811506313217485,4.602414604907013,8.873535767992301,6.399274470131612,0.9437560186582026,3.817824505521075
-1.8262485772056785,0.3637978376699454,-1.838092532393702,-1.0230357232220122,-2.7663021491000617,6.452459099558485,10.273430173358848,15.180837212301377,4.807583247466218,2.7306036991775624,3.988000022715066,6.4274950431315645,1.2308299764831503,3.423814262653923
-4.125549826889742,1.5839862433606746,-1.7046231799901186,-1.1728035008618392,0.6995099196064147,3.985045704525344,7.38919106270842,15.482060629029036,1.4693681347389054,-0.4097090019856438,-1.0752374984645092,4.738510851794771,0.3714652887531002,3.2141151084907653
-3.802270544664065,3.8330992472389633,1.076480901699437,1.635328930499874,0.8736195288846831,3.1174901301643345,7.116840407582387,16.739501964213197,-0.6741936155027622,-2.3069921683418446,-4.168182046580626,3.5909030380123177,-0.1653049310871779,3.755653903230548
-0.4385860753744453,3.95811101030176,6.294362883995426,7.283367992739176,-0.7246906794598383,5.518420432721456,12.592031044597569,20.46076239898539,-1.859329458402156,-2.8650625961440537,-3.3344093437666675,4.814056632950745,0.986270150099692,1.3818100539326788
4.2197149905987175,3.5571367298057823,11.390550806039824,12.59071870720949,0.8640751133924043,9.951830254963744,21.12206664151193,25.222976549676165,-1.3436017653176142,-0.6341971543563124,-1.7847817740382106,8.225670389274065,3.860430686734844,1.0798358438821027
7.288416710087354,3.663769970406252,13.10550404869418,13.800502943766029,-1.3768061305336547,13.11051078723457,25.98550064176425,27.3753277715123,-1.84191843705426,1.0773428992668872,-1.7171302567352582,11.457927456538233,6.81568852292939,-3.2737679451850425
6.805976303013168,1.9785718266036816,10.08468562648541,9.90694106379336,-1.571843197929366,12.258598632222808,22.087968799376537,23.870930755102407,-2.992239486830896,1.0740437081890102,-1.8031827103015143,11.624659858589812,7.649787778113181,-8.21189521480023
3.1605759639768056,-3.5656434235319217,4.107934020479636,3.581527981831444,0.6438085156093873,7.629659284680315,10.686406179725893,15.039196888584817,-2.5091840870601585,0.6632502551046029,-1.1276229479070268,7.727107755231902,5.541716347414901,-6.747627581959778
-1.3245080739064008,-10.523713792256588,-1.2229212169455188,-1.247980515686793,-1.2054301340643696,2.435583103749892,-1.2033643622192791,4.858729764899632,-3.709433795336865,-1.7856639755332342,-1.3169555223331793,1.8054536111931512,2.0663610723061687,-5.203370264551698
-4.326627863722599,-18.899321718997488,-3.276783496276124,-2.882330755313191,0.3633387207213278,0.338718070412888,-6.34856694446929,-1.7117549948582198,-3.4339017814836152,-2.5060747068470866,0.6545315761830924,-2.412957888172208,0.0778424843911302,1.439766133546703
-5.344547665538904,-25.08531647692878,-2.29748683321381,-3.135793819588756,1.919879641413999,2.496178050719072,-2.926410485136307,-2.26319546160424,-1.2419781323104813,-0.931678443121744,2.877125084838418,-2.500972995813221,1.197544607789725,8.10688174185724
-5.872028210162528,-23.870517992395573,-0.8908374948987934,-5.319524616414395,0.4675447681716611,6.665322587159869,4.556451456792642,1.5212259394373966,0.3237634320293274,0.3825906037365425,2.5760013533999304,0.5939812298089278,4.207888995302065,5.410513699315048
-7.85189394571684,-20.900082771148863,-1.6928644316127128,-11.003661602193857,2.3518526205109764,9.12173384846464,9.49202031379954,5.496897948455013,2.682810873477369,2.2634650159826126,2.42367763538039,3.351220459456413,5.994126049390719,3.1288236639164007
-11.827584548509824,-16.791510068069663,-5.272483649502796,-18.59301699657128,2.7574007967621763,7.69262362796557,8.48525383797152,6.366256141958191,3.9238886678313776,1.9554862809417373,-0.2936381951659809,2.7377654279856696,4.278931026157968,-0.8708413786893756
-16.40702896046302,-12.889541872336697,-9.91052992396106,-24.780422278590613,1.3354626248800516,3.3086649525382343,3.2294880330448548,3.8791482237382695,2.892177567768316,-0.3813692376699916,-3.4585102244251744,-1.2511658021233494,-0.3971971272279777,-5.28129042500361
-19.42382623290404,-12.89828639994919,-13.180329837670998,-27.223825479534973,1.7646589205404315,-1.1057926049485367,-1.9956586324727308,0.3121135982194829,0.7480614385143693,-1.8871043323994847,-3.5587614696870005,-5.869723537256046,-5.276437304067011,-2.5089140502574243
-19.67951451278344,-12.016097548743256,-13.826275104211168,-25.99318500001701,0.6084517870906496,-3.202747977455399,-4.257825121705878,-1.928695593005898,-1.1778790746702823,-2.867139290221728,-3.3385936341538,-8.27646685843806,-7.868238343674308,-0.5026075671568844
-17.720462561574166,-9.896927211357095,-12.422313576296858,-22.856085914809768,-1.2655358754226966,-2.914988607697216,-3.7843699365553416,-2.257176369631561,-2.631287579595086,-2.6202807825769963,-1.8110980733440716,-7.895363123114631,-7.844712047997827,0.4407578908933916
-15.111039592880044,-8.260948058401969,-10.507310189734255,-19.552535961930246,-1.6743680257557738,-1.9267772128230136,-2.672725606952808,-1.8429459416799228,-2.7589459210545138,-1.293937276761541,0.1730777400670994,-6.357577651255362,-6.757337470026823,1.985475017083972
-13.036373141206557,-5.986655172351326,-9.172442655560898,-16.72594578188457,-2.300339172027642,-1.7405045868733993,-2.454191017067144,-2.014086848278705,-1.7504789641547238,-0.6602969606774723,0.0733033755317907,-5.478911079833402,-6.220533231819065,1.1179307661436353
-11.55090848887984,-3.817245599846719,-8.373922288329695,-14.105404887735537,-3.208624772182185,-2.36756973021928,-2.9816304770449555,-2.9433756199154644,-0.9452331623429092,-0.2367473032110197,0.314209649532357,-5.579594854022004,-6.548399307485399,0.6257045649282897
-10.003265899290742,-2.297455213344027,-7.418262649184605,-11.288319581152637,-3.4698371895965345,-2.7902956704468984,-3.2567293677616327,-3.830098884481057,0.4491004082104017,0.9477780786121444,1.6481753254992535,-5.715008661753863,-6.990579885033174,1.0920157499197456
-7.989119700919154,-0.8540571500588479,-5.945413451021526,-8.229041517448344,-3.931891025037954,-2.4319853127848745,-2.850179194506861,-4.096475907413209,2.3840769329474694,2.7812578404396686,3.078204887872468,-5.1517896996937615,-6.903940865098413,1.0406486532242754
-5.777636560422167,0.8558958692162754,-4.336384005322998,-5.164386603403397,-5.137508755021318,-1.8658810402368784,-2.3074056247408663,-4.096691147648418,4.35248739813976,5.035596189423863,4.726786713986285,-4.219972723136166,-6.435142644087186,0.635920124778127
-3.872250235490928,2.097672921980616,-3.1766297492235367,-2.295841292082912,-6.407125308029221,-2.000101385018745,-2.333391714369196,-4.582697104477724,6.26818228090683,6.90960743185609,5.710234548513796,-3.7107302829261135,-6.15566846594178,0.1282415895593558
-2.34446094876035,2.843208822772045,-2.4668617174739538,0.3987715682867048,-7.463203498852183,-2.807412932924141,-2.8783962663744305,-5.667590996028132,8.022980647697327,8.118588947475969,5.792467506752935,-3.7782251220407232,-6.320718552188481,-0.4797220806146001
-0.727172415274282,5.463621320326995,-1.542957564043007,3.149666635069416,-8.061520523416828,-3.2443760079886843,-3.1802368300862582,-6.599157737464424,7.235965412100001,6.822123582682208,4.679848825210389,-3.750519108742722,-6.609765469445833,-0.2751774674340281
1.3869176034444308,9.203243317731411,0.1007043339836073,6.203163296236824,-8.191979006802516,-2.615601055446064,-2.719770675184826,-6.714140414486089,4.168411141843234,3.602512277910593,2.6983859677451685,-3.0484742760827217,-6.553361145692463,0.8787078350625257
3.735842208476072,12.483272735613031,1.9871085455289403,9.524681244766654,-7.422783014512396,-1.7574027984619391,-1.9922615568472184,-6.483158186200413,1.0240589588158568,0.4482192050021866,0.7404312322989067,-2.0557271375624,-6.123018286839383,1.6345745469946642
5.466527746153417,17.738838433619232,2.841236740456978,12.53832172720827,-6.136640004673762,-2.4186622591636464,-2.249908278409791,-7.350126760802532,-4.476087170436458,-5.262372031689742,-2.9522045452863046,-1.9077078191574304,-5.918163865529685,2.1605389356623204
5.8585299408038765,19.712475769970094,1.7374726314839035,14.176063427234029,-4.377066212240229,-5.252092090754999,-4.47307542933126,-10.349309337849135,-9.360645929578045,-10.42871803252318,-7.0999941206636406,-3.447223090454173,-6.787335707200995,0.375603078234782
4.92783878438653,16.04795001002806,-0.9721085519876028,13.346475574735765,0.5083881992887802,-8.679460838057025,-8.631867038867071,-14.894767002866914,-11.723751622287104,-12.773527415746658,-10.14049621144728,-6.505895040319665,-9.156433336976882,-4.0166305926098325
3.251559869674722,13.015731077550402,-4.001033949186336,9.619083671992428,7.241018717291432,-10.181644420900597,-13.879173879957513,-19.05563812065749,-15.345859142189322,-15.755710451689248,-13.825156515502394,-10.188687809534294,-12.518440594673024,-7.345372395565858
1.2487279661259976,6.732246832557716,-6.40750191882772,3.6576739612470983,14.287116902774708,-8.858740389641753,-19.217822977260862,-21.085929401344828,-17.596229290840405,-16.12730421227929,-16.75849913646004,-13.652199558626265,-15.482198923524876,-11.212671157747357
-1.1718573948149995,2.893656407297148,-8.356359768787932,-2.854465202658993,19.217507529543635,-6.437886689274279,-23.747107450686958,-20.634835961990703,-13.633813854719843,-10.776377019094868,-13.860028656375103,-16.387342305714782,-16.444192302882485,-10.657759171265516
-3.9670914206837855,8.329039846205276,-10.368838932240273,-7.667093763881809,18.833146366716008,-5.332683604951839,-26.21124076331896,-18.375172274836306,-5.878769071475075,-4.077234014806245,-6.126859442088018,-17.715176815255703,-14.3948514057531,-3.7452533706125255
-5.916625363768944,13.409903463880186,-11.835683329847228,-8.596246869308857,16.060824882104797,-5.620737965674465,-24.65188137019514,-14.547471951935613,3.2977476277686035,3.0582567130627623,2.2410204582419198,-16.304268907783495,-9.253331428020516,0.2290789827048291
-4.599082604218296,20.334408754089853,-10.673657398654626,-4.35822502373734,11.927695339167752,-4.303644247241742,-17.164452904151865,-8.227431042810764,16.280351193982693,13.023165775924628,14.272173001818771,-10.703139474614773,-1.6362801295020262,6.284412174652471
1.946413529458681,27.155500298301583,-4.9849043431974,4.511331606368572,9.119274962888118,1.954044490632484,-3.582937691350196,1.5757583571401526,22.146306148164697,17.80110948817949,20.54675725453784,-0.7824416259435125,7.457439789252142,11.24513474465833
13.057049529011373,27.565178881303364,4.659107954001584,15.32444265243985,8.081863138736185,13.029838602088477,13.269969511920742,13.91106463250783,18.416426872301717,17.457478478599732,17.38394027501556,11.23577123261166,16.657560661576852,10.167972763028668
24.96787992045848,28.89622745644676,14.738588474245276,24.34038254292268,5.693922202402648,24.24041543779078,28.12760397233634,25.171777514194112,18.07503340483757,20.91508183081392,17.99709123022884,21.472140430967244,24.241676892092123,13.961491489858291
32.98801734779404,30.785798502996823,21.01819715897019,29.10494637861381,3.555699066172264,29.31150316238752,35.710849887116275,30.934691799652207,13.583809347774343,20.05355198882833,15.740565422316342,26.663682326414204,28.763513617291004,15.439574562057324
34.68536771632972,28.20158266834671,21.658532236921214,30.215435177693585,1.5308107953639714,25.049031479163595,33.60812859412509,29.102374489784477,5.002469230498435,11.74878851336838,8.436095839254497,26.21480825960399,30.02898704792495,9.02641798310716
31.182696643824254,22.319676214555376,18.30617401003689,30.49545169411973,1.3293822160896311,13.826352887115531,23.726381263713748,21.56397533449521,-0.3403088053964599,2.1863412399088293,2.2447166332132724,22.16730826367372,29.215735810843952,1.031611869924757
25.374311935415413,13.609747090865438,14.151944983059828,31.76581825084652,3.38766620949696,1.915698364526854,11.28868085435355,12.704923726804104,-8.884279569248044,-9.834411476845494,-8.00949570052046,17.06510813161882,27.464573384578703,-7.6329029641193875
18.9847689197296,0.4177367425086895,10.944628119757516,32.188512647519204,5.189850051634416,-4.9032496544813,1.8759536845547584,5.97454645941226,-17.414498959506286,-22.10909133870334,-20.050422641250258,11.749735388477111,24.16518227427914,-15.016321216255406
11.570994423515806,-7.825292834236107,7.917792311996514,27.311924755426556,5.482847130122125,-5.064220145154756,-1.718987301301084,1.5683730948614425,-16.47765301628974,-22.436689428209235,-21.643653168053444,5.247199827806576,17.136383105877137,-13.883929432185392
2.390739902724782,-8.146752670460822,3.4945562259528486,14.520178065749032,2.387409958646416,-1.6693700089299242,-0.8048331006821741,-2.789896343102761,-10.894247868307689,-14.6150452997638,-14.551346037834886,-3.218729182521443,5.217691166430434,-7.343935907309799
-7.1851064483057385,-9.249640631383503,-2.277892432784739,-3.2494036795267185,-2.214480680408153,0.3154054783758582,0.6477584208315896,-8.956781864269068,-9.96772409305792,-13.73003640378354,-10.643399299996316,-12.311989766791685,-9.144996512216878,-7.215495275405002
-13.725490910005608,-6.606710110403729,-7.2503983871641,-18.59501850819045,-7.0505658071574535,-2.206884587465584,-0.8292355493304022,-16.260692301071387,-7.684597857311881,-10.28236468307947,-4.359550625298035,-18.95035182762549,-20.44862952850709,-7.069117230930262
-14.539971115846193,-4.675847370308082,-9.109776799736526,-25.11309686766852,-10.52315878805695,-8.564745635846954,-5.71685585935921,-22.05470777226193,-4.531614731191557,-4.839784788217652,0.8424832912978171,-20.73070480378176,-24.028642747310805,-4.499656652148075
-10.366365969587008,-7.608423205384824,-7.603338135272565,-22.293825036724957,-10.689032479987164,-15.375892073020507,-11.578935905872395,-24.066530120767418,-1.057590250121647,-1.4592675410151443,1.4847978227380767,-17.977260398309912,-19.829358875590515,-1.146610410843738
-5.029851914179645,-6.748257703901616,-4.722456303231056,-15.245731558985195,-10.449964040865469,-19.33863913690445,-15.365082557551542,-22.1034484516602,7.695997255735059,9.571840312273258,7.203880770372924,-13.34040036373063,-12.297353477239966,7.221912809085129
-2.3043350933845463,-5.642898579049828,-2.8114790549504782,-9.792100917707138,-9.859740105336543,-19.38346712957022,-15.76875911944121,-17.73396416535057,15.415685094209334,19.305035107871078,12.592597404476225,-9.471860006898195,-6.484454539724373,13.983484114195436
-3.03894013475745,-5.896760426401374,-2.638076670676229,-7.8932110763485746,-9.2122574712088,-16.68331022726823,-13.653063969923434,-12.72330882038715,15.354706495041624,18.506433735508327,11.842762762370848,-7.140796696387136,-4.171927225174974,12.508121601290238
-5.209434202066122,-4.722338790289203,-3.262665188752198,-7.505497613539454,-10.260135070452048,-13.120023558647572,-10.705389617557946,-7.975794808219515,8.727101521587201,12.177302843600325,7.864826345459297,-5.451235395134599,-3.583229207389508,5.549489956806687
-6.46367615719902,-4.573025137067612,-3.4788246506439275,-6.095524693164698,-11.012887606257108,-9.898953983004134,-8.02224516899292,-3.6293234186574734,2.04510437314557,5.276638478414116,2.9201397991879565,-3.43846900805325,-2.282781979742855,-0.4797102216643488
-6.348273355716078,-4.806751360345688,-3.0538296536546268,-3.451149671067813,-11.01442040878134,-7.281125707147775,-5.8271435981667885,0.4582076499025103,-4.814422752368205,-2.553795698255854,-3.216973297134223,-1.0573758185095803,0.2565887611773783,-5.687583254043155
-6.163396696891673,-6.177021456733783,-2.593768325108244,-1.0607352291857215,-11.221047498223871,-5.022315845471312,-3.961531621046829,4.604364535364031,-7.944397454841836,-6.536004690724645,-6.054301565740831,1.2734065057365331,2.8982153020517645,-6.976626373761404
-7.0694071097581,-9.301124747077498,-2.553940940593889,0.378048736006443,-11.324548113504742,-2.7030700876149822,-2.163396688901022,9.2857080579536,-6.239454373020064,-6.379193945187489,-5.146802501142421,3.522485042073,4.823782715597607,-4.290494902693879
-8.695174926543846,-12.864429772694466,-2.723354755575496,1.837250042329437,-10.978284804400133,0.1516601553181509,0.0201177817546733,14.591595875868602,-4.015263314513648,-5.331039049464907,-3.64567516494246,5.961388414712402,6.48346507474361,-2.7176394152231724
-9.597822034063398,-18.71069034171623,-2.6939775555445,4.180464250104307,-10.845269339452146,3.6827955641176144,2.9725865143512578,19.446350825825675,0.4797705704513333,-1.865712526001852,-0.2246939385951015,8.278562290507454,8.494903294000235,1.1114754859908669
-8.812924969387698,-22.083602711716026,-2.5470843563765087,6.219191742765026,-10.173813163088344,7.0982257973103975,6.240919053542706,21.73690432490612,3.5730331894354195,1.082863319802843,2.107947305170704,9.25504195030206,10.201541773093258,4.45095357616094
-6.768459038391084,-21.70588038365625,-2.8185303926095413,5.335215707793598,-7.259700906708427,8.75505014154737,8.261411905475478,19.82372126091323,3.114398888418225,1.0042814906768558,1.7542500253845033,7.743136810801849,9.951064402268434,3.912277869697587
-4.764698138375584,-22.659018301236312,-3.783126587578855,0.2459733979242564,-3.688200349469231,7.407014815802379,7.44882680549983,14.22623911804742,1.077720216920902,-2.623594718899182,0.1289351211782965,4.008847673088052,6.891285080080133,2.409800606632705
-3.7578102407234,-21.076476265607127,-4.9512812820626415,-7.170720416659369,0.2239247661594228,3.631618313715318,3.8821150466824985,7.670107476088082,-1.8408872383875965,-6.532396710585289,-1.8093235903603824,-0.1146568072248683,2.1705304445619085,-1.2955458103987396
-3.6948111457131754,-18.85099483979788,-5.40714773261468,-13.12490141483162,4.000916938760188,-0.2018281565815272,-0.2851445503240306,3.165764558758312,-2.85715304742615,-6.485099778227822,-2.1971672172511605,-2.5776671493160084,-1.871760400756255,-4.215280222901292
-3.860397124093666,-18.956614004200052,-4.631829577442527,-15.019184545534689,5.472817295516726,-1.7340807260944011,-2.447763005824232,1.8393456294767996,-0.3030767697919141,-1.4798351824301617,-0.0839562236325368,-2.6558868233279647,-3.6498158450064153,-2.2405514210921256
-3.666137162988335,-16.6136825350761,-2.929383016266218,-13.304277909752884,6.419330845675321,-0.5140368704978968,-1.7048943668509935,2.525320522590434,1.5562196036344482,4.009360183802154,1.651291544685159,-1.218170774427481,-3.4054073818372643,0.0250754511207826
-3.071655689870866,-13.4995098757428,-1.051029385642643,-10.477020754066215,7.637409278001682,1.932322636717199,0.65288695540006,3.3011729259995306,1.401164871475136,6.853804337649631,1.7657134448776783,0.3539007016592208,-2.536276163265928,1.4672583809117703
-2.394424481094852,-11.783792301084809,0.5221260676188244,-8.576247167133872,8.571962504117641,3.8474189307057927,2.7205278048584134,3.248428057535328,0.951534026965093,6.404896861751145,1.3406030147451231,1.372804225219756,-2.1524938977395074,2.1617869600895405
-1.8743239099664848,-9.688469945159651,1.9066195740271148,-7.722056038563476,10.206718146740965,4.874494379481497,3.8124150264837615,2.803388032548476,-0.579989413185,2.370133370920932,-0.1337047308842595,2.0982358193941764,-2.335135890647031,0.1038792507586676
-1.4807220426620056,-7.684154153377346,3.4820684620410987,-6.783952024666654,11.701215247692934,5.900779872719824,4.643413782348393,2.7339093525982143,-1.1428918401651889,0.1305868813853989,-1.058059340647317,3.0708859213570747,-2.5369352974094745,-1.2515758154156966
-1.0519271201648586,-6.374371760563187,5.3365404637375455,-5.022652046307865,12.398900233141177,7.581937709113468,6.007233946494456,3.144764764952868,-0.2171205162410808,-0.2809359456215658,-1.00645337763824,4.4125538007355765,-2.362717561005596,-0.7507300734303266
-0.5125627142539528,-4.570642365142286,7.084385852482406,-2.8903221887496926,12.620318845360178,9.402733349135836,7.703165931233919,3.5260579668644176,0.1556490656337037,-0.6097837223910128,-0.9373919217609548,5.7506619465234685,-1.8651264511262904,-0.139311461924281
0.0772525629709512,-2.2028178105852407,8.200381295645645,-1.3886508764853789,11.812778744806833,10.266437868828394,8.860711523674134,3.496923038554776,0.4199444588439032,-0.2097430402132938,-0.3719341365268488,6.65767438297755,-1.2526983556981968,0.5138543981371007
0.6362274937976942,-0.1266472608986969,8.492401458340211,-0.9205560885963742,10.215318881232806,9.723424580991496,9.007480611448862,3.226600814212912,0.9091322422343532,-0.4091866286926197,0.4109459295611139,7.063510569735097,-0.5258101103599628,0.5913515989879436
1.1538814584044523,1.905828322026858,8.237576240470677,-0.915499284090501,8.178690913451467,8.338064865802451,8.494691343657692,3.1127960930642296,1.4870623869573736,-0.5337010466670395,1.3564476856261842,7.263113647795702,0.5184887076917128,0.2138645948085467
1.679317627803787,4.242801589315684,7.905799436749955,-0.518806883093486,6.366783760512109,6.944295556701196,7.9588711083086,3.2599896460135867,1.389529352552348,-0.5105099469025766,1.6975548094426385,7.603162190476461,1.9760783009493323,0.2259240374124782
2.2395692768687,6.726795274702482,7.759503116463829,0.4571585673213292,5.388661788690446,5.826346368176104,7.654374660100256,3.4065296269316185,-0.0362218759267241,-0.9512175163993474,0.840575448162349,8.155662389322462,3.61216494716221,0.5866396361339021
2.808995281483135,9.573081195943198,7.71967216169169,1.3713482815497748,4.45088644211729,4.754283102339876,7.444982818548134,3.3154675828269013,-1.9933114858705,-1.826816155635258,-0.3406944896679674,8.6858715127109,5.012523682994271,0.56865667374059
3.355909383283532,12.593058336898489,7.582855678996847,1.5846806779705993,3.45983409866204,3.566562738073671,7.2054570560773215,3.0797067344085,-4.424674302392158,-3.2100769066765915,-2.0999953405981384,8.947367669779663,5.997616134828981,-0.4494736219359582
3.881582544379228,14.038102309510254,7.312176025692324,1.3331432646156145,2.086362009550414,2.394239612710884,6.956700637924474,2.970221707191328,-4.554929744946586,-3.1387809018105037,-2.960889061953237,9.01539078430984,6.852875786387818,-1.6487013605321312
4.402783207909263,14.414451799080297,7.0852538447995,1.5758233067206575,0.2439863587632709,1.310927173552532,6.646076648606751,3.0668916471513867,-1.919274826533893,-1.2892196695386042,-2.1743934618813374,9.275425765659476,8.058843884530077,-2.026004711291038
4.918025805720102,14.084606609627183,7.053423466889505,2.8057158925853543,-1.4757393475408385,0.1001731618449781,6.117741925661104,3.1622123415960743,1.0701093723099402,1.2744076949526395,-0.2837199908532491,9.98556792887582,9.72894486667672,-0.5034346238165519
5.410969674307054,12.079339283928702,7.089794137745091,4.122878283923942,-3.387428571947936,-1.3567892012589304,5.483722361259826,3.0539653124645554,4.93152229581559,4.747908611881416,2.730575121895713,10.82045256883871,11.33975149216744,2.2493314177759287
5.883618223805591,11.24200409664205,6.843101319082859,3.8423067259903583,-5.174022913834415,-2.541275107598896,5.362317652359934,2.825580263568966,5.369199922968517,5.199280866445971,3.8419429911382346,10.943844191136286,12.075463770549678,3.174959224028164
6.33053530189413,9.98793290295256,6.069398738060997,1.3587712438790795,-6.85048005335058,-2.5568913892880936,6.346106140525791,2.643944044435006,1.7902759669396016,1.9062382614731683,2.198590798254083,9.635048415301608,11.402253965751598,1.5268448431444783
6.658139436394659,6.72113188468045,4.898900667904599,-1.6539711971283673,-8.78788409296946,-1.194831518623726,8.067287620375392,2.2129913301210635,-0.1413054268676124,-0.6541402857079505,0.0919787093524359,6.885935959558964,9.220026154505256,-1.291053130042732
6.662658430465765,4.731873659346672,3.740318653709025,-2.279202445987334,-10.46515221483601,0.3332618430073069,8.934240747617835,0.5788464737700139,-2.9366512057013305,-4.218954870044628,-2.476730690434941,3.3718394971873917,5.514144030349801,-3.9908022486872414
6.138873577740107,2.6922195614402726,2.872525770153306,0.9932232382349042,-10.34068659220098,0.0783136455170883,7.142725514343297,-3.193775563532764,-3.907446714320789,-5.336709063465538,-3.001153319140522,-0.1477327115369178,0.1671531049815016,-3.753611572905661
5.040081818610375,1.5286562182144234,2.120310777288612,6.526046990476678,-7.975257445174938,-2.9249770133085136,2.194840060111176,-8.888221383719339,-0.2517275664393879,-1.1205489487422766,-0.0879689520500418,-3.3496212453580334,-6.567396724495509,-0.3477317691875685
3.5330067763176896,2.698773316987845,0.9723769945038097,10.573196632430143,-4.5978244649064575,-7.533031733275157,-4.4827605174594165,-14.674824689263929,-0.7326795451887129,-0.3317170351017557,0.597989252592464,-6.266788341575028,-13.392118403328803,1.286126170537432
1.91743815592012,3.1643208463122763,-0.9237549110090448,10.312938991803238,0.576888822018634,-11.203382294404433,-10.455588685019348,-18.051701620330263,-0.8470055997292107,0.7744070260263205,0.2691224327016769,-8.816390153092335,-18.127383250750285,1.8151700788020904
0.472661596662423,3.0313013727403426,-3.3626956216407926,6.063106540012958,4.080119009661041,-11.988823148441805,-13.93141187030546,-17.632362436848457,1.3588586953186303,3.094862775683438,0.5528794822418437,-10.60971211211188,-19.07771565792148,1.931459321170367
-0.6249760505074802,3.010653454106602,-5.655102485491371,0.731521269805059,3.9681460079290742,-10.003080508080272,-14.736445964120328,-14.237691712347845,0.6833729292633007,1.5071627875415734,-0.6492377129660056,-11.287920514506997,-16.46796954007392,0.5499287836928812
-1.2784785319338248,2.3752305169123744,-7.112845579150371,-2.725268507644952,4.35440070687998,-7.073750634854794,-13.974325656514056,-10.240362720093405,2.6691792532683776,2.5972507401709928,0.1670270836201,-10.955494970820828,-12.419464195838206,1.2269361088871875
-1.4532413444997063,2.176045823790468,-7.514711391941391,-3.3774060597346027,3.5919070570362104,-5.061128619518356,-12.924010376389733,-7.714374438123037,3.902199571698039,3.172525367714968,1.4000265617591596,-10.165339734396094,-9.318525666339996,1.9322455156057277
-1.238021014864113,2.578735991867069,-7.176029696033996,-2.305331989315227,2.523214546986013,-4.488318838745696,-12.215743498715684,-7.061054058988425,1.4086180361092522,0.6233678112403451,0.6483940245907878,-9.473895335022348,-8.097853726185736,0.7907150623204267
-0.876564513451509,2.6902534112582885,-6.628161571113088,-1.075902604480901,3.455844991066527,-4.598141905498246,-11.795383106063342,-7.229974111696634,-0.667396929223667,-0.9684594487842972,-0.4323754441450326,-9.05134257898785,-7.995543754240654,-0.317685416853643
