AF3,F7,F3,FC5,T7,P7,O1,O2,P8,T8,FC6,F4,F8,AF4
-1.857380073053581,13.67581521898051,-4.288256893923071,3.328140925554598,-1.948798965231928,-0.602723313393486,-7.476570785460128,-7.270401651519117,-0.3205315233277944,4.845494282290664,-6.712922788773066,-11.934781543773228,8.872100328865777,3.617602544082095
-4.83150745551709,5.196162584512245,-6.293795454592765,1.3686318166624312,1.092507333533991,-0.3140726602201829,-12.132021762767067,-9.729222736706356,-0.9977812571309056,0.4644969481551886,-8.917010413559435,-13.21610637834303,3.385211979335102,-4.534239900446929
-6.338417203277747,-5.451550757308581,-9.039281272558696,-1.6747000522968989,2.422378646144444,0.5053392301387982,-14.57407572051406,-9.766876110857666,-2.4709709027337854,-3.014180775748681,-10.142423341130288,-13.63056211072534,-4.272832475693368,-11.156174953278214
-5.117353154881382,-12.524366454708266,-9.52725897130764,-2.066510688803554,2.890638156839357,1.2500680168247058,-13.626949214697072,-7.958348394298955,-2.922099035537229,-3.773338661767418,-10.178634668630364,-13.096857531298587,-9.260732926197589,-14.074249172342752
-2.544323402083119,-7.721979165520755,-7.458207810844967,1.470380164165909,3.802669606547697,1.4157678755441776,-10.063624246528136,-5.277956813774684,-2.476099713676107,-1.5490797732769872,-8.915660682222386,-12.12890400473714,-9.256593221937676,-13.333596025144194
1.391458496652255,-2.6027203928755496,-5.999795679686638,2.9943220619694637,5.9465421581435,2.0973342182870742,-6.123056647753819,-2.6395228582727315,-0.5042199007430531,2.2131532787397905,-7.0481407578244175,-8.389215430460673,-5.695661050062952,-10.663326536813056
4.518165634051442,1.8817460050878656,-4.486515440033617,3.556690982766805,9.004871938596766,2.747668232487373,-3.9319613205085338,-0.7201627018203682,3.493375805512397,5.172590404162855,-4.481128545824933,-1.816943082795924,-1.892479208911081,-8.068405006001953
5.628777487087768,5.35472918346256,-4.178434543392302,3.192413865676959,11.601543015457338,2.339222165549596,-4.024027722104664,0.1426057603463579,4.963255447106956,5.420031382651391,-3.2227941745240485,0.8528714353765753,-0.2312902569835326,-6.682710958455804
5.70677541909388,3.284873829149868,-5.701191596905261,0.8954387408385958,12.025794884397214,1.6538983017354587,-5.14884885029255,0.0538987889286701,3.892566401634082,2.6200050232054224,-3.6156411749263215,-0.4057404617980902,-0.9174498213098036,-6.485737245708037
6.401089418830978,0.5224423745817749,-5.967067705744045,-0.8119182821836305,9.404051382599553,0.7213010509170756,-5.511353756749438,-0.4990609743663441,1.0295675390452153,-1.6928262297884586,-4.30684246146646,-2.733450845664657,-2.8176589016767952,-6.686559855310559
8.862370696404861,-0.9983827961598236,-5.338193903721492,-2.185647445753544,4.637075370738277,-1.2675141079892307,-4.343059561405195,-0.9534768467648044,-4.811369269642837,-4.947221098420851,-5.911887575616679,-7.738721412333538,-4.938436101053226,-6.279736665090832
9.101019498960898,-2.4810994218273748,-5.864689482945442,-3.951606306440101,0.2304816187675289,-2.065294429227593,-2.415994273647634,-1.0010682002248696,-6.657625824935984,-5.111750703966196,-6.245742928389323,-9.518968053485448,-6.9480067750056005,-4.537930288614762
5.130279610679622,-1.7024087616741037,-7.126058849488734,-5.668683100691021,-1.248262968854826,-1.5271289290232417,-1.111188866650199,-0.6413918618318455,-4.258231432720108,-2.048557137392951,-5.070502434971954,-7.582467632963461,-8.58788218806977,-1.4712238089737166
-0.8159652765146181,0.6125802838505051,-8.592966813884836,-8.00173192766753,0.854851007285859,-1.5599608384853745,-1.0266862934378018,0.0315504707793827,0.0902912752974868,2.309072416913189,-3.036573162604705,-5.338918275552157,-9.091371631471368,1.8660217863251771
-10.822275766052355,1.9325358916480704,-10.56330482143914,-10.98315614006354,4.521994397148806,-0.493054997812378,-1.5150461053272508,0.978589059814901,8.197616711535662,5.175257336791141,0.5098869978361941,-1.2757641972191356,-7.546839081518236,3.634621168702189
-16.234368206569357,2.488865625624031,-10.05929728175005,-11.339569331288937,6.441490760597198,0.3374357090474926,-1.5444674326962016,2.0784960667785413,10.760747333004137,4.751613268709157,1.5097141064336683,0.4383333465950005,-3.908240016471435,2.2737814995075247
-12.076264350164012,0.9489991945467732,-6.776388657340322,-8.91887460017699,4.642147640108043,-0.1991273261085229,-0.8929210926853806,2.9195562042994574,7.221058155666661,1.4118241241276053,-0.2536485082905662,-0.6976554941523111,0.4973660978340852,-2.1529226703599456
-8.214834874458179,-3.2868297992123727,-4.7137892637735845,-6.860402817945908,0.2312057836212595,0.1110407633785639,-0.3523368118479695,2.929996291017176,3.0628724727161614,-2.620256344743112,-1.4326307067348625,-2.0966421328670184,3.679040562050457,-7.473312603987839
-1.3253883484634637,-6.900464744577826,-3.2871815866860734,-4.4830790782611,-3.3442460873526016,0.2214146130669829,-0.7037405825088427,1.8965909423304943,-3.996338339522895,-4.866104245268208,-2.915645909788378,-4.878800785892924,4.396180775007938,-10.537444799973052
4.576261551434001,-7.2163414828820285,-0.7837272611454335,-2.200086467115298,-3.0234303560463367,0.3169876932459937,-1.5816883455589623,0.3807415527109121,-5.513988110194461,-4.278639328236444,-1.198666280937477,-3.782161094329035,3.051754303806632,-9.368839740004962
2.454067221414619,-4.211204579266094,2.1974237702522434,-0.5398400196777503,1.3959395436668522,1.4085586312763116,-1.5263674646256329,-0.5024728239223535,-0.4089231283610178,-1.774558800328002,4.50211145273223,1.799267108357537,1.3316028534168505,-4.631511847612565
3.608294790420382,1.0696839339189428,7.431993042877779,4.256481488043559,7.099453587809336,2.2979490706990875,0.6907861430834288,0.1151211782407735,2.827994147112689,0.7140406185764974,8.033421556798839,7.567859246906863,0.9961391430816208,0.922371466996303
5.778908973959777,5.835144308185598,15.268776339132526,12.189740965980274,10.48681206304067,3.404827523433652,4.727631578547463,2.146740854889188,6.204540854587596,1.808262411498916,10.151765796188185,14.852564060010032,2.84565100157765,4.625683502285497
4.212147764170696,6.71399078590558,17.861263191519306,15.012751399740356,9.859162162960732,3.884699464819127,8.667496610074629,4.574705971022709,6.3825556532612255,1.556151567845724,11.24453346184557,17.74846049725452,6.4654360723385125,5.782731428392207
4.264142659708299,4.790620975610656,15.07167736846694,12.908036913125828,6.378009543941186,3.177365560130613,10.448326032646689,6.178292061154444,1.8295853055174092,0.9938593186984122,10.091672269007422,15.227069626344967,10.550766932386685,5.640458839979665
3.5396263348999675,3.488387531995476,12.40641473015214,8.96627701822166,2.7474354329102546,2.5562453157421112,9.482136324299807,6.328561189425404,-0.1758633416126253,0.9900784208716652,10.626939312844666,13.83909128370438,13.359645091969613,5.696446939738951
1.130635059922087,3.5741563312996187,8.166929519102915,1.2944614863809505,1.0172520799396343,1.0799853762760407,7.067825659535579,5.2440221092906185,-0.6033936322544068,1.5380476826007552,12.702959063674648,12.07563444220742,13.251267586904635,6.196038707185792
0.7611783965051016,3.5794620133053066,6.148258804263044,-1.8615460883290296,1.4021663279612824,-0.0552359207533317,5.29352117096801,3.650950150243336,-0.8812493037187769,2.055615734399236,11.162388536253602,10.553828578080482,9.528827495673609,6.309507175689859
1.1754178229711478,2.1116910153943875,7.311797483383015,0.1434265317443531,2.7810619824210576,-0.0365216769343453,5.395904419837436,2.2547775752493067,0.263403465128407,2.155782864090746,6.438544139158628,10.26832891210561,3.321880098379655,5.545113959796762
-1.0801983120267225,-0.9249192801129356,5.421287759444839,0.6033714536723817,3.9499638343732535,-0.816343119758625,6.897555929139973,1.4241469753518814,0.9103230529928849,1.9471549573963465,1.950222567826852,7.936320624079997,-2.438363418323096,4.570734930957258
-3.48670690306829,-6.00981359998742,1.3704057000211691,1.4238198217709352,4.313589893356731,-1.25841423364434,8.111315866498582,1.1738066425603044,1.1422347543598388,1.6071255930781732,-3.158167963429752,3.891024360942992,-4.6257149702156966,4.357413884243574
-3.742239089547027,-8.303562239301508,-0.7674140713412011,0.937169779930482,3.6836642082605806,-0.8280073109810048,7.5136410883145714,1.2955230068201011,1.4776616301926542,0.8978677070695689,-4.809580649568193,1.8573052469908355,-2.339063779762249,4.621817517044761
-3.406775975621128,-5.67855547909405,-1.769708269525573,-1.7943762579824467,1.9305434054978607,-0.678437763575293,4.901634295931878,1.4915342384585806,1.5366275939397522,-0.6382540958143501,-2.0926212195925205,1.5327676776194492,1.898080535709617,3.57028177275004
-2.531525832488675,-3.562957084631265,-2.4431857588869623,-3.7154287187943495,-0.8137711644956482,0.1422179796601912,1.5072478932291205,1.4740819304432833,-0.735276477829654,-2.933547287725691,-2.753284646111761,0.7267780853993718,3.6579263557305737,-0.3659979368125228
-2.283081761234491,0.1015174316120955,-2.129670458604738,-5.4268490270006495,-3.6902372521304407,1.7977496240652329,-0.9443560639296288,1.0447556435187266,-5.616853689174205,-4.991241149000576,-5.963865266308152,0.1024149527680322,0.0589755908974591,-6.441625205852198
-3.021018580962538,3.2720852595237995,-2.270473806773785,-5.6627773955382485,-5.279451850907897,2.2015612797283315,-1.4812110832352872,0.1633764442083887,-7.804855789948471,-5.448197052724954,-7.628517426903511,-1.0772465894533416,-7.647598697707776,-11.520789617609012
-2.225968179323189,2.786659019294965,-2.900811141545135,-3.82099072078663,-4.667406466531967,1.9565994733181813,-0.494807986102634,-0.9956811514958144,-7.506646550300159,-3.702262158582727,-8.986232904976353,-3.1387824966245965,-14.756731165112388,-12.510956950826872
0.6714026790306733,3.216034922454002,-1.7400183270792,-1.5598244193180977,-2.49018444766491,2.1498515499538424,0.7185793975967396,-2.0291357357407094,-4.73077382964099,-0.5566932380534055,-8.799204694226272,-4.806469135469808,-16.735112284968658,-9.169494274753982
5.478783863418384,2.8182627175939263,1.0522212776013724,1.6212262970765,-0.7364248364110253,1.2684971034878696,1.070834715153003,-2.418643822465331,1.8796008985277364,2.2356292619821065,-6.458737771097671,-6.311630666993343,-12.830599295286245,-4.535314216911038
7.82288017842242,0.64029150507014,2.3940383280592,2.6254323572435965,-1.1934064162099531,0.3632548465718202,0.5110255068777345,-1.8412748359023825,2.763027143649978,3.12972772265734,-7.478705460751795,-8.163826008109146,-6.601814323917962,-2.409576617863284
4.84994505152696,-0.4800398165873386,2.515782091197105,0.9816460187601702,-3.857282657196317,-0.2513675371320208,-0.1184076983023372,-0.5589361886507973,-2.3027580857979912,1.70206499360636,-11.788997539198014,-10.204318301271677,-2.9194384117575254,-4.130644102157566
0.7373007823239376,-1.0889749394178063,2.5408172325871514,-0.2421338690535142,-6.832219038052258,-2.0575018576588024,-0.0347206228320944,0.4700708405582015,-7.684416130619482,-1.2655774341408854,-13.27425917072551,-11.11116439612313,-4.000328303840659,-7.548076471986466
-4.441893131309275,-2.07304584656683,1.8436137296842443,-1.8451630528643168,-7.910862311207895,-3.9110916545866137,0.6261140106788732,0.0728055598588861,-15.55068630219152,-4.371390488991242,-12.784981252525798,-10.811454036784523,-7.792781307214478,-9.002551173431257
-6.666119152651574,-1.9596686813178523,1.6481290582913342,-1.8409347092599515,-6.443903553797883,-4.378685539611875,0.8879360054199106,-2.213604759497894,-16.51112897761308,-6.3169265319703305,-10.422972046162744,-9.661018391173698,-9.941788593768226,-6.4002800979159495
-3.5386774044401608,-1.208146655087372,2.0495509441034008,0.3588065202283588,-3.828302942030157,-3.8773026348403694,-0.063444836661143,-5.473259486998255,-9.26482210583894,-6.406282392377637,-4.963751917798043,-7.276482362699825,-7.5147542961098015,-0.7045369978215614
-1.1020876034016025,-0.8176697292586315,2.006418585131093,2.219705801595962,-2.2206602807787794,-2.773758166630455,-1.8814481907166332,-7.729498804473233,-3.810459071197263,-4.747562781171499,-1.972323088676159,-5.290576298826089,-1.300404879775359,5.153764273143798
1.2147240039297158,1.891538798159905,1.78065537245174,4.337316682626204,-2.6717097285614413,-0.5654395155961907,-3.09237391216704,-7.263127293781376,2.101205494889576,-2.1615757878998973,-1.390842243500491,-3.7492486414086175,5.110531937336653,8.654619742998978
2.572210164619165,4.433548297851742,1.9775039652720872,5.339289778477514,-4.32197617194259,0.8135258933324391,-2.3044608173510666,-4.010402621844332,4.800854456492554,0.225160588007254,1.1700713653426216,-1.2587082154204463,8.420610636787822,9.262923390284826
1.5217024982030023,3.80696744095201,2.520650123984184,4.739607536755948,-5.282113001416849,1.186917296163583,0.4009144003711714,0.1534671631655162,2.4464732974512176,1.5936199287741135,4.689245999410082,1.8575740816345032,8.104454159474432,8.197247272676721
2.119980804053238,1.819470302554192,2.789917436159917,4.067937779431457,-4.336788680758,2.405199943193821,3.213916675796012,2.6609945136596966,3.39799476244052,1.900714009599136,9.629732692349062,5.681671543574428,6.272985972159951,7.047229653399624
3.252083983882905,-3.336735584241553,2.859907261088793,2.8466680624250507,-1.95791978361438,3.157690171109345,3.900359586940931,2.1797798923785603,6.538715670385685,1.835755392647282,16.69170159658266,10.426718924279877,5.399932790595148,6.6021782668251
2.414777520345987,-7.51680559983358,2.064276732922994,2.908822473530273,0.2134816491030142,3.685898076159306,1.672233771003885,-0.2998600442744639,8.223658573895916,2.25716532226431,18.43435842625105,10.980256845342236,6.199199236546754,6.692842828330886
0.5143473406694157,-5.669606279623608,0.1993698445771218,4.577753895062766,0.9091732526642904,4.594307101084143,-2.02142884661387,-2.1680907347063663,9.702944439293276,3.5453164836391298,14.574162133521696,6.945771234808543,7.489654125455578,6.816174059075944
-1.8793127351770276,-1.2043205822103973,-1.2554807567761284,6.824028882454046,0.413994187038849,4.694933025972423,-4.605260992163778,-1.2316707326847325,10.394931262620055,5.3755774617268575,11.482296546483363,3.537117413942397,7.800482280262301,6.766364077112927
-4.328023845478435,5.203497913969723,-2.4477912888799507,10.218729740259189,0.3146552626370749,4.614877220727051,-4.524282003989001,2.487888117252977,9.87809217330308,7.022643259849604,7.596157502998804,-0.360624111781457,6.897076849733571,6.719940153929217
-3.542866514845521,8.571301094850197,-3.003583792552265,10.894557720952047,1.980516859709399,4.365611967015778,-2.5274209385167854,6.647939370517976,10.188567091897934,7.853936482239122,6.732186228411173,-0.5914577377802025,5.794690539541263,6.844789817335327
-0.0561649497329782,4.7175743389253615,-2.5625646172388548,8.505028900534104,5.07078042376598,3.1600758011444414,-0.859693556639753,8.32972371409523,11.1897464125696,7.601341213150958,10.16758419258825,4.081998272533587,5.53894030577179,6.937439327218726
1.3376197489201216,-0.5605799577339499,-2.8345282165741983,4.649949376991801,7.429877548187428,1.627418315123507,-1.039974908435746,6.323727213079059,9.655908787405464,6.332253126238112,10.468585922001388,6.155527496314479,6.183117449454203,6.50831049548726
2.50434668458301,-5.486538226942379,-3.691775817207131,-1.763039616489113,6.621202672225005,-0.4082118191315613,-2.304471941663574,2.1623793873110166,5.729339323747519,4.343222570710703,8.597983373785722,6.677878249414782,6.913414629952942,5.240570921990547
2.35168129134968,-6.71331034679246,-4.896592605706162,-6.12160348893361,1.9442383360622169,-2.158189465133132,-2.292601575617838,-0.9737805180504157,2.273984166953219,2.1300518474020755,6.198401337529315,5.403975516248533,6.928962579928726,3.322340045821768
0.4707492198646488,-2.0410224403142623,-6.815105778771786,-8.140812037791036,-4.728857508544942,-2.765981189454468,0.5303720516485777,-0.7033375579075054,-1.246074922554104,0.3022044989466712,1.959859588641799,0.8569492824278037,6.018088851865704,1.2345658904031644
1.2081826171725814,1.2551963399368802,-8.667150720089557,-9.68561316113705,-10.07549949849644,-3.479450805098963,4.9731095124572935,2.6331747922382984,-3.2667611044180656,-0.7398630013036875,-1.298742948104254,-2.62832146892331,4.357657700898875,-0.8415641774353668
0.8078395808295235,2.944775060794887,-10.50862921124653,-9.540866450530888,-11.590919196504712,-3.963732352285439,7.679295841062493,6.11981214019884,-3.122177157044079,-1.2004936485596982,-3.5289462197308703,-5.468507591899097,2.0299560273055537,-3.3216395255980884
-0.8808689029674244,3.234832465167507,-10.787081158455406,-9.138789758659575,-9.225945726477356,-3.932087452304041,5.8653527795548,6.453860223662203,-3.2268790535890526,-1.8701556823206245,-5.101142987853503,-7.211178908364851,-1.0340956831622918,-6.716172716463796
-1.66688420416323,0.6767366964081206,-9.172414195997804,-8.444218905364359,-5.135227183235491,-4.016678784332881,-0.1403056628480428,2.529883736784876,-3.035177973357174,-3.4430513609252573,-5.294714348224507,-6.89838923705139,-4.6341808946258425,-10.65027820728095
-3.966654834970934,0.1796581033282541,-6.846714459436102,-8.433612847237825,-1.8507190926800077,-3.583411094192217,-6.873073346788461,-3.5920610844786527,-3.988104429912524,-5.649662188153219,-5.874583749692369,-6.65684169199842,-8.003302311705148,-13.42062105738141
-4.31234924618345,0.2359871833462707,-3.310134188054313,-9.533602397740394,-0.4694343203937769,-2.445479465531782,-10.317790310375798,-8.115849897487442,-6.569981605197169,-7.126790678714177,-6.713177869123723,-6.051246402375473,-10.128392148003654,-12.845183574683071
-1.76688006524616,-0.6718728756146228,-0.4249557986674349,-8.634449276325713,-0.3125579257844393,-1.8797087423431376,-8.87565898418798,-8.244998437772242,-7.363293228966526,-6.43735887475193,-6.545870156474584,-3.926665965518363,-10.474727940988515,-8.002565286912663
-0.0434463364311352,-0.6587703572075596,1.5855436817372806,-5.931894202861732,-0.1256424875241597,-1.805771548088512,-4.224102386579827,-4.129245422856727,-6.67194135340461,-3.5029117985907714,-5.632059472097716,-0.4689361103489638,-9.39430197166478,-0.4272115008500829
2.266333541264692,-0.9925136027003556,4.457596135859162,-1.1358878119539184,0.4639788190677079,-1.3388281829109858,0.4314083317475772,1.393599529751172,-5.313262364870596,-0.0781684357233665,-3.543063937179554,2.970904175611641,-7.7498014508486595,6.484449438382196
3.996292049874594,-0.4070104196852659,7.742756609783681,6.525176410066185,0.6189555065143519,-1.285060635781181,2.9222824459518595,4.908961248417906,-2.607572249939017,1.401207397701084,-0.0218085354745726,6.492057435060956,-6.067240134130184,9.671014654968465
2.5158495719507625,1.002200557285555,7.904112233340685,7.907349963919866,-0.6940576859620888,-1.4002529604759335,3.2361563024135886,4.669229167006886,-2.250789407189457,-0.2430021821696666,0.5567397429001694,5.495090949325308,-4.082153599496319,8.539841121553769
0.6390862410364243,1.107334289604686,4.798991422789827,2.5819283278748304,-3.420823241184923,-1.106506884548048,2.5614423595396456,1.3601329274985376,-4.47912881756453,-3.901021070795476,-2.0027087721871584,-0.8246762314826136,-1.264068854247277,5.249448298240952
-0.2529719819432209,0.2475167132609569,0.5694079526894494,-2.780079149475012,-6.139066646960157,-1.3065282393162163,1.6287831434952986,-2.866142117627903,-4.479074955768464,-7.015528716187297,-3.946645472330462,-5.217107747424272,2.076675440114304,2.835000709317529
-1.9135569106545616,-1.514066108569276,-5.659093131336819,-10.268056329717703,-7.049944985190353,-1.76894926101869,0.1522422201261033,-6.018593170156412,-2.8961964607793758,-7.584194802021549,-6.216479089879528,-8.681532817554292,4.292945686709288,2.724521821744407
-2.4538747503485228,-2.6326072912716763,-8.034988079418591,-12.375808447082068,-5.333907831131785,-1.3450098511027568,-2.2216414023761057,-7.257766341183306,-1.2354715338431788,-5.599453933527242,-6.764038138028951,-9.274488754917488,3.387622050805966,3.740423261061228
-1.3339277332074602,-1.5719411585180658,-5.859925079164058,-7.6692879353023935,-1.6994844222637635,-0.6191464364231485,-4.736136493449124,-6.801992910020692,1.3204595913650568,-2.795518778080572,-4.870658175599385,-5.367527638353614,-1.056267232190864,3.374782723857658
-1.937448780863154,0.2350160521102457,-4.516035710623564,-5.278301046333283,2.2391647949230995,-0.0593817963696347,-5.647271267320252,-5.277378028947635,1.39742223526972,-1.118373715554542,-4.5342293969684935,-4.367819454130751,-6.788983644504434,0.1269347964478111
-1.4513964597006686,2.1097235037235214,-2.5565126190128997,-3.313564649334224,5.101365891613264,1.307575547809555,-3.779417835885756,-3.271794756507088,-1.337922126483818,-1.3302378682451743,-5.224693117990799,-5.609408052133161,-10.063727341251312,-5.179728738756549
1.0547006384646536,2.593750227459009,-1.8203400731012225,-2.213655448229066,6.435709157529329,1.6122560026605215,-0.0261695439990594,-1.333600266192894,-2.5620437203664603,-2.7805146994845003,-5.748400955173076,-5.245505407535958,-8.480568263677538,-10.15671967510577
2.5411305535638538,1.0234527783209515,-3.150476343297643,-3.443290181548541,6.580236006688118,0.1536422801149281,2.862926990576552,-0.0772442663556143,-2.929680943522195,-4.203968010971696,-6.7694697928540855,-4.504885530607606,-3.118002361608286,-12.840411305007413
4.374268229556131,-0.1724895391821543,-3.3959571577820835,-2.9050148420556705,6.072362225863321,-0.8902173025848317,2.3422331399104337,-0.0192169642899733,-2.961253981702293,-4.660020064530343,-7.271300171090625,-3.3307267283888278,2.0864356351394315,-13.09133242709468
6.012052475679184,-0.6883769297737502,-3.162930762197984,-1.0486654740959194,5.241910324211453,-2.951683184476256,-1.71377599087556,-1.197810906863511,-1.885314923173126,-3.9438848809963223,-7.168537599734706,-1.3074268174742258,3.3272242951243456,-12.334958078546734
4.6827626642073685,-0.3555452019871002,-2.7151171414644724,0.3957315546493096,4.2368332190371785,-4.550541132630428,-6.679599202519583,-2.984089098939131,-2.1585567258426286,-2.472074755338634,-7.378050203500235,-2.0423382302177955,-0.2667610900836541,-12.158884316014657
1.904361280799792,0.7120729612024607,-1.5795565361171642,2.076469175324917,3.2239721405499377,-3.3849214143879784,-9.20192146696769,-4.3723532842087,-3.770086682965732,-0.9784219625190684,-7.6906860438305396,-5.710311343060053,-6.322653007353546,-13.117262405577122
-0.6627836889687917,0.3622484422275153,-1.0028819397663675,3.311914561148904,2.4211058909987107,-2.552006651451733,-7.916514209689064,-4.590796713008883,-4.644215488564567,-0.1853881111022737,-8.131497565127347,-7.003965020216567,-11.326584018760531,-14.578531315238244
-5.80236399393905,-1.0467330562598405,-0.9455850160110628,3.895276852183865,1.9427525536911872,-1.4111505243786573,-4.488831872876466,-3.5677364731391696,-5.215270990545848,-0.4310189578674466,-8.837248267676541,-6.470319506307419,-13.032154047719748,-15.381817182481116
-9.18849704250762,-2.29306031184435,-0.2731769784462945,4.759686960071938,1.7280537475571571,0.3890014256696421,-2.0524826289179328,-1.9155595753090424,-4.840209990333552,-1.37166045447111,-8.570038423930278,-4.8534573229977145,-11.330019127331536,-14.577242693743578
-7.331010493578957,-2.6291077366511737,0.8254318280543507,5.721716835004728,1.7003131674255174,0.3854550631603246,-2.440898960738329,-0.4974870886632165,-3.117333971797374,-2.0881332009725693,-7.277862009296069,-1.0600248243292885,-7.602961926732274,-11.84745564178336
-4.48180414743497,-1.075693900759386,3.4136564159724894,8.075494796681621,1.9534921095128477,0.556928219133838,-4.668406798692868,0.0762694452088093,-2.143929023926256,-1.7209809428901073,-4.4695289367799385,1.4897914395686973,-3.787878256371185,-7.64956092684189
2.5756814274297506,1.1838099517168723,7.813522470505469,12.10206284874632,2.660081154869757,1.6371625529167917,-5.943591045047437,-0.2757863587396905,-1.7462241171314072,-0.2023339590001778,0.2764116615402862,2.8334689047701844,-1.8010642162809605,-3.121561174144423
8.742568898093554,2.2393624348914405,9.834229754455244,13.62883548297813,3.735971209821946,1.377653995104425,-4.208384188399247,-1.129457299414395,-0.9316580711437548,1.6208476808162422,3.565232108007168,4.808269580467828,-2.885787510765088,0.3914776818958687
6.376132220139436,1.288578640874137,9.517923228299011,12.74147977206074,4.681567061239991,0.8396498059091777,0.0778331969349155,-1.7915230945572334,-0.069262104847205,2.698266083868475,5.428162114404203,6.71480698712632,-6.5588943949974166,2.1550536049868736
2.334581235954754,-0.9847436334521044,8.473902057375977,10.26836125684518,4.914332517469357,0.5599950762024872,4.3640177259121735,-1.6581654609749443,1.365661528155216,2.712826580051544,5.742371815098774,8.015840323525321,-10.0479892367181,2.6657572958039
-3.499798026029628,-2.9532009894916,5.730157516600255,5.1851389163610255,4.3409617650706025,-1.1826229452986277,6.090820745216658,-0.5848477625833135,3.503290658124008,2.3409941268827628,3.5793958930786083,8.774695949610448,-9.525356663488422,3.411039679740952
-7.652012018402049,-2.691272489462265,5.235036439007787,3.5211568867004432,3.5347064581744423,-1.763952281932321,4.583079331526035,0.9373016199493605,4.925008527453507,2.583030629695481,4.47371914896686,9.49789113521449,-2.9249178663618416,5.773136174427368
-3.4746688006138085,0.2314795759291086,7.294305384992648,5.549301314520375,3.220392927925479,-0.6989685307196755,1.3234990960933275,2.0240236167078915,5.689365296138942,3.845176700819137,8.43243381248096,10.09068518760198,7.928728548338116,9.966749831773647
1.9692487567466863,3.963815261728692,8.223547807946513,6.634025954043887,3.5400260822380334,-0.390249664481772,-1.331044548021474,2.029231437105171,7.270096099060053,5.679470084652618,13.699836028247187,11.898872826538986,18.18939125013273,14.971695655765672
5.893573228051937,7.622824073128997,8.881638384419077,8.099353909404588,3.896068521095332,1.1093547201857603,-1.7990691196912554,1.1312778975192426,9.460019962106845,7.357605948712238,21.610270058845757,15.152055328756395,23.57079151989389,19.463399360498475
6.355193205477363,7.99696718087591,8.155718972585095,7.106755310384261,3.5924282746002656,1.8710534718635548,-0.1137889437407384,0.3242839261306509,10.294304789656168,8.585600234665575,23.649264923888115,15.456874169869137,23.561388708833167,22.734088456973115
1.5157180432061894,4.276072957227127,5.400804968033899,2.8303807667175307,2.592011488416511,0.5904464600653949,2.402770287245201,0.700219864154592,9.868968349250837,9.596234938338558,19.208871955732988,12.86551780175368,21.268352209258413,24.67861194049678
-2.616972668146458,-0.5071739687040667,3.4153756372938058,-0.0032796322613709,1.5174484697448305,0.1138990956345541,4.181681601231661,2.5641849232730767,8.15737076421885,10.60806762544962,15.045171847958152,9.878008229714784,20.06429588514924,25.04191507050994
-4.3753237303714885,-6.958829876290612,1.8467162176916636,-2.114701123009509,0.8353761275867706,-1.2385524910220762,4.411461128862481,5.142731414665002,4.650403701748568,11.33510159856568,9.17791105172599,5.55863146653445,20.37232276321949,23.03105630218161
-2.7023908219920383,-9.839748863099755,0.7031655881069016,-3.14068750177673,0.1301584374102167,-2.018463078114701,3.418206201426929,7.135083714130559,2.497031382684476,11.116502920072032,6.066271400420496,3.0585458975553457,19.753758624628407,17.997210700056776
1.3779991928846989,-6.614779918255272,0.5403801781017689,-2.1658611018417404,-1.6052347832362297,-0.7146259152006244,2.263310779631241,7.60571600858172,1.7279581716362162,9.511936582031456,6.908544801312375,2.872681848516298,16.032653340038365,10.578801898157344
2.2190273302522034,-3.4378752245492,-0.1370258576828011,-2.182343125107898,-4.7746871186601645,0.0037439714971591,1.889108532969626,6.48220909870393,0.4455700993488581,6.729498489905561,3.779286612187882,0.2210450934953551,10.035150987990736,2.9557313717024254
1.9783551329715208,1.2821268508573604,-1.1799495155739292,-2.907226868225919,-8.242263254897155,1.53155019002681,2.4567334565909125,4.399778507840669,-0.6673385213544722,3.5060264005242687,-2.293097047159023,-4.264502285064267,4.96280336870444,-2.3735283143875003
1.1319839564405294,4.620599312755049,-1.6456293085281124,-2.850484905088314,-9.749832516052887,2.9304066482396176,3.388910399026332,2.2431370705814557,-1.1596638104641197,0.6608552019028213,-4.988780219807217,-6.1937381000789,3.035566747073888,-4.340403644368677
-0.4237367987802345,2.663409217329111,-1.746234591161287,-2.495282480395559,-7.586598363063989,2.961473074677724,4.051543537244605,0.8275853934867952,-1.126867953702578,-1.2237061216275773,-5.240551559814528,-6.073545420858885,3.0201686262787644,-3.9668444805231866
1.3079380166502288,2.048873404496933,-1.749174554492764,-1.4137606755589918,-2.1911879299702046,3.796100937175458,4.426225749906623,0.7583371059886357,-0.2763454742288352,-1.8640022112049763,-2.8604825739194544,-4.328724176067459,1.4041689932590744,-3.30952276934065
2.1044847588429034,1.8417023576685985,-1.5314558888218328,0.5938728341523979,3.7178139032706974,4.305037876657868,5.101901475190075,2.2227333304947607,1.525626163371172,-1.3161015612322498,3.4602762764570105,-0.0305351039089696,-3.8700357776777583,-3.707653903676096
0.2877669322628311,0.044171708718062,-2.241366553470548,0.563845128765481,6.748336368013074,4.59272600658427,6.54562687572697,4.689802014092611,1.5078243322941307,-0.1433504090194044,3.875174085740361,0.480732984511013,-10.974144420500386,-4.961676553569786
-2.092305594340445,-0.4535679339121121,-4.011785441992099,-1.5970716768556097,5.05942211023954,5.410552626367996,8.341217393860111,6.876242800585199,-0.4609772006446696,0.5524076477168758,-1.8729793888082176,-3.0604176973282224,-15.658323423169932,-6.044757905571062
-6.60210101432512,-1.4347702590141278,-5.388669466440066,-3.5458755108336937,-0.4011408434980446,5.522544047367361,9.201474079217322,7.301589317091398,-3.329329225694579,-0.386502130767286,-7.962851336432471,-5.681812078701723,-15.180750423718438,-6.409764254133492
-9.971770923349862,-3.609658440647564,-6.614844448618047,-5.917414257237454,-6.50479467493232,5.681467561293835,7.901678419935144,5.2180242642431,-7.835676318230232,-3.278648982096524,-16.64599600314387,-8.76030061387457,-10.74225507323444,-6.480741382118432
-8.09764539141446,-3.3386681340329414,-5.5805512419062735,-6.11317596962148,-9.914469442252129,5.824804201353682,4.424459837333673,1.2448959328730052,-8.785313188010276,-7.020405635145534,-17.696138308274094,-7.755905406461507,-6.070626526506107,-6.899866519834398
-3.01962126462494,-1.0873897405799076,-1.8050317906460027,-3.574291407231397,-9.037714632607493,5.276214554508105,0.3173700259867367,-2.8224454789448017,-5.775557755218986,-9.536182924112222,-9.722384539229216,-1.602930165698995,-3.7839701300364874,-7.428945413417892
2.4852948852748984,-0.2398486779436607,2.1789084867220376,-1.8481658825038685,-4.710557461349492,4.895135669665644,-2.1707846067944767,-4.947866235440879,-1.128228550886042,-9.16602824419707,-0.6256970887686332,4.245712714336778,-3.291387258944912,-6.734301584737144
7.942342477258942,0.9631043685429528,6.965870490894592,-0.2809062048204445,0.6695088156990743,4.166669661235211,-1.628294649780277,-3.959552674189592,6.571718421216567,-5.9664779323429125,12.341244925835722,11.047746038262032,-2.135833350325446,-3.395211969615968
8.658173752234095,1.4979270810485852,8.82914492362115,1.0418959222264126,4.7970189442364415,2.93722536153605,1.444903906522267,-0.2250189192461147,9.57839930201156,-1.8097962942357744,17.04311197331472,13.009541729271886,0.9767932768603936,2.6816829908507183
5.173953112665454,0.8435401443095576,7.035323231886154,1.5141929112821109,6.7186686441666215,2.1448382348548307,4.881068058282633,4.423436693189385,7.268271675880002,0.8913787498295593,11.643585333112808,8.77027019828553,4.739382836138863,9.647372453831371
4.965233837486809,3.674492234598969,5.970675051298563,4.088444259399648,6.948965994219808,0.9683095318002888,6.284845630470788,7.525126407282388,4.851975494695004,0.8456326895730457,6.377925818226792,5.110062270624677,6.662882697023671,14.496630732351512
5.594753364869378,7.908544114537019,4.649530870770066,8.728952610967632,6.571180292459649,-0.6895599062383887,4.629799653435144,7.294762440417164,0.4007709091748215,-1.3692040711805566,-2.0280891493925584,0.3820595347216951,5.544626389967124,14.830374662428811
5.193264541548514,8.995788436543199,3.0592396330936493,9.314045793573422,6.150791094806884,-1.4258428810388146,0.8447465385346444,3.739313381167864,-1.7520785257159277,-3.9631429272739847,-6.215669909753224,-3.0520892174467,2.3880154670850837,10.439172024128574
3.798958819147784,5.958262666245408,1.8339837964665655,5.994233386827652,5.329290287686492,-2.134074394090447,-2.9871317507108017,-1.2187570223099446,-0.8264391987482606,-5.330450924987055,-4.505832797474556,-4.047728901466712,-0.8067574665912476,3.5607785735532413
-2.184156567313131,-0.9658258481498871,-0.8853456845929578,0.4290851350426418,3.364034201644827,-3.1244201346374494,-5.12813196372497,-4.941028030783131,-1.293198974054317,-5.048533898102582,-4.283704605732943,-6.687701142115151,-2.7142955258616217,-2.5271221519868403
-9.867812917411058,-9.921249434537268,-4.977306991084572,-8.844948824669647,0.1020119778253083,-3.098509922272112,-5.220592349148991,-5.903656822436794,-2.039838623462807,-3.861539336443701,-3.43660915375494,-10.152181485118236,-3.12920664531391,-5.7053980617810245
-12.12474112173886,-13.676989352668834,-6.099998964103717,-12.364900120169793,-3.486563264543509,-3.3054545635360184,-4.173376018847188,-4.745983423058844,-2.108158051538627,-2.92395945602293,-2.531087920356822,-10.635201930092002,-2.31314662224535,-6.3582485057477935
-8.257842801421262,-9.527575859883816,-4.229986335126639,-9.51861860605271,-5.741380642212937,-3.5000158327652984,-3.188015212355209,-3.5749497250373623,-1.9842723508843183,-3.0123059622365598,-2.416560383833822,-8.370979714036965,-0.5879289484597134,-6.704990664482596
-3.142123222854993,-3.910049543621645,-3.051511508867788,-7.202152102070098,-5.43836971513835,-2.45924784420732,-2.8258498304462663,-4.025466314307855,-1.9709215690311248,-4.169057555009125,-2.198988640870457,-6.870785985656911,1.2371644393154035,-8.591332919695162
2.072834526886576,1.8633607287804133,-1.7059212515542328,-3.186924478907811,-2.7411177287601425,-1.715009654604792,-2.8130855816718467,-5.761488532749086,-2.0563379374275423,-5.766368824765901,-2.332664943072922,-5.523440805621855,1.5351309891696576,-11.669816841122213
3.980228460091992,4.76970867251688,-1.617040167647491,-2.3486295166051465,0.7769779968806519,-1.6206690266452812,-2.557862755008524,-6.798556636232392,-1.6623572620409302,-6.781541668372786,-2.113437241666386,-4.125625983308121,-1.2697690773384638,-13.677932645755002
1.9268613137694424,2.7547963483988624,-3.474925776761592,-5.82590522414031,3.073138276263327,-1.4713515210853865,-1.800133549058491,-5.392894014938568,-0.8301078990948034,-6.198567549562281,-1.5160092252753037,-3.3043498717154383,-7.026964472884663,-12.590572946278408
1.276494909051329,0.950022469708501,-3.245162414881314,-7.532824458051539,2.855080086916077,-1.919515603103533,-0.8494177539149237,-1.7762366613601763,2.125336298924015,-3.5273826321090644,-0.1204817178499079,0.7298593953335643,-13.112515239753613,-8.567312041759617
2.0014502759567776,0.6021491532774006,-1.2662641381829485,-8.75862182436513,0.2566265600848521,-2.7259794701726614,-0.3132373563573107,1.8701591934785449,7.5168029245832,0.7438008359821073,2.307576395519797,8.094647206052093,-15.795587253501928,-3.791540982548106
2.4019070530748072,0.9359111700035236,-0.8323483899831648,-8.999252197898235,-3.385371015385816,-2.790173925775263,-0.6193359515701298,3.19700078562417,9.020543699572212,5.148964174804087,2.4424519805561404,10.145528694330686,-12.899122311978656,-0.4461090956289446
2.369560082312755,2.3938094214697943,-1.374688554501882,-7.2819684929577155,-6.383273241155231,-3.2366095743127725,-1.7024288000117729,1.62248620620827,6.635188286180194,7.929713862857183,0.1945724514979681,7.094807843519956,-5.558242753623469,1.0196136396124929
1.7769933995138072,4.630766750343122,-3.165609857785681,-6.511157486522607,-7.590796789554171,-4.189561743428815,-3.0305253448714,-1.2836907367450472,2.957682857257544,8.105576785675265,-1.5908637863685249,3.4701102195638622,2.4458827250195774,1.583921122106214
0.5244526501031784,6.054528065031961,-6.849126789358365,-6.348783871230407,-6.850546664271361,-4.575995746249768,-3.9172721242831017,-3.2306102837792263,-3.5063567700044698,6.170974926639667,-3.5949441225410617,-2.562846560159501,7.261450072207292,1.8777218096007624
0.0981711560629495,5.307452989097384,-8.903752218304495,-7.011129689011797,-4.849913778204208,-4.990448543461149,-3.933043857256639,-3.1026829716510216,-5.849610333945169,3.799129637675842,-4.021094908077761,-5.6665037624561165,7.445185582214083,1.1633124085056066
0.4373241111605025,2.1338860612300965,-9.384606805202328,-9.098282331289152,-2.583676795782978,-4.652494493608318,-3.1923337970069707,-1.6742848330587865,-3.484401881747253,2.6759444062652684,-2.278211064204076,-5.0567793024581125,4.5832893876789305,-1.6274396400230031
-0.4032904063535993,-2.008094236666375,-9.261350973176611,-9.798953274560828,-0.8203337505813,-3.3777607416654254,-2.3370427597547563,-0.6796261874962806,-2.115556516914799,3.3269506449319683,-2.037550117548352,-7.058961062710253,1.8023678523082909,-5.997185624868561
-1.5189138438201524,-5.690490284124791,-7.706248927011298,-9.211190419293487,0.0808163592725716,-2.328263145925728,-2.1726605024471937,-1.2504115741541906,-0.1247216062056256,4.845200037730945,-2.866841531855693,-10.46286771711808,1.3736957885617045,-9.547396873431802
-2.123055955006343,-6.081875607831374,-7.12267518746045,-8.698538069964592,-0.0280772007777979,-1.3263966160365317,-3.122332351046992,-3.1199535262412628,0.6313984971873584,5.692766647679836,-3.64223172085974,-11.200628039419744,3.073170553775429,-10.012190094283552
-2.0517433590985164,-3.25878873650355,-7.560681247772607,-7.695643573479039,-1.3192229713469863,-0.5777201066841567,-4.824900228423294,-5.073755580464596,-0.6898231114889756,4.876748603945726,-5.004963833511825,-9.902988314162949,4.367594776276387,-7.70124521636745
-1.1797296850216044,-2.8500218468099257,-9.440754986717977,-9.52834525849556,-3.8609821892438583,-0.0983915577102324,-6.182996113386823,-5.9529834383348685,-0.8840116145112175,2.5749890973328817,-5.963557595854553,-8.336476694745448,2.330757984719344,-5.602805887202154
-1.1453862547925422,-5.039218989664288,-13.471360342603427,-14.603842769289349,-7.141122749200605,0.7298216971390592,-5.928448990171916,-5.252706815397144,-0.5487121981604967,-0.1436587269272695,-6.4462905647803,-5.844995873071887,-3.9336102639650936,-6.670703286420016
-1.8865109024720992,-7.091050039450664,-13.391557243823586,-14.543669933563914,-9.790584653735,1.0595295167426335,-3.436772439109637,-3.074331899579838,-0.7677621820399295,-2.0982926480779445,-6.540921615770695,-4.527701775105204,-12.06948925516956,-10.850695483545795
-1.800911308375119,-6.458212286963063,-9.08130639610039,-9.62533257721743,-10.088516691342702,0.6893596580229546,0.7060412801642292,0.0849660332204039,-1.132701618038287,-2.6275842234342988,-5.966731820994596,-4.751411159577631,-17.563349461028146,-14.885881212985502
-0.7053362636565185,-0.1912990587211757,-2.5860967694213253,-1.0107760594922923,-7.1585279043982055,0.1876533899473148,4.824967628900829,3.3216199827892328,-1.217411783875556,-1.7869788451138584,-4.551817784578658,-1.9403733682606408,-16.735750172992667,-15.219989806458855
2.781634232834705,10.209526833715508,7.677067147510852,13.355529306608638,-1.9471168974803923,-1.07043949894138,7.027480018122352,5.35657826881352,-1.0768321530514469,-0.2467050126843228,-2.1397197602929388,3.608065794450249,-9.64458843981862,-11.18129939845224
6.035146064577637,16.039072911821638,11.473366784070947,19.797847450210124,3.0185459764842664,-1.8298292374626053,6.363944230206757,5.085813902588228,-1.8612746100066804,0.9479217214538528,-0.3766827866584318,5.460723927480071,-0.5989465782406604,-5.366793119364414
5.30073306511334,12.33491559918792,8.083432169668471,17.741886363597512,5.1998689831445,-1.8218003868085575,3.499479975396885,2.497221730643743,-3.5820604348882603,0.7962467915490915,0.7182493147615908,4.053539662680447,4.519442587396232,-1.0157585965850435
2.4003859007645385,3.909729448327405,5.426334057539307,15.71591379326978,3.8609925653588064,-2.2969197722754817,0.3373641587293126,-0.9366597469659834,-6.3331694200276205,-1.0555163519221569,1.6770754266108516,1.772055898344154,2.479732582694284,0.8725203847675296
-2.488173118206212,-6.330144081483,1.1064553925120462,10.525510108060462,0.6664751727253576,-2.268444587231151,-1.2446137456906878,-3.075888205923071,-10.456192479799512,-3.893052754175008,2.0887315015061887,-2.709249947676639,-4.675519832358582,1.9014292721892987
-6.019915366472116,-11.218133366548484,0.0280212743368749,10.032781739362004,-1.519174077321751,-2.1140874260858067,-0.6510565537684347,-2.6738626143561035,-11.25263874602753,-6.219646461250833,2.20584623902882,-3.320053498495964,-10.852894859129004,4.111090578383884
-4.860559291032246,-6.890195693516598,3.519604206801016,15.592873647867826,-0.7573442366151877,-1.9751738988535943,1.152020207319543,-0.3188871770001353,-8.460610373703869,-6.783575823469574,1.9684546284109616,0.4982431714428256,-10.332398044125542,7.774398510768774
-1.0544812336850744,-0.3679203591251239,4.512597914830854,18.33319555887189,2.5740365265290697,-0.9610806915784746,2.545416272642388,2.157093399978688,-5.4287504338061865,-5.581192002489827,1.696218075412181,2.688125957706041,-2.0960543018242817,11.330006936849914
3.3538372722299243,4.476061602947027,4.303740140827109,20.1735907337797,6.196406434482183,0.0524611143108786,2.5529579477530486,3.259031390472215,-1.049051064982684,-3.865089177592843,1.4398526237345055,4.587853773988783,9.343289116346828,13.12124268498993
4.966198445065335,4.812411771544346,3.4587638048673366,18.993937738243737,7.748389499049502,0.3978310520280443,1.3986754110603263,2.8940378575450967,0.4976699850106102,-3.0097951970307437,1.5254316305294129,4.687389792841454,17.287843835406818,12.81573815853351
2.67161455515668,0.3118649139035072,0.8521790968691433,13.24244549964676,6.497220610698025,0.256361152570697,-0.0819317821677492,1.990711405055348,-1.515027108628795,-3.236287768233394,2.102425232481633,1.919693534089314,17.682878735549107,11.136586723125616
-0.9787578877718376,-4.1155392219942994,-2.102915989556056,8.448440126655788,3.636125732789916,-0.3285592877780875,-1.4720945856223504,1.2567261788007569,-2.6649408526983165,-3.4494624222739234,2.210069140365684,-1.0599853679748332,11.61525233876758,8.678591299880903
-3.821130545225186,-5.542143338168396,-5.684501788273595,3.7891455012210336,1.1263488533896726,-1.2557466961956465,-3.1304214229395853,0.4945834026469063,-4.033935309091577,-2.406557395501879,1.9285914969042983,-4.949267310571851,3.77304804669464,5.505527237672238
-3.788509567534223,-3.5859348840101903,-6.92114433559632,2.175309962635054,0.2092650496259529,-0.9884896462318706,-5.489566425111721,-0.8177786105155058,-3.3510547913858013,-0.0772319777782444,1.915851896436376,-6.672052023575271,-1.4354010578596856,1.9557935199154528
-0.7717146979599736,0.4167375969342214,-5.320596821799747,4.918180073984151,0.7854878719790686,0.383314054500536,-8.065128988792782,-2.436776849244128,0.2084831774146842,2.206217405861364,2.022476614219756,-5.613249141495986,-2.7155789889438253,-0.6495391023505697
1.3427932002202876,2.519965798073996,-2.283819940611256,6.366850375539478,1.9149077919976816,1.7269911937993454,-9.33884758868628,-3.118396428848601,4.473736900237554,3.0234808985161394,2.1400218484010445,-3.082512647785497,-1.660006711231926,-0.6873807781305945
1.8671108239893488,2.6683557420973054,3.1471276320294206,7.4668143640937155,2.732005430644687,4.071258499228196,-7.873810712741495,-1.6948392329960726,10.27942066150313,2.298881138305559,2.3605075620606857,1.9676389057483696,-0.3646516637633681,2.184878703602923
1.4361965913612025,1.9803169223072044,5.488920403816115,7.229009091798962,2.950727630024564,5.279557103365414,-3.7666767906907386,1.538784128361059,11.896033934987743,1.3928587907449606,2.483969730187629,4.701544542606488,0.533542802580109,6.369245972170218
-0.3537834833680413,0.6304423208374175,4.352841143583198,4.564782992498939,2.756614547805293,4.743881809530249,0.9316413323737752,4.595023764640538,8.638375599697088,1.6799423340653572,2.5049925535882847,4.879503633097971,1.7379173306801836,9.570636946845966
-0.9623250406202172,1.2006930157234652,3.966408353966788,3.690684557334213,2.4643264468609933,4.832760141733124,3.3982649435996386,5.146372355593197,3.38809148170452,3.0228547317519885,2.7442587756840897,6.073809493633958,3.7262247087688296,10.785704221898822
-0.6366443274653932,2.007701421751763,3.047770134093286,4.18566326979443,2.3110657224923683,3.8254427753848153,2.0238585247974346,2.373771702825157,-5.519076045938366,3.751008573400168,3.1797838773510105,7.206097241054303,5.695681988328984,10.942211049239448
-0.6016385000488007,1.382333975133544,4.1406636172652815,3.41357268782798,2.400538310968796,2.710855675037174,-2.3370504280057065,-2.2825937256092352,-9.491931483740242,2.2874233680731946,3.336288732134208,8.86742129558006,6.1780368445322456,11.537857273025685
-0.4789856804102985,0.4002124590835002,7.944770277625387,1.9965878696538,2.651564616624849,2.766979985072951,-6.861802344406293,-6.107851998260204,-7.81789052537815,-1.1281735471230585,3.242091541260261,11.495435801249528,4.600211561729771,12.842551368262608
-0.7634319358570009,-1.5193050447083527,10.122373466104452,-0.8561548660083608,2.7808459387506987,1.6626038865785473,-8.662832050037048,-7.007474299419005,-5.705608540437097,-4.366059625932235,3.3508830286436777,11.571242730161869,2.0671754888552383,13.672462411623128
-1.2093224818929316,-3.27915331615195,11.281188834371545,-5.630641439067125,2.4763530641635128,0.4586637309796083,-6.680283757248128,-4.829599121577884,-0.9495127921535794,-5.157809749990558,3.5910740733948603,9.09857030424284,0.4734311082765763,12.899686043228108
-0.800400500149107,-2.983662326180614,11.962492223510148,-7.654780415005589,1.7140098877901322,0.1172645695382371,-2.1813361002196987,-1.2345866954299425,1.956525532300556,-3.052197449152521,3.558024181026426,7.874311540695851,0.7861985845538171,10.86295722944984
0.763970227456838,-1.3120342328455572,11.38303285551584,-6.9182436278,0.8872111671906866,-0.6104411413419776,2.4111073806220205,1.5993958982389578,2.3783812422611943,0.259071087923306,3.297923173319884,7.323665350563137,2.216960828136326,8.998035311352583
2.884687901818624,0.2741409154598907,12.76289994919768,-4.9757853460029695,0.5083967444232389,-1.049601396636186,5.340907757904913,2.4096905694993,2.6784008899186174,2.49728201292998,2.884700243072925,8.02595439603989,3.126487722890648,8.110553695136366
5.615869355642945,1.955817738363398,16.166738616115754,-0.6922819930369001,0.6975902774842719,-0.8597738963990713,6.5236653182053566,1.5003668689953005,1.5779494592032497,2.703769691152717,2.235418576274865,10.779075138118378,2.746026295105766,7.325778071699783
6.046953283719234,2.1797302160175374,16.17910419067759,0.3190779826608799,0.9717241632625432,-1.5115474825903936,7.032208946509967,0.3159032895870912,0.3346669339393683,1.7456267751748582,0.6519357602554088,9.508808312503575,1.9113543402544,5.005819097586942
2.9091400279472923,0.5487064429552115,13.147409701019406,-2.3080803671932726,0.5956704867644009,-2.3634816717973,7.686715597153296,0.2901153113451133,-1.0172190668334358,1.1409972360623355,-1.962031359967398,4.181187665378214,1.95888118230082,0.6835214935199798
-0.9807955675488664,-0.3218345383066682,8.017876987376304,-5.58706065498744,-0.7970336889443381,-2.76197287516122,8.114498028366325,1.717174256933205,-0.8545702671837324,1.5273049648995194,-6.040371761040621,-1.3014009132768891,2.8807371039869496,-4.123887020726835
-6.42414971378173,-1.2845449795326906,-0.4312903892053795,-10.942998638298327,-2.8510687408942066,-3.8155691753286254,7.146324350043787,3.430234905278545,1.303453287767138,2.2587780211148933,-11.882468157957655,-8.22519642951061,2.809303102096666,-7.168996021048059
-8.659945709877524,-1.4333130643257048,-3.317713077043733,-11.273051786623244,-4.654307742879725,-3.73987309922742,4.1430865155753365,3.641763809972263,2.608878132466694,2.336703732401309,-13.476249556973093,-10.454866688689725,-0.2612997966624162,-7.523836063204764
-5.161715501138207,0.273876861335792,-0.1423263322310041,-5.837297638154079,-5.230489106768881,-2.264092865522736,-0.0279937322678791,1.4722228187201516,3.500043922500949,1.5746814695632505,-10.499869440292448,-6.998501779255555,-5.963022675629159,-6.337823804849339
-2.2404266151325127,1.080237624495519,2.297267370455008,0.3920607111645776,-4.029824999172622,-0.9420136382551052,-3.3339404713235385,-2.011329590944664,3.464203071699348,0.8389439456266747,-5.769875724821186,-4.983295109344965,-10.88720869557888,-5.615082899612716
2.252695991850349,2.294131264176623,6.023409718643332,9.253692435587352,-1.2344838161338565,1.6497134965682403,-4.0087484928965225,-4.279797150135602,1.9211688671790643,1.2407753204441778,2.28140957771003,-2.913902284128401,-10.955501076970316,-6.33105965813373
5.301644941153214,2.8474556502092434,6.809502289231977,12.06080818826294,2.2057211430143355,3.1668043964999724,-1.884560190358327,-3.221119687579708,2.6895230750965866,3.128250707006701,6.744473790116943,-0.5335865168141037,-5.047874131472816,-7.712101627093424
2.681083012419086,0.7430847369492269,3.488532277779193,7.606080372794639,4.926977395556851,2.7061240666913275,1.483012764403071,1.0179931903709,5.707635622782757,5.753268675070838,7.0263091081266085,1.0816948779633853,3.499935124895173,-8.158873492025975
1.2840307422149613,-0.1089819298277142,2.619465965874954,3.694932558568191,5.901517779190051,2.8701514366622702,3.9823091019521657,5.858482212421015,8.096120268420862,7.774531530363319,7.698501020590228,3.5739869028106,9.292824375654735,-6.701329296662738
-1.591769885431541,-1.7895194152223663,3.1183135542480698,-1.911900827799817,5.1795205606495145,1.8667582583349889,4.448567483110893,8.117480238230984,10.56877043618562,8.112397041274328,7.025765959649274,6.639514854758962,9.313996879577427,-3.6402213000316905
-5.001569187943353,-3.79053176923062,1.937890495047241,-4.99505030674495,3.928142909102273,1.1256706812636703,3.322306252620089,6.429405696629615,9.456194776107727,6.57023960786401,5.655385964522418,5.486039963617788,5.386024667723784,-0.1110346693852784
-3.089311680477454,-2.812331476803995,-0.0660379836348884,-4.261615065584396,3.4718078076658445,1.558727636581353,2.008595761794193,2.2506655956462227,3.97661655651018,3.921200611196232,3.920424947565965,-0.14147667103939,2.244117410397781,2.6762685953709457
0.0919491714062823,-2.5214618715980723,-3.584639491228063,-5.311122034625572,4.000741312386262,0.6415837560227109,1.5486860710682058,-1.3969050281900823,-0.3691426009214872,1.4638176044007296,2.3654833816025373,-2.527940815126734,2.906139531519906,3.817983248515545
5.765320385194347,-0.9783587382649298,-9.106302141376784,-6.901034754682385,4.190469203223924,0.1187590726361697,1.7655243878625932,-2.362905272146514,-4.458041635449956,0.2621435179808498,1.3384669309331148,-2.3840083813852786,5.707879627429804,2.7596001885336423
10.308165461568466,1.7005982646178976,-11.671906681328789,-7.423342233471214,2.337535082219797,0.1475821437269797,1.6234984152006118,-0.9286580488933104,-5.492303930941404,0.4701620367156911,0.6836385898316687,-2.1575447750824366,5.9187437588301455,-0.5690116281817201
7.143686539566948,2.1456703643897246,-11.20421740435848,-7.516382093112828,-1.8496030998886688,-0.2049832450247467,0.4690920675954755,0.7608371568225198,-2.1757950065648126,1.2055546106978865,0.7515998160329841,-0.3516543529582255,0.5073553408911247,-5.457792919985638
0.3011450232602072,1.2757066373217936,-11.574782623348009,-8.134397882658345,-6.50967364910861,0.5153354074747327,-1.0156598910977253,0.791491370050182,-0.8874966056339048,1.1684513720867606,-2.407984191604987,-3.05101189495865,-8.454008706721455,-10.382836394138703
-9.356623356899048,-1.1576771083510748,-11.76832185826404,-9.231093831306133,-8.84530035459643,1.3608372295314648,-1.129956501011916,-0.7702273689402057,-0.7996837054320916,-0.3551557853597937,-9.029484893543495,-10.748085885075472,-15.056774011941393,-13.551032730371071
-14.195544652857906,-2.704355644701016,-11.140626686089645,-9.270348507753717,-7.360980758221864,1.6555078758328716,1.408627031247378,-1.9745736212071097,0.626759436819979,-2.861419495430277,-9.98328508466784,-10.677434167813132,-14.435862736601486,-13.73282162419503
-8.017772482549978,-0.9264592905460924,-10.129667812041744,-8.364896222121386,-3.1048550666975467,2.9980807788682,6.15541291966889,-0.7886034854697899,2.3940827117402,-4.910769330088312,-5.556200755033172,-3.4452883437953044,-6.840713777704668,-10.748011810493692
0.8497054463640633,2.8676274284443606,-6.845016611310003,-4.719256887014652,1.251052831608099,4.400511689588881,11.001560702361465,3.017023385109228,6.820967759252635,-5.136066419957653,2.3059503864666504,4.610141933524902,2.712227654557124,-5.321091520282737
11.061649063311744,7.787679656210246,-1.114322455978215,2.220458173589735,3.622427291409765,5.564608700442918,13.65907872094671,7.538849958067915,14.32792534580108,-3.18859082041793,15.79152781726236,16.05175988940462,8.704608932727062,1.3491898758282386
15.023337204974364,8.80341714791662,0.6673550913978129,3.462432492959326,3.939306425869452,6.519377182115788,13.303296348001023,10.204515157184854,15.566335250009564,0.0752726253484387,19.123917311657998,17.68970655996959,9.336456498375322,7.810870450117717
7.358067636595558,3.6676581873585614,-1.5493760866462216,-1.1041048761789916,3.550906545038151,4.840388357809554,10.935284162445154,9.69592572050098,10.4188007697648,3.1868678541338378,11.36784854335444,7.820791593025495,7.08257404642066,12.352818314332117
-0.1410270199551565,-1.6762472363808991,-3.8811154451395375,-7.688516027715206,3.41248558021407,1.9385938111363608,8.19825300279362,6.68775905738623,3.9022497615787417,4.866967615643982,3.4158404361189,1.82713711024282,5.545514882807399,13.233542640837658
-7.527462102460038,-7.397459147533993,-7.743700470325591,-18.46264392227852,3.0138148474704067,-0.9510683126155952,5.81136593253093,2.942150364253415,-6.139018631213979,4.482977982060509,-8.472729365460866,-3.264304901533349,5.874448296084762,9.441980037164557
-11.117052111644265,-9.345900742296376,-9.06330081432558,-21.561383394088114,1.1265852092132134,-3.2706257140587107,3.111151336675792,-0.1957725032607791,-10.57893128878658,2.087673553889052,-12.506706341671002,-5.633939570069536,6.063783525160556,1.6005040484585384
-6.105903391330441,-4.662961625498949,-7.140153751037703,-15.943044268087077,-2.516493081010513,-3.0185065665067343,-0.8911963945922492,-2.480082237769303,-8.30456603542914,-1.690849865665777,-6.59091614018461,-2.5501406966241222,3.467420496180287,-7.819813001540833
-2.915184810800294,-2.216328609095139,-6.8320864905057,-9.820984448603674,-6.483007511168952,-1.7116437357589176,-6.00115364537603,-4.226890374036305,-6.584475756591336,-5.76127232625279,-4.10073049443253,-4.827664548687505,-2.156934980605504,-15.446019643206505
-0.0227291377981639,0.0738076950935804,-7.161484749758466,-0.215456266304784,-8.711940552050923,-0.5319207245138902,-10.419306617251754,-5.440759181621679,-3.069237470663827,-8.843760926286594,-2.0798232941139903,-11.647689286820537,-8.057971314758179,-18.701901823159677
3.354914550884469,1.9776505617267492,-7.428588034629347,4.019913151198678,-8.346354960120795,-0.3767314061173246,-11.964862993035764,-5.684838894753957,-1.7402960463782553,-10.041005403677405,-2.14821315051182,-13.875034382064324,-10.851323008505757,-17.21270025341535
2.831291808386165,0.4168695754557301,-8.335378405200025,1.4153923603716725,-6.46382242873048,-1.3472374884507108,-9.956728132416174,-4.775887627407762,-3.656859990534119,-9.416036420277631,-6.445123376564632,-13.012831332652004,-9.52688355077853,-12.995838306217426
2.649988757942478,1.69212993471989,-8.663623549388394,-0.4273888783201556,-4.9604376053895205,-2.593734076445571,-6.059258537112592,-3.3677246975219437,-5.775815389044943,-7.997503221333777,-7.142986368102579,-10.82238594883968,-6.2787929901173465,-9.252854744868602
1.978060263128845,3.2457382177573493,-8.446874599771075,-3.91267806124869,-4.725215928501447,-4.388437506441666,-3.213249978858893,-2.5977967131418884,-9.39769054093342,-6.995564930018039,-4.974973910786443,-5.740042696637832,-4.441337072748347,-8.400283385247539
-0.8374945841043547,2.557544128584552,-8.935673762698036,-5.334375923062,-4.94475590259689,-5.032073312557298,-3.4355142507753813,-3.0647095182127435,-10.477748810563156,-6.801550634237893,-4.297936222443448,-4.814329711744383,-5.492248425618798,-10.46991061562677
-2.096135130125566,2.161285225793251,-9.96816678038424,-3.615790695264745,-4.198482637563745,-6.012695093849552,-6.313653803841712,-4.236264917323755,-8.53580738883752,-6.7153906123546445,-3.879411252609634,-8.44256331221821,-7.860859915918377,-12.956329130150312
-0.4856902387593332,0.5863792591048762,-10.151085331350131,-2.355425694785414,-2.17681158512672,-8.053853461925751,-9.487949661044947,-5.000550433422531,-5.0440068370042965,-5.747782813406354,-4.795240449596655,-9.251782352570396,-8.538099561092316,-12.482978139867674
2.048217023146173,-0.7540311190476119,-9.601322289759256,-0.3797696007794892,-0.2335947728783879,-8.78951307320788,-10.70707048792949,-4.852533192786893,1.1956638153551182,-3.755753549349929,-7.710096263844671,-8.616522933579743,-5.921595416146759,-7.431373872621811
4.230472156855431,-0.3765741988320976,-7.951276602445545,0.6048694180670428,-0.1684243547476664,-9.333748538715176,-9.66201511563421,-4.462764322772502,3.646418110688207,-1.7312410097355242,-7.425637313803798,-7.303273752793915,-1.2941483832727734,0.349978150839372
3.703035599322577,-0.0175117423653922,-4.831193299336289,0.1314512408854607,-2.4106857028381734,-8.174213897843918,-8.001182346665312,-4.940557447840355,1.9274864945730152,-0.8490669067120944,-4.0312086634182736,-4.123298986102437,2.327302400420042,6.415721426494791
-0.812949587618007,0.2132587757738791,-3.0350822928671253,-0.5543148482380093,-5.386726847013007,-4.675346308216016,-7.574814048755416,-6.462964943641285,0.3111503674321448,-1.1822718288221985,-0.4000753723310525,-3.258351646485069,2.838875876096634,6.989715109625134
-5.121971203166407,0.0128792833305013,-2.5418301620475363,-2.015614065380671,-6.730400205808193,-1.5494162762756427,-8.568649864507503,-7.707548048517044,-2.760002439535566,-1.443335245430009,4.549840344560475,-4.739299881336496,0.7958492057486326,2.2053540538576373
-6.077838746665001,-0.6743790981817421,-1.7896011323220231,-1.6659262207604448,-5.263352450657755,0.5240138245368287,-9.273690588229885,-6.853564893809276,-3.563654938048764,-0.1525766020840806,6.210743958587353,-4.93642977643303,-1.2347645674148753,-3.596474537362873
-3.489540969380128,-1.0827990017482665,-1.372960287034536,0.7680108058894805,-1.973118478448889,1.0989750710955193,-7.709436053424071,-3.366069726241677,-1.423041660250882,2.823121542021145,3.914755760661055,-4.613018920825578,-1.0497194933405645,-5.203733883891785
1.3185267777210352,-1.9319510001958051,1.2668266338332643,3.083004144898764,0.8469283933687793,0.5339724476489356,-3.589663120614228,1.1441604057758985,-0.4965184661685266,5.882766978909572,2.6502929826733075,-3.05862079976837,1.2134189130955368,-0.8903436859712415
4.4926764581335785,-3.261288850624404,6.493467750480998,5.908347590480142,1.4973269068621629,-0.1540177441458392,1.1972851549272945,3.9877840321801057,0.1472157506069532,6.926103606149029,1.3061114541625458,0.3821389219380188,3.1928725348459945,6.073465889414729
3.908507471506315,-3.7708739442985655,9.33178363862072,7.4531869299205855,0.1744928033645842,0.2684195923327826,4.055074191689654,3.609676882263926,1.019531548024464,5.13342660527055,1.860187224244987,2.585380862715561,2.3593402521738973,10.283164227013945
1.018648718286428,-2.787794563807072,10.168083761820036,7.286149642785458,-1.3410333940204096,1.3449081352564418,3.800540744797457,0.9821466261851092,1.5679501999538628,1.6916133286822608,5.252040091901824,3.767677743693094,-1.763093009666692,8.954822233314097
-2.100387718750716,-0.3410529003676469,9.926127668309231,8.011132141843424,-1.2098981585894426,2.201581803523609,1.610767343956291,-1.1572120768545189,2.5154319071521942,-1.1425067677023473,6.764861363703268,4.28181291849658,-7.050368462577967,4.25702659851212
-3.9260187546924254,3.4968937140633254,7.541345745946947,9.17632270887837,1.0579224824863038,3.523168523162382,0.0507717613588778,-0.6108405044566465,3.807694981664013,-1.7548422747799362,6.953152674179271,3.440781093621863,-10.29906152933063,1.137668006009246
-3.2245904901165656,5.798773125740865,7.777155811415882,10.256656210540514,4.385452078808481,3.652369826808181,1.0657421569955616,2.477162683368712,3.851803544549463,-0.19388785775918,6.391021381109865,3.857028301700193,-9.537784436511432,2.772046144356741
-0.6751847000298221,4.653289073191765,10.7938067001506,11.651566620636352,7.090429923749219,2.9425283197713066,4.556102510770662,5.890272451864218,2.63038217807049,2.2001555565906368,4.172854408495661,5.516636877501233,-5.335505329119249,7.85919250054334
2.193820116696397,2.32604161950253,13.37343531155881,12.896103341347532,8.099565183371949,2.6684206806086146,8.511178424288996,7.311525718804251,2.414597748685124,3.9951002367481054,4.067566909280941,8.649732587497379,-0.2544697142085148,12.040246112353874
5.7675095545389565,-0.5723128724201032,16.564507306735607,14.002030909117153,7.455160683503784,1.135643374537671,10.418129936907343,6.124622345904447,2.978624543398954,4.576485135264129,6.13327733068252,13.973868794240191,2.928064710913386,11.79372097537192
6.978781864400323,-2.4183890972861017,16.142507934960616,13.428939156918624,5.896975292356707,0.5522742891250029,8.862315399394056,3.5131038406509703,2.375194655831672,4.160605418369802,5.778717142707218,15.17098431797248,2.845389401659463,7.150861136284823
3.808156707015938,-1.6540851940477852,11.374579402069903,10.912826971004332,4.097903185795538,1.2419484381022068,4.338709175499051,1.0650339351917069,0.911874817111374,3.217590324561062,3.580856888891576,12.063960323208647,0.0493959292818852,1.1402238896846328
-0.6801396483667692,-0.9160282864167132,6.207750319498203,6.8551462424203535,2.299224151251484,1.0251181813502448,-1.064637596241616,-0.5699800471049876,-3.1809417988087607,2.021796706256336,-1.7607367330133277,6.099457403754911,-3.5754128752629937,-2.931020094956001
-7.200895435095523,-1.7362372474259486,-0.5074202493536552,0.7147439121391256,0.5672270664402563,1.968520627453174,-4.825787471351941,-1.743507350672841,-10.467043122001222,0.6969998352253842,-11.337112269279576,-4.41533039590192,-5.849606244053812,-3.654773839655213
-10.235839913925728,-2.235907791934148,-3.011318459606128,-1.9059200477237108,-0.7759215407017541,2.363974484371371,-5.354547540216929,-2.832974036281322,-12.421328284287474,-0.4899502525055454,-13.980338151311472,-7.674544486418184,-5.234670758429032,-1.6333832868014753
-5.606740415409892,-1.567238496074158,-0.2923034822620693,-0.6382558457623578,-1.1529400148185984,1.4285134732955735,-2.842392736912444,-3.491544984814425,-8.970486087713612,-1.0613501243051295,-9.501680569087991,-3.0304719439519783,-1.475009619532604,1.7673420379885267
-0.1253583359367827,0.1399116381184003,1.905291679886536,1.0733849098022652,-0.2675505079420373,1.553298366276037,0.9179443514642952,-2.978021364082052,-3.454995542174295,-0.6485740852727127,-3.8161112339720105,2.8478892177238784,4.14494203958043,5.400747913019818
6.740808969576589,4.9420333516923485,5.131219758609428,4.632604880719185,1.3750590102832718,0.8439818358602649,3.698200326097436,-1.1498607539925367,6.190478330654537,0.6048861748284171,5.6602199978720265,12.879954842951982,9.160138775442974,8.38138486270321
9.780624996734304,8.169195647534464,6.096824149149715,5.691034890290319,2.6214265597782003,0.379962278692765,4.255315903519858,1.03609181741728,9.570191433288144,1.9963388729204885,8.35602265449825,15.40549763261594,11.053219861549644,9.834272788451267
4.56701603957833,5.931256000179936,3.781371345847103,3.651615319870954,2.53221908654502,1.1807640328328752,3.00016722113406,2.152012673794045,5.857604498286301,2.7015365728177225,3.004972624170273,9.046922951262776,8.763889363245745,9.154868532337549
-0.0481309940304514,2.0740530332936498,2.637316266954617,2.0998522941526816,1.221059177484797,1.1005324642561904,1.4184073189419657,1.5130559347141022,2.243825019147455,2.37326420102488,0.3171166933383104,3.67481962124396,3.609249282037433,6.634948208894262
-5.142089392250966,-4.731275284729723,1.6888450486260715,-0.0918909829832403,-0.1677642495340872,1.6820436219027275,0.7444710966033763,-0.1859913959796155,-3.8258064196960713,1.401210358475578,-2.176249043541463,-3.6196512730715,-1.2680432574731904,3.588627336800525
-7.536225818045869,-9.568584039186554,1.4399936452281774,-1.2630563477907626,-0.4231360010736495,2.3024280901844403,1.021279816468844,-1.441473601392683,-6.326842651048907,0.5907251723197791,-3.6873877705825615,-6.161496293242175,-2.8486876942112627,1.5402411422001392
-3.1212718779488946,-7.276974012335013,2.589112456178701,-0.9067346881983266,0.6672891084839341,1.6211669100894992,1.3212120168692327,-1.2118503678631796,-4.115407036817742,0.4969603350657139,-2.59476113636995,-2.215000583058269,-0.3318042513084571,1.1000645445656203
-0.0944698998856929,-4.102412401314399,3.72205141130004,-0.5082763564751305,2.14033267641555,1.5987440468586167,0.8403371990569579,0.2525432107844996,-2.576460792987663,0.95114561210052,-4.763252688099324,-0.5439256413981061,4.224821694934395,1.6022236555970362
3.793018491773334,-0.2853089104780874,5.18815542773338,0.4828424374247138,2.7444979325544443,1.3148841620855032,-0.2081470040213087,1.7310322140594354,-0.0381341602276484,1.1909123981149476,-9.764141786776865,0.6796973128613312,7.36453209650197,1.8627248077363685
6.833613593169525,2.859690577355958,5.8640265336713,1.6247477176259113,2.0592679089987618,0.4321357343156158,-0.7436704428205946,2.1594885130986854,0.8014287285473273,0.5245333358559894,-10.544097917781947,1.1237406368278096,6.805937903884665,1.3054944780568412
4.12566276994416,1.9916990470718905,5.468396775513709,2.7922659929528373,0.8147542557775171,0.4357305770509161,0.1622888210123882,1.5309960022382645,-0.8411046813199513,-0.9978089414628412,-7.704487520824665,-0.5838865837358944,3.161431709030937,0.3905556792830333
1.9141555740591811,1.5033064128838274,4.900980106316228,4.113080279464155,0.1699124794498923,0.0807574565443875,2.3833518072458104,0.8156022015326174,-2.537102479821254,-2.486161339310816,-4.360237489154385,-0.1973836210606575,-0.5868535463217455,0.0452032093092458
-2.064721883919046,2.9155337273953394,3.794661306101416,5.430217072285831,0.6806973208305422,-0.7651870657037514,4.787136676598802,1.0525579520558517,-5.163900874859803,-2.829910948095551,0.8248900563691912,1.9285741489510788,-1.4619008891003222,0.7840232474622741
-6.347426199217811,3.041107533032915,3.430940635207885,6.093752155806528,1.9015810145051455,-1.523448201300012,6.138618563972949,2.449531090145997,-5.87933482388158,-1.5782999010809071,3.4776950362048824,2.869051322922265,1.2017852905157893,2.3703978271553723
-5.283174812659499,1.901162097328177,3.971990143797532,5.977347853718483,2.874053522986721,-3.4963616499633434,5.979610889607754,4.2145590189888,-4.24546014975129,0.6299851218589598,3.008004704854316,3.249527315681817,5.37995633549268,4.169198092674124
-3.3594806157554755,0.8573894662241285,4.77333825632763,6.184925162018055,2.9255041545641083,-6.172426314407843,4.711647658165004,5.16011319528295,-2.8320144936523044,2.465115801204468,4.605630975092821,3.486294589843767,8.138456143098534,5.65544420880555
-0.2703742917768301,-2.038430021423284,6.204015828941085,6.568380208377025,2.042369392956908,-8.7642708627505,2.9445877280814097,4.530861748648091,-0.8961918573778745,2.834508156062816,7.30192873914959,3.1414861510514656,8.00102437585908,6.604405551192148
3.073414209550517,-3.184977629481304,6.833954411391941,6.768080619584961,0.6486530249589721,-9.89675352096408,0.871315387996066,2.456521360968321,0.3175506062515131,1.6151291244640849,8.128048161194288,3.259959921626704,5.938676360423566,7.039559626988847
2.311120200252525,-0.9813097488727814,6.552959317755092,6.966638581138887,-0.7747714480285537,-8.495611358150404,-1.681861028961369,-0.1844986204840695,0.4034948736708211,-0.340755462136333,7.6557670019599025,3.8451748559123,4.3220634087792265,7.257313964707399
1.033457331245102,-0.3801367836770706,5.301007468251184,6.427733823395003,-1.786794918753721,-5.889199297222166,-4.638475939774264,-2.2967380104422785,1.7317185426120978,-1.8283779641032476,7.330465562827437,3.6164645742286647,4.952328592635105,7.896589443087972
0.7411333445181065,0.6551377826566875,2.624577493070229,5.071951212754741,-1.8644245255440592,-2.0279204066714294,-7.201541082269753,-3.131763957178953,3.999588774352668,-1.980551911052062,6.749003560683145,2.7171676643568854,7.915155025918192,9.679061563538228
-0.1618292904292697,0.7086554114326002,0.1932950465551292,3.7592925100308254,-0.5031327224884254,0.5721411076610422,-8.10985419505477,-2.5854244843966034,5.819402908678869,-0.5693724072737889,7.891823036705092,2.0727002602790088,12.00571998971479,12.73339022594181
-0.1238318874479239,-1.5908841050291342,-2.1015605864762663,2.3346748874249053,2.269864062740317,1.5996769892369849,-6.504519103261767,-1.1176209599774958,7.52242287251396,2.0617891939729667,11.1649209442482,1.5006982143541123,15.918352916366976,16.066695536665712
0.6959405268306669,-0.8963423361892036,-3.62825315551608,1.185557963739056,5.415319135845811,3.223004941766064,-2.723516189969357,0.5917753098527161,9.695205644716657,5.127113071563308,11.439742287425515,1.6005791172015582,18.834648838480263,17.88084804274424
0.3648529340492712,-0.141978903324404,-3.935903051325096,0.501154552274461,7.147684323281486,4.038599880808997,1.6254994118460804,1.98392638455993,12.183557548971876,7.468400203633416,8.957386508698146,2.5964243204765647,19.98274715910533,16.700379320665114
0.7222330819205272,0.0745639535284113,-5.276111142605382,-1.6179258023730214,6.098341108990125,5.074860069752017,4.44232165666838,2.7399756553998724,12.387977719060617,7.798632122775609,6.050836962161069,2.2496555374685148,18.12028231227203,12.42433819042014
2.234512635084053,1.6340173188675031,-7.451136951458745,-5.157636053212079,2.5564423754423826,5.0534534995884535,4.334370943360852,2.6990049919755097,10.13285934306401,5.333863585421872,1.6766468040875182,0.6175425563011666,12.140277085371922,6.411137782159506
0.4344212766033111,-0.6384340010949687,-10.916923481560127,-10.225188491180742,-1.415881419791674,3.353080660658181,1.5344646907865451,1.7959831370238035,5.032627435552219,0.5415775775167,-1.8646704010627213,-2.2426044136386536,2.6828055375268782,0.5835353592083878
-2.346216966623269,-2.677565218880759,-16.21898736557072,-17.348129551962753,-3.400240691295295,2.086158604955444,-2.0951827417007607,0.1672898360149588,-3.7894251114894018,-4.693555667554527,-4.26538980905008,-6.910363997303823,-6.94050394797812,-3.653638669210554
-3.689976896386922,-1.5694480942644855,-17.391239451704116,-19.67054775762757,-2.5590637311900903,0.4906411148422038,-4.160254370898077,-1.7167407264256571,-7.554613636445218,-7.945424284346129,-6.303950732469338,-8.903498983283752,-12.163213773691556,-5.942811185385119
-4.092177120441727,-0.1583516719334751,-14.24961072258289,-16.817083205941852,-0.3894365733065954,0.9145061453244374,-3.388109641642658,-3.16858586893728,-5.9756725514646805,-7.768985890185912,-7.287136426218857,-8.072475414853185,-10.516873562196048,-6.857629439104771
-0.2876878563112469,4.168790506345543,-10.181937614845085,-13.19247244642126,0.5356413579119303,2.780709971336081,-0.6836155161904705,-3.6962983860404695,-2.9480520731109188,-4.76512470659541,-7.740246465971222,-6.969772557497724,-4.230074212272067,-7.471463325890149
4.435295377299024,8.086237914504613,-3.7821556850352422,-7.135591281550975,-1.1435808813921198,3.1727723011481586,1.4066257342672412,-3.382771695560722,3.715279655482651,-1.2711321802883395,-7.526366479304168,-4.541174580708645,0.6620429543818198,-8.834692131869032
5.436288091975617,7.236569182047294,-1.644905648506086,-5.259788920130626,-4.305464641531082,4.103661781359202,0.6620300308464961,-2.8422122184198466,4.819009130391289,0.2028181917998686,-7.367947173499133,-4.475366068447444,-1.3280341801593236,-11.41227944844258
2.919033897514757,3.4458888479674856,-4.589677317573245,-8.517692381294765,-6.338564959916796,4.017236710024116,-2.912804997142359,-2.737674107102823,-0.4163912320294752,-1.3494168373461135,-7.37684686226316,-7.26046756948683,-10.622428366372445,-14.692359540471404
-1.6098050300488516,-1.5010620871409188,-6.099877169024115,-9.753861178756653,-5.5670547767032375,2.2274283355630424,-6.956373244520398,-3.271118071337952,-5.512503069823737,-4.877904017183991,-7.474169257699965,-8.579673869714425,-21.801822288947385,-17.36446716053847
-4.512780537614132,-6.706128373490151,-7.758794881137035,-10.555279426754655,-2.8861995179455957,2.0614768181721863,-8.649011304866718,-4.069049707635619,-12.72793015593991,-8.169010457586246,-7.912109376121184,-9.254091502549352,-27.510529785847048,-18.15915651765349
-3.723865969973598,-8.74325046362859,-7.899092699459504,-11.406765330688676,-1.039062129587795,2.316670753132668,-7.006608894157739,-4.485457342974959,-13.475517646814849,-9.377852095579655,-7.377139354204901,-7.881967757321752,-23.96029031630656,-16.771877162218964
-0.5961008429994722,-6.715870219149603,-5.460409239891117,-11.298366516316152,-2.131403477671514,2.790953202983633,-3.466569867829267,-3.983819288055383,-6.376669855391313,-8.024035087129088,-5.860887460608097,-3.597895654633041,-13.557026702576186,-14.068988202457067
1.889707018732047,-4.363396002040648,-4.189340745272659,-12.67136183207774,-5.643145331506198,4.896515853417356,-0.2626904543067994,-2.31090461218618,0.0358098937863181,-4.884602640582694,-4.095761633226988,-0.5487291501804722,-2.702306939436747,-11.4017594672741
1.6405443416379226,-1.18758913572483,-3.4715215489488447,-15.410133670004118,-8.779615935683342,6.690151722091564,1.7429165683852537,0.4957311336389551,7.976708766441848,-1.1746063766823274,-1.7952222061228902,1.6880107400538609,3.085211884001404,-9.715410064696734
-0.1708431029039228,2.2756463863176584,-3.1127182962675946,-15.359585715044556,-8.882258321278035,6.381920464299676,3.5674009130614794,4.055534768944167,11.01018687640265,2.16296552445384,-0.0246275871758777,2.793851812060177,2.626438972718482,-9.252450327966482
-1.109571551546173,3.3686623992064613,-3.745570882342653,-12.664982782179528,-5.750862932216539,4.619397248810297,6.475605839714151,7.528199386939357,7.404915048090191,4.608591652877952,1.0645585551721513,1.8526068759170689,-1.2799379987304915,-9.890223320358476
-0.977426528864723,2.7389031896205545,-4.681229872271614,-10.252292606908693,-1.8188683260866485,1.909870294790412,9.980676406592371,9.69548492527548,6.2870935765271705,5.878398876467676,3.2709428706037413,2.2408842908844497,-4.957391514333576,-11.460112618155476
0.0468887373301502,1.6768574043263589,-6.126817297531561,-7.333737492268962,-0.0587079863487134,-2.332777021053716,11.696295081873108,9.46845628207458,5.903773772758227,5.866608812266961,6.4073708791844615,3.7137392454664,-6.620587579257166,-13.599572531562792
1.1427715582471478,-0.0545192903068581,-6.078228568779771,-5.071030103018699,-1.4912172076359582,-5.294079625607245,9.402644410959466,6.629835466898629,6.015310191375439,4.838510807158505,7.430429742944809,3.91846365938161,-6.723029400705951,-15.469890130374097
1.1267715889649197,-0.5266781219590091,-4.283023794194119,-3.962556689743556,-4.455006525401641,-6.831360229214467,3.3885372641086864,2.234286348091012,8.079677882523256,3.534286319315309,6.41808137253439,3.3789786280996443,-6.362937864413583,-15.980800874660693
1.4316485964518413,2.9580609917819083,-1.8080855840743717,-1.5802541011560471,-6.168954076027978,-9.394564251048957,-3.2694392135167014,-1.8072894587053956,8.245943660106729,2.84503561522847,4.675019302853245,2.1822731319834285,-5.808109598911843,-14.549025875508388
3.0438991707373724,5.956480969010939,1.9338405962569936,1.7516596303641394,-5.109609376858447,-11.165312414049668,-6.918802852227501,-3.8200462038992167,6.801343719038561,3.2029545914046404,1.5169988569729052,-0.035645472025619,-4.544945705861297,-11.633165391401157
3.914650442352384,5.891570895053774,3.445930314037581,2.780855413280713,-2.120053205191302,-11.44632329925362,-6.121475445881755,-3.382391935174893,6.273497042670113,4.230872501567216,0.5763848407537823,-0.2836959008433418,-2.400229094841581,-8.37446169318072
2.5759610785971314,2.9572938488145764,2.4152813605772545,1.6463715101940994,0.5839424838493619,-10.289023530272416,-2.587720052269335,-1.4921054537677894,6.072369049970986,5.025612432194536,2.2066746282024825,1.5869225899073676,-0.2232305772305589,-5.627847247783953
0.4909317058994908,-2.72694608587744,1.1822151644497625,0.8806807605679605,1.460548219679782,-7.243449422600279,0.4479198425492856,0.2463810869270877,5.582121354947863,4.849152985750899,2.929518424277484,2.182325696862675,0.7087449135834163,-3.4033384130013338
-2.8184183843692816,-6.416493284312754,-1.1455027439691456,-0.1042056401686192,0.8802028966789934,-2.709143041875313,0.8508815750029326,0.7576127691727028,5.125653741839788,3.609794266113776,3.5767539398287846,2.0610006635416664,-0.1174564903538666,-1.3358193682195432
-5.375023509495319,-5.8229845607336,-1.8593928412969656,0.6396237521104585,0.5751956601007091,0.2478133910746162,-1.040125406381062,0.0750805665251228,3.327773154163748,1.750571296054921,2.398286405174816,0.4027641702802026,-2.009246121826738,0.3600085803294259
-4.785773827199352,-3.139891755981014,-0.5469204098187933,3.69467160489004,1.9560695254513296,0.6739108384145293,-3.192960277533924,-0.984618147350993,0.0310600132955347,-0.2306253858942657,-1.2718347076925605,-3.5042215370048053,-3.8684343278209896,0.6258851479920522
-4.432842705527893,-1.4497176329367525,0.3194491706268895,4.847894920664962,4.838151036854166,1.4830533579432352,-3.7787077771032784,-1.6315012582823396,-4.048023234588809,-2.083531290883726,-5.618813854685765,-6.656890463715992,-5.321534717502205,-1.4925894967751514
-4.591440417016687,-2.968218142202523,1.4398268393570983,4.517659639962472,7.598662429731281,1.5417457241082804,-2.4268042393350497,-1.660459027022125,-9.296723629900637,-3.672005838760823,-11.288713992024023,-9.356681168249072,-6.883391464663172,-5.488994803084978
-3.550999474965792,-5.027010183068832,3.04541196608119,5.651046589871656,8.494324833167035,1.5262276066830682,-0.0135126297653438,-1.385127898206984,-11.780092546999642,-4.689753863812422,-12.932294327271462,-9.220766489915354,-8.94832417517513,-9.03650658153344
-2.06321665600674,-4.029475679310426,4.884166579262414,7.634055766020245,6.994163110382245,2.953866507934439,2.397696781777482,-1.1822001756606708,-11.12006454929675,-4.682158094672866,-9.888576927639267,-5.365476388078823,-10.780828540207278,-9.247494098226152
0.3228105917335518,-0.3376684097872651,7.640944700409329,10.281153714769966,4.125321040942804,3.3497524075715512,4.304649010284191,-1.1399892671940175,-9.45873477114129,-3.44967451003196,-5.694430636699369,-1.078813302483576,-10.787038809563908,-4.70631594246408
4.628105291874368,6.3294534216179645,11.339604833373327,14.06965366191938,1.6797813999352442,3.179583028020849,5.688359418448526,-1.0790044235010718,-5.714102925546717,-1.413054127090133,1.1350694060853224,4.459847785324213,-7.991744487884798,3.3349685505270217
7.083628600210257,10.53270192621776,11.306581581601623,14.110648913951298,0.9393113656480891,3.261147833287813,6.520562843584067,-0.8317260465223377,-4.865811158130676,0.5051628436612208,2.736494487327473,5.671844543001619,-3.2631110405310317,11.57074302053542
6.356831625529595,8.239618763181488,7.25509423080723,10.092814637622467,1.8350574261307675,2.235974459210073,6.515743723513624,-0.5039206419227447,-7.393291965568389,1.448492147801403,-1.8151675648294237,1.568576569380136,1.0509632588972997,16.592846167265705
6.333906075981601,4.981851949529621,2.328791684918776,7.37810159156706,3.102601302056462,0.7418639500174277,5.313334502785502,-0.5233907838669404,-10.00149444313776,1.1489891817867344,-5.163054576654658,-2.419978828211811,2.864750690396793,16.740247788164236
5.463148561519387,0.7391891157709378,-4.6232440509757815,4.990331593661364,3.28711715876295,-0.7372370769579253,2.785616825214764,-1.4304341548009512,-13.972880183590688,-0.0274870145891052,-9.216715178440378,-7.827116826075553,1.9060444424735532,12.67542356442216
3.1380406294502023,-2.376115536754013,-7.236698605963561,4.019510732366238,1.8364689144263533,-1.92001760827544,-0.8275840144299189,-3.4822742062195564,-15.525640389004792,-1.4569345761890218,-9.70164875322314,-9.767377743941625,-0.2736064609491375,6.627844528318013
1.165703564423623,-1.0864289212591898,-4.643548409988018,5.512056984612612,-0.5602163030409921,-2.0242107060572674,-4.949334520232252,-6.283670464632182,-14.098954369983996,-2.6380680124318907,-5.244171857323033,-7.133471399307951,-1.6959994068968445,1.1455600745971748
-2.5365097337885856,-0.6769215925537331,-2.798842871417989,4.185035937959656,-2.634094170268108,-1.714423110365353,-8.731863995425023,-8.761725028520486,-12.253012129048376,-3.2980449758234323,-3.148939594794846,-5.513545621661054,-1.4381288813347464,-1.8092095307969904
-7.38724584798814,-1.3714054428578435,-0.0867353458599485,0.3525730315319584,-3.591468879444535,-1.1658644374939404,-11.192686748229937,-9.670606643025934,-8.928788891410413,-3.3335594882594477,-2.2722096089851407,-3.550282714069652,-0.0504917683424276,-1.2417817484091032
-7.979522951723837,-1.6675010416111329,1.770503226743249,-0.3313794786479697,-3.6206725162107913,-1.016496210188588,-11.554340905132133,-8.390489012121776,-6.463036448961256,-2.831525407446229,-0.1614337470251275,-1.5366029315635628,1.1404802779131211,2.707746802261659
-4.835422167317574,-3.4694566472234767,1.885303311568353,1.4593326168558396,-3.452919679603905,-1.500808558220805,-9.712970530441956,-5.41497038155994,-5.185221647458535,-2.152108693367269,2.1006603982373844,-0.2463896392215415,1.098587572199046,8.658436754027278
-3.057144516083642,-5.864120658179027,3.290892908603471,4.751793396007976,-3.504567970511356,-1.7606569727659571,-6.4690658032984825,-2.0652340751878824,-3.661254775227483,-1.8092406638370369,6.908630786389797,2.525962574157689,-0.1758378328218466,14.245868540926516
-0.8567974388952919,-8.081610462149312,5.384103119191494,10.663257283093689,-3.4865874675775053,-2.1781680516029027,-3.200396916467726,0.3842836688454834,-2.538722456456163,-2.059919225520712,14.632567022676303,6.546312396891375,-1.4705460520070464,17.079169677677786
-0.1661979336651404,-8.180028166042577,6.325926718152177,12.337672463225726,-2.799666618295648,-2.358579601934639,-1.0947890784594785,1.4441202873766357,-0.5624145612483907,-2.5495186568340262,17.53663326025404,8.272728089099036,-0.8085664130480854,16.113433207850647
-1.8379049735408983,-4.617463150783951,6.393771161840575,9.40241342469178,-1.1800615974821935,-2.3090340905589564,-0.4690746929755494,1.4456275835349794,2.4149738482641685,-2.473008854064487,15.658074437654829,7.790687740878442,3.477671122636368,12.477121676681774
1.1568583600893882,1.4804894207597756,7.40934089059569,7.237291761816328,1.1218477877066535,-2.5822027783650565,-0.6675060868341967,1.0236671699483535,5.892208533054483,-1.2393640433983664,13.247308171378236,7.139818382966976,11.403880459859671,8.896965218312106
5.401554052601223,10.085689624559508,9.174340937033994,4.310195940513279,3.7013159678716896,-2.537701038116809,-0.6010699612342609,0.6805768995919299,10.22430249354432,0.95655283433155,8.60837914833151,5.573696537530493,20.64732249380121,7.873904818672965
6.08853820515821,13.909771738385126,9.528400117309024,2.400899022127311,6.292468079042967,-2.12049031334294,0.4572723136404213,0.7879822346287382,12.203168205077448,3.2378543702368665,6.454416970682863,5.1139424460595695,27.418540480086875,9.859948543698088
4.458896113002862,9.714993463745524,8.660231826054742,2.311944932308421,8.523700457624985,-1.214655091078568,2.348070241023148,1.7185722403470045,11.56712989942302,4.737419696530436,7.498247965272111,6.119462154754548,28.71128078510557,12.840163770643976
-0.1233414456574583,4.644369349022379,5.800035133001977,1.4142431398364337,9.459440822607672,0.3958115386998598,4.115805603016652,3.621617202311242,10.69459339517977,5.18857753889692,7.559334747744717,6.125513948223667,24.38028873249672,13.713477775036075
-4.641324401418405,-2.8078609270001134,0.3605884117468587,0.3240628114076923,7.746328451108619,2.215724403066413,4.695236296894579,5.940561281433381,8.796835983922488,4.878753974511583,7.859045162317058,5.616299150573349,17.28175016088874,10.506459801013367
-4.434935964591619,-7.563989742942137,-2.45204491264167,-1.0044758620451364,2.6731273176832238,3.638108364272121,3.791965947780228,7.390636034579953,7.86542967684528,4.155035453582758,6.732338534021613,4.51737114454928,11.173063324105486,3.83236102700384
-0.689276573021091,-4.31648599669073,-2.644338423452061,-2.9257785208259883,-4.630891353386603,4.783373863393624,2.3228679482893715,6.84931650292984,8.311201066315052,3.114092786902627,3.5635811835676225,2.421792371889182,8.01113815357958,-3.4347678575994385
0.8530846557300868,-2.6452456093345225,-2.9486356441248884,-6.090113845936611,-11.14493167889753,5.816063476624582,1.9440177452000684,4.548967234256381,8.158188142471605,1.774401087585782,-1.1986744882245244,0.7398388960736655,6.860849823848632,-8.04155430730693
-0.530965345988113,-0.9717407999173246,-2.2153585915402343,-10.751075829373937,-13.574252290139077,6.660520906856022,3.8178825888118046,2.287333898562105,7.9601336784682735,0.3772262703918468,-8.270627393488368,-0.6140438769102919,5.2045351874594825,-8.499847829155165
-1.9933964467642984,2.1279682611414805,-1.7370556685093357,-11.293759345128908,-10.661405639540243,6.948526173472663,7.483054394140298,2.0678396960165686,6.770360264851757,-0.6818150085093917,-11.684603704759988,-1.220278672272169,1.3594306326347405,-6.0113688496785125
-2.045307831741907,1.373153966191021,-1.758492019901108,-7.48370304076246,-4.335803861566974,5.774492480446655,10.827160528175996,4.17701053713715,4.271418249887343,-1.2578568036589766,-11.137208397979496,-0.7072770784618969,-4.107476286126301,-3.4884917630374224
1.657143269848805,0.2267959530494748,-0.9817471331165966,-2.451733132000352,1.4670172152772625,3.7275686453728127,11.40760491838991,6.558563707058975,-0.7497473411191667,-1.664677944318063,-10.081685941564148,-1.4289680447958608,-8.983162940935845,-3.319743827627942
8.08212295191576,-0.91831449544732,0.2771947981459309,5.1782483464117615,3.62186207008428,1.050807524845983,8.227401667854924,6.356454857736496,-8.839343742432128,-2.3452359638412617,-7.058055408252021,-3.3018611592989218,-11.233024545954862,-5.523035208489825
9.715435016459796,-3.682997502803956,0.5830767011430372,7.454658412936639,2.069319697879535,-1.070443819741678,2.5621771883587265,2.442931536982632,-12.41764952689022,-3.33936835989722,-5.905041195042845,-3.739533740720856,-10.410624858898268,-7.766185819756322
4.312859324462062,-4.502979123167047,-0.0389377056529647,3.475714230943621,-0.4048672826935737,-1.318659314136592,-2.8782285880751943,-3.35133567905546,-11.371142941381535,-4.190102307487805,-7.1405855488664285,-3.0718823030783864,-7.692458498659793,-7.330773145575526
-1.4947908222661117,-1.017810562803913,-0.0285631347001045,1.4505928712553398,-0.7575423108537813,-1.4004557114346106,-5.809569130619389,-7.524672564250281,-7.599011245377888,-4.447386455353244,-5.004505941941326,-0.6818812541117775,-4.851313377422764,-3.4545107136487427
-7.628272032851221,3.881408745708356,0.3716917645115939,-0.4590298768758982,1.5698214466067384,-1.36348315567192,-5.774470889203,-7.639436114364276,0.8707754458245901,-4.2077307698335895,-0.2098044932659527,4.035770985726622,-3.142924961176629,1.9390928832373733
-9.47971700834077,6.896935769778491,0.7566417434678617,-0.6215390358004981,4.203716846010472,-1.3869120998435436,-4.062627345341542,-4.12421229057938,3.5685499712241384,-4.034776463831759,2.5393555715740987,5.939578419033055,-2.802006957555193,5.784160855164244
-4.189200514264821,6.115446287539573,1.3854547145455764,2.345677877797176,4.123930220739822,-2.242749612030193,-2.432872099763464,0.3187306819921636,0.0134204455382239,-4.290615160709118,3.945381110411822,5.003588354748199,-3.214828041829751,6.35785141638818
-1.759600677837944,0.5438350682582371,1.273903677004122,2.8361170347497757,0.6019277255599702,-2.828404151741987,-1.854362817439107,2.969776310643711,-2.702052255974008,-4.607266484231196,2.553167075044184,4.301715276043842,-3.472685466063792,4.554278161750128
-0.0465605221572495,-5.326670946444193,0.3435874091533298,1.4347312160275,-3.9441661821755023,-3.1300040851854245,-2.226912189486088,2.952687330604149,-6.970581865802789,-4.136638826683233,-2.739880370082196,2.7200038775333764,-2.972135254231901,2.927525723193046
1.4846772458532422,-6.874307395687697,0.1578722626705787,1.3292784963094966,-6.003253813518478,-2.7930983890115373,-2.97234141406523,1.3081355471917335,-6.612526552267985,-2.4082894362000515,-4.401531855646589,2.0250900948131494,-1.7559227846932766,3.470981054131056
-0.2833342594316786,-4.032342326523409,0.56857740495488,1.6711533945000503,-4.044253473341414,-1.543752296382018,-3.6396708135451705,-0.3300750438646616,-0.3874380116700777,0.051682844598615,-2.661518218406437,2.625253856974141,-0.3548235710330862,6.074540316704156
1.4556546966868982,1.1107682277605604,1.0826187762456574,2.2793268203197727,0.2164477168344962,-0.0750450292305305,-3.945788287575581,-0.9973986148446534,3.7178819717057943,2.0132142576634195,0.2022859709029986,2.4552761030114776,0.8165115617623355,8.804467647897045
3.700866198101922,4.039157290950657,2.000015964797953,3.573002044733685,3.4484434814554312,2.160319100290611,-3.5214036054253253,-0.6357119322097771,7.2135880067750495,2.552768663614515,5.888236936767049,1.980151539707643,2.000113576301779,9.543199984833072
3.014050778728018,3.082466751244206,3.008316081761641,3.925083723041115,3.643799244924201,3.388200853999917,-2.0011083365385254,0.4289623854289259,8.79572263993647,1.8788799423693057,8.175690888809095,2.9286986593374382,3.941642114815665,7.603136398473103
2.263530974914353,0.4015565003153154,4.101226448001604,3.317320746875001,1.6685430689704543,2.912023219626407,0.4652752827293165,1.9124679415794812,7.006240986526803,1.198051245116615,6.742928515712262,5.183069865477995,6.990067332211247,4.231663070923255
0.1055848432348585,-1.885667380468942,5.599989008191425,3.777041549970362,0.182372392606231,2.7416356952689056,2.9654210469084727,3.521597449761883,7.47192573814018,1.697837326621512,5.394095291677563,6.639900204942093,10.265426866353302,1.835100653305738
-1.745715438808902,-0.9910982549707796,7.460165081233343,5.065012913314196,1.1391966964422986,1.5832249175037216,4.441038026399895,4.800510714091791,9.64377910726278,3.517853991921867,2.6690398037071885,7.522205251022689,11.91652290879656,2.464683978862966
-1.2379463682902936,1.3018289292154963,7.739489772059172,5.338341530463111,4.212192252921978,0.612903148289326,4.75956728229526,5.334269930847899,9.888474025880418,5.6032529971683065,2.341880051227342,7.568103270839279,10.567859645013204,6.405363065027117
-0.3565689955709443,1.531828088551583,6.302592559065137,4.839196450587161,7.385512139362934,1.2423605234692816,5.047055901369744,5.18257231759763,9.031482312585378,6.5736716426248325,5.02147844465645,6.2819214354779565,6.752518052497545,11.705465607844737
0.3309107423494869,0.675319275421989,4.59965261964459,3.222969319973352,8.872927668461026,1.0651173588703375,6.621769870131375,4.966746827852765,7.8372399272438065,5.862423470096261,6.929992863723385,7.068663831287015,2.8243026056601552,15.11680010644385
0.6153483324289317,-2.2742362529169045,2.1554260032397643,0.0639358668023271,8.468947515301853,0.9140026044392546,9.388942169378936,5.329720228271938,5.809967569577719,4.162587115026573,9.018180290540228,9.932853282733712,1.1088746662600943,14.084025000568587
0.3393402856333143,-4.340137247620334,-0.0997189895092368,-2.351157334388844,7.24114143333885,1.3814083787576348,11.421202318837327,6.216245205218156,4.904903339468344,2.830974464955444,8.012579615844057,9.319974547686307,1.816774428538543,8.520776355204685
0.1055130789859831,-2.080061287804157,-1.9401758299159948,-4.115340630261561,6.161550009350719,1.1490180827639314,10.493152990421024,6.739503982803781,5.293119566057214,2.7872166243055547,3.085930239182719,5.593976960756235,2.7204091820105507,0.9906137221285718
-0.5687530296802734,0.8913646003042724,-4.715673472833148,-5.995991351329658,5.172868029865471,1.1336304841743574,6.317200974099666,5.895104620927095,2.8054299164156906,3.826401070155653,-2.1669116628338574,0.0899973288140637,1.1078934383437344,-5.019882357113444
-1.8080168240598649,5.208037000875651,-8.197144594815324,-7.50276761061574,3.5418118832360417,1.6438115139520757,1.2474145772553218,3.534815640685462,-2.3636392284895384,4.854016662724093,-8.72297783749294,-8.406105661515483,-3.636726364403653,-7.514408733592703
-2.4828847344720177,7.562963422744907,-10.041024625147331,-8.904173430649125,0.9575583722373472,1.336690273521777,-1.4939215890241735,0.6888275753681938,-4.764631046644903,4.771315501477803,-11.484239279192856,-11.91577087346454,-9.195189913918044,-7.215421103612396
-1.1170827853844698,4.871678207398923,-10.243981163312846,-10.167897600045524,-1.8785347241354309,0.5323786663737098,-0.5829155481196313,-1.1219206869015397,-4.888249060763631,3.273150470735149,-9.5120322454763,-9.918656057969825,-12.061722972142908,-6.650718347870327
0.6698973050572748,0.6145718421320169,-10.50524806691287,-11.167633815538109,-3.8038000761601136,-0.128901724829693,2.2325545706870766,-1.032480814248892,-3.67220955119161,0.9928587179448288,-7.969526007449069,-9.395087954988494,-10.364433646169775,-7.891796683888783
2.9505879057013376,-6.072380607607365,-10.32937067132078,-11.92477585307634,-4.281331100605012,-1.4769698784540106,3.6902260989415616,0.5127452976859157,0.0459064482917731,-1.0103486746101904,-5.4665684980562,-8.582779362817899,-5.3221451944553415,-10.83802101079336
4.404432139281091,-9.769078964241771,-10.642825545600134,-11.357953610648842,-3.86762818106493,-2.8611106847748133,1.826779124126748,2.0966943289769397,-0.1122316206158343,-1.9704782847430025,-4.366378767369796,-9.86062893329307,-0.2329851676831396,-13.459558572178096
2.060584386800338,-6.704997016232484,-11.73528404190181,-9.331116658215212,-3.5751264163190357,-3.827576681167537,-2.575025904949918,2.305758763028285,-4.42601153422026,-1.8368687838006728,-5.525662877130384,-14.40409904678693,1.919767615466057,-13.747323686373202
-1.2361132864791418,-2.3226839242400503,-11.934437146906848,-7.9562182649252575,-3.801905343213548,-5.269176956734908,-7.085045767775291,0.5493451731254666,-7.302762896517251,-1.1853979004114308,-5.045753522626749,-17.052637496752173,0.2230343699524724,-11.653174886026656
-5.146174941481919,4.349726305395118,-11.470664578978305,-7.070456075391636,-3.9333802021740745,-6.809120538457992,-9.94934971678954,-2.78797648190133,-10.063319952780924,-0.7696022028391329,-3.6134550153791687,-18.532241714232686,-4.104380476481252,-9.275703773857057
-7.3071698758840675,8.244158345388435,-10.595704705302156,-6.431654537824011,-3.0147571565588844,-7.009342446841088,-11.313941134149054,-6.7524849354315695,-10.401161918992722,-1.056652445353917,-3.2135679725734536,-18.58795709098128,-8.820004279612188,-9.051460224494182
-5.261986539197417,4.073475445208409,-9.010710982386692,-6.508676410441038,-0.8115208041328579,-5.79002674125873,-12.407018614304729,-10.337960942094451,-7.274981584405234,-2.0240616359860963,-3.3870124945850377,-16.212922529791644,-11.835411772455291,-11.524853300580222
-0.7083792495721654,0.4002808666128263,-6.604146821746862,-3.4774415593265338,1.7874697313404289,-4.061447724051938,-13.889251367497115,-12.823944214601395,-5.79428448754379,-3.2536679366976333,-4.113069166396816,-12.729629787033272,-11.961168161444617,-14.753214835086522
5.477852903824629,-3.3698859840905744,-3.275358929032947,2.8637365578897,3.409639615891278,-1.0445146879146212,-15.225158074912455,-13.9484998340067,-5.3043441588956775,-4.164702424608464,-5.716573844091857,-7.661779976114422,-9.33931461444072,-15.964900219451312
8.233584661328356,-5.911276696488677,-1.3160965844319528,5.318783707222034,3.292580673871157,1.2508115048234087,-15.557361577489004,-13.982039246794242,-4.229953030572943,-4.2334390743932,-5.293247494001208,-4.32111961785741,-5.526233241688953,-13.959850217049333
5.979824795125074,-1.979244632221139,-0.859787810208788,4.314012852062167,1.8734824759759547,1.4963371241170726,-14.848838472220466,-13.609573087603142,-3.4220796092473584,-3.190604248465057,-2.702478566365873,-3.101837339102026,-2.8055071319550304,-9.988651333122178
2.6890894679125426,1.4976568329117144,-0.9352716333022152,0.7256480433712168,0.404523671398401,2.44291608076962,-13.891749184651028,-13.509548213633048,-1.4442497601840647,-1.2226864966733046,-0.3562297345071062,-2.8869284595735247,-2.7013258116155416,-6.335083587478946
-1.02955578719852,4.316497911415891,-2.1574285963801554,-7.123894807439096,-0.0568845114423481,3.057863872966676,-13.209983134839456,-13.795287420778765,1.8383936052055128,0.9551532814670356,2.3778190779373998,-4.69405162556815,-4.692525908298338,-4.13379461460662
-2.487411581339278,5.870177425330968,-2.23111627812976,-9.576422646754573,0.5180886554355997,2.826191973991883,-12.2002217677506,-13.759509384816695,2.5069895735008845,2.388548130296954,2.9650687241355684,-4.210404375347772,-6.460962903545068,-2.6770546672072566
-0.122610750816784,2.9314872358896973,-1.0042773066365869,-6.328987255812113,1.0816732327499556,3.572448962541538,-9.582510948588238,-12.238909885048049,0.5992019785855116,2.515942878667069,0.8346068789831819,-1.2770177413264518,-5.810276822804492,-0.8000270981527251
0.1657809732185041,-0.581305904125274,0.3066794306478808,-3.1421687130884863,0.2674920824825797,3.691723970342087,-4.746045667466461,-8.4239545826548,-0.0950850005208409,1.6591181811852342,0.3665165868409651,3.0708094092756237,-2.6601118726530752,1.335109179674104
-1.5313940968850015,-4.403587367415381,2.2793137482029326,2.1980973293219552,-2.576357424127755,2.716351320762522,1.4299142860020684,-2.5395621808238147,-0.2582517353601424,0.7969597862627462,1.003571153704156,9.98112157475634,0.8122219857663882,2.1332205748244704
-2.1299433972487067,-5.751770593629135,4.917689455203364,5.246383131248686,-6.780059559564245,2.5061000312433994,7.141635912782217,4.103321000852432,1.28426639036222,0.6652886677441199,2.6849530638438845,13.868726443990898,2.134136429374478,0.3157650748129592
-2.9205395559529825,-2.841323343901486,8.217131821779542,5.204604777486709,-10.578015785117788,1.8147859911322624,11.02526571119687,9.724687441507944,5.3298723761743005,1.0339958948087578,6.289980044082079,14.53016701293832,0.7819489354462563,-3.372283104404362
-2.761732970735349,-0.4756630939441125,11.177766983577571,6.22623847893825,-12.032296434155333,0.1632786234924875,12.977069184606156,12.965011473348492,6.142051102414286,1.020412274751429,6.967845158404066,13.777696427281477,-1.408541052610718,-6.368776240837009
-1.931980113096111,1.9200613312049175,13.721718948313905,7.137492196702374,-10.080490138733968,-0.8318505064134597,13.753747058625857,13.524461441329,3.883472122353146,0.2555292344201127,4.678045423284273,10.166663089126354,-1.972085801159773,-6.256907237400371
-2.6535436852014547,2.254452397876616,15.664889803751112,8.154001797191311,-5.105698155719917,-2.088055521241277,13.949482274401378,12.190548809125964,1.1467829528718945,-0.3629023284012795,3.7978161876713257,8.819837435998146,0.0465162447504283,-2.562960530418813
-4.1088902848200295,-1.0985233887882206,16.662999763495375,9.757826732005814,1.2187681230881957,-3.4656750996354617,13.460676740403931,10.214265882137704,-3.2821380211150584,0.613675601144319,3.4332678790384525,9.939986039608442,3.498537782722206,3.1994635256965207
-1.4952135526557278,-1.0167962897763705,19.429920115613463,12.029436513949602,6.632615947825975,-4.057556418079401,11.878240198904956,8.386374162293109,-4.805562266037117,3.476070256742811,5.429509107927775,11.875710956264406,6.395067431905527,8.956037298324677
4.440323842297296,0.992343169443164,23.993374437185764,15.258590473471596,9.173566574531938,-5.120724618772391,9.230645468158253,6.463157638736135,-2.9073614871553546,6.426042292816187,10.693626899990443,15.944364908467684,7.621626362440708,13.374476683702303
8.486892583432342,2.8671407399323265,23.57643531673548,14.924015234920146,7.937763256903641,-5.483251422613294,6.22137648687057,3.487546118055997,-2.9266727348512407,6.687471773313863,10.815993816063749,15.787630070846664,7.538605285977704,15.959430656343857
9.163857659291676,5.301128626947004,18.243398165994787,10.770354138915852,3.501857754787709,-4.186889589480565,3.738594860870126,-1.1034934508102443,-3.883800697028916,2.9146034684786217,5.925204423789981,11.04808639291521,7.182724104448212,16.366790260345123
5.126467088751237,2.84399793284862,9.749318361805724,4.101257499367549,-2.1998320706725325,-2.715153722763763,2.194274334824468,-6.477812369738889,-7.733730106438362,-3.3276583265092787,0.0002738482242025,4.01564884971506,7.074640221532288,14.136098120239549
-1.324631871143031,-1.83992468356658,-3.589732263091016,-6.350679061180228,-6.66686257423058,-0.1887818895264508,1.3591319559098718,-10.531202104927845,-15.594080946308768,-8.533653878063603,-8.795044625940639,-7.002233454760709,6.780975005336748,9.33167089505276
-4.487742044258032,-4.411255415992457,-10.166770738481093,-11.014050892828788,-8.090040607694952,1.758382687192452,0.7822308072493422,-11.276016169394325,-15.96954640887712,-9.915743854756064,-10.960329535873338,-11.360687891003003,5.489365229519211,3.314001734087649
-2.1652459398671478,-3.88197209249248,-9.251808983856982,-9.272267189217096,-6.416999457405806,1.7418611495402248,0.2898295986609511,-8.430039294985578,-8.818080437100605,-7.408137278128614,-5.44199450966985,-8.302920558982276,2.910947608232698,-1.5304794727169413
0.5776622078721766,0.7136256073941619,-9.152487044483212,-7.531555868679365,-3.444944195905624,2.168887798319047,0.0515929292283967,-3.787432077389597,-0.0746192341261837,-3.3612757075599085,-1.4793417739424612,-5.355818074020786,-0.3663607143825516,-3.320485543662706
0.4622130164486117,5.118928692553088,-7.126555755632237,-3.470925638642347,-1.6833823078092296,2.10157564862311,0.2133709276557214,0.0607888455981022,12.849655049843898,-0.4525656928064401,3.16014609816041,0.048025964868741,-3.355433160205457,-2.298528285980668
-0.8630550470536769,5.75705199627092,-7.879549764523674,-3.16153001918214,-2.6441205971307395,1.3387467452003976,0.5462635788797012,1.6144360152353503,16.606396542601985,0.1972134617168963,2.802304134306953,0.5906857057848584,-5.4781780127713,-0.9481590514866988
-3.817842265720934,1.711158952426325,-12.630491086294954,-7.674635974594071,-5.778501471368043,0.8727316010504067,0.5084361231906644,1.3576353266421917,9.633915549066794,-0.7491437884502421,-4.408974098802274,-5.095058539669606,-6.9243855784363415,-2.154921667485165
-6.331439138107597,-5.732450020235106,-15.472714096585714,-10.889999332680803,-8.90049088189514,-0.6123355576650529,-0.3285564507366754,0.9739229246753832,5.377724589921539,-1.9953751934136577,-9.128351946730222,-7.889467261003116,-8.237642268036163,-6.7616529395023
-5.243870273818646,-11.843796808416998,-17.688351996682847,-14.386255279163892,-9.797926859726516,-2.8713571444732486,-1.8858568175254573,1.714423733134181,0.702839222327308,-2.774005513714957,-12.942741915505,-9.569902791444164,-9.575780330275473,-12.655466399277373
-2.751414000247184,-11.69460291198221,-17.195444841441248,-13.64264586800031,-7.769731951545472,-2.8756313978645367,-3.546587082638558,3.429901828320663,0.2041040049485939,-3.0719261406042584,-12.790681899303902,-8.939183839978593,-10.418150871571418,-16.343388282710254
-0.8513139110629215,-5.446843440674059,-12.90880099665017,-7.425299407779278,-3.897793710956205,-0.6701362479680579,-4.476430833025329,5.025907521960697,6.269282117971038,-3.1233583125563644,-6.723933455978732,-4.390429251419642,-10.020545589739452,-15.728323746790744
2.116994995883673,3.1366721715273505,-8.158460979534732,-1.276924480635465,0.0392864668074075,1.8896931606661371,-4.045363108319455,5.71701580258032,7.901412965787083,-2.9594336323263413,-2.421353470334114,-2.128681632471332,-8.118213558046294,-11.612256833010903
5.143856271644276,11.737337733672746,-2.1427685424782394,6.132197001255674,2.947984049396105,6.43623606393664,-2.138952760006008,5.770532784371108,6.476109260087043,-2.4290819316183097,1.2242693228000063,-1.6218455491324903,-5.125139156958099,-6.618409700639926
5.753758266345715,13.506031785029537,0.697648888777671,8.799323469818772,4.880374758682706,8.416098185709497,0.7139249051066905,6.04854130491999,4.776339558370201,-1.4555703150254151,3.5531218939025333,-0.8173176236353653,-1.673793231681124,-2.710060824310468
5.0381479762030805,7.498996658025408,-0.522019543942011,5.365689370046414,6.330819587155537,6.105090990752931,3.446689650067647,6.90273289384902,0.8957169964102619,-0.1412252495572481,3.062659686833215,-0.8684074516757011,1.9017564967206368,0.2097899042207487
3.6880164541764007,1.717822194397136,-0.3704174086558848,3.9700688282846026,7.277886665981942,4.742009624180456,4.870711487583129,7.618057186312967,-0.4953353155791863,1.312430583475411,5.7901060291537805,1.3749069497380442,5.511611550831603,3.3756251374698287
0.4241164633658913,-4.939872181115331,-0.002889161271323,3.05123401517208,7.070509943041666,1.1511801125225445,4.325503028898936,7.02952209679075,0.8411971425380526,2.6269189602744234,11.36562950382544,6.179806485866303,8.792263166159309,7.148602781137413
-2.4926299821235625,-8.144198087538237,0.0318025687036945,2.057103115504308,5.307416477042461,-1.7997140516914691,2.1725228371552845,4.724369258751327,0.3050288572947129,3.334824478350264,11.873612601147109,6.329487746403666,10.83671588141738,10.211367255818782
-3.4058131468000346,-4.296783053275397,0.5023146444728996,2.26276880985662,2.7376291431838204,-0.3505348724951841,-0.3539832993817544,1.6038250003246866,-1.218147554109397,2.78888183759571,7.914107354812821,2.0647669714527224,10.618077829914473,10.80725423543898
-3.116555708034737,-1.4751092077510828,-0.0752804934686701,0.119906923232646,1.0838407222867446,-0.6644041587854606,-1.994611437623416,-0.821026858160053,-4.721211081059331,0.5393213837342508,0.7741559866024366,-3.1212148309575496,7.761099105928009,8.57244692626731
-1.519208997758022,2.187929123487349,-1.6225384333349764,-4.236294984324112,1.7300698427731265,-0.5929734315950957,-2.389614492766785,-1.7507861411279215,-11.081735018400014,-3.098249617165017,-11.310741526806842,-10.74528016436987,2.9516425980109613,4.929889113087016
0.7780716553728222,5.204407072260945,-1.0074497140505216,-4.604938902347896,4.400808745855663,0.9351223870489128,-2.248428360046752,-1.7280224537604028,-12.366585716252212,-6.835747208288577,-14.187570792549144,-11.652587980103563,-2.298896716093616,1.707411009822046
1.657430841657321,2.6906388208737755,1.755874719159513,-1.208141226736032,7.109349969337895,-0.2870209698228216,-2.552560992774524,-1.9228078116869296,-8.497697304242989,-8.943223498058767,-7.016972742118781,-4.774184727141144,-6.211620505356311,-0.3826878932135251
-0.1445240485402957,-0.3144151988260421,3.0408039749568507,0.7613724158866962,7.571605366796906,-0.8903111538967325,-3.509660940749228,-2.7811377214753747,-3.860040987250888,-8.256700763654585,0.0612011942886351,-0.0227255151018404,-7.246709443685038,-1.7410570610992728
-1.6019574118554591,-4.00674004201244,3.3488701176687554,2.38945723478732,4.980190777322118,-0.0259399340018872,-4.272433777601645,-3.429530952129337,3.326298490595916,-4.914969610945484,10.374040763373609,4.691439153911666,-4.567991474397985,-2.566668002986262
-1.9197322139109605,-6.332931724701021,3.239192756433171,3.4786296804381163,0.6993872614429506,-0.7855289156638563,-3.7249113109432272,-2.50322485007392,6.169144452677861,-0.2570248061745843,14.254160062135588,6.737550276070928,1.4278923009614497,-2.0089063007917822
-1.079916800014522,-3.0279469204732825,2.0365902506248013,3.1598620159927964,-2.660363351415878,-0.671668103430774,-1.5987947992504203,0.3748872436112336,3.7467934905525873,3.991331122794072,9.796024627695838,4.30295429845373,8.824535496975127,0.9895015791062818
1.6494768689760386,1.1293040150228748,1.6203582389305586,5.811203421836394,-3.0386269438866838,0.5618766710426385,1.151185888068344,3.939970023107193,3.6030964798976575,6.578031781961773,7.418205568828228,4.667792221842861,14.723840203966224,5.991556532789078
2.2465654817081084,5.286687149401068,1.9788922730198608,11.382166643442472,-0.258539533901633,0.2188494395021838,3.079665924721482,6.17155515355676,4.135873367954091,7.089729768673642,4.545381355246479,6.905180471817248,16.673106055814724,10.570842227932737
0.850173873559792,6.679212922248832,1.7528107026996247,12.699961586131078,3.953743806941063,0.2050233716376595,3.417078771500094,5.951070191882749,4.025147461288805,5.83430774776355,2.3777612490802253,6.677802701859562,14.099124272383996,12.0068502988568
-0.189104406810125,2.4059062419933435,1.2920984242619895,10.186585968985646,7.111000514674881,0.3051753779144117,2.6222605345365224,3.96685490386162,4.296703336287325,3.5924060162201066,2.4073011651341054,4.970991583599597,8.576782877833672,9.794642791177177
-1.2483858485697945,-1.452724418820996,2.2167323542549786,8.058679439231431,7.417466206180165,-1.0634298655084289,1.8676825004870812,2.03986567992267,2.840354649372423,1.408885446727176,1.706769732419474,4.178307433972926,2.647687089181483,6.434135291593352
0.315637508249279,-4.888530622782672,4.510906638336171,4.974967386735899,4.672166512048602,-1.8281129059866916,1.962618940919807,1.4948286561203403,-0.4203291221614681,0.2686424693628204,1.0442505695820714,3.847815535966052,-1.8287664517604652,5.382381168269742
2.7848785163001297,-5.683440577196192,5.847952210247924,4.16639780180128,0.2403881349963015,-1.935899485710149,2.6719650516897087,2.0468725077758734,-1.9174752589853237,0.5784164116998234,0.0395880120900106,3.914039467104243,-4.4525568718754815,7.804866346307973
2.5825246301111853,-1.7271688520611257,6.450251239357438,6.403735948715947,-3.757933086047181,-2.376857447639336,2.994907105627515,2.1654496445514955,-1.872646072000837,1.8006136666559431,-1.6614319843443348,4.829768979594015,-5.763909325332811,11.15394882690922
1.5680476927529747,0.7014705649813422,4.708958472917834,5.099689818560513,-5.5611348027143865,-2.2558691143292022,2.1252580364508944,0.5394942283256388,-3.154759479218954,2.7364550081420944,-5.495381917513041,0.6498243186617715,-6.225352651763407,11.129336985162048
-1.1262162903554052,3.266353840813266,-0.0686005742104838,0.8611553509302433,-4.614533417922484,-1.9090342979472408,0.2473594683226014,-2.672664866131297,-5.187369246896339,2.433026444682209,-11.883541526238682,-9.01867036770036,-5.809885356159105,5.485831548610141
-3.706843564850874,4.317892282116366,-1.999958194787742,-0.3266986670642299,-1.7360128959044872,-1.827993913934845,-1.5225062370519211,-5.880136484496552,-4.999408892763398,0.9753094164456436,-13.050398493778603,-12.026071330130694,-4.4812217241142775,-3.64948511148504
-2.9477087330474623,1.3177555372989338,-1.3161086280745515,0.6844917978609898,1.458401917880817,-1.1475612926784453,-2.0055492061961697,-7.304210141922583,-2.771894658089008,-0.6095742805425708,-8.855468205632974,-8.99406202695097,-2.8360680217448806,-11.055558368606656
-1.7259423976756687,0.3098424216743994,0.5247373539220432,3.356782245237089,3.499858025237404,0.0091632168195551,-0.9083855306069886,-6.338091900193912,0.5055064794182956,-1.2869401714714137,-3.197368112302498,-2.9056517022977943,-2.0117231529890027,-12.247961877041805
-0.4244818549573413,-1.3493992337126164,4.860294390396481,8.857251444175501,3.799151151066692,1.1704923277695458,0.9470488060792674,-3.900956264436391,5.488287337626648,-0.8887740573401905,5.766217278175875,8.97031076210273,-2.76324333224814,-6.674294793331141
0.7686576482746101,-2.709726674903628,6.368069117747925,9.481619495613756,2.7628033207003586,2.101232612097694,2.286319125328486,-1.588398882564129,7.199788066831029,-0.1053289624079087,7.9879620646217555,11.900598186389043,-4.5552475537671855,2.1672538454246
0.3796124039494678,-0.5790794682731552,4.843154955359851,4.912301506174547,1.338777020739033,2.6472229890443493,2.3567485218447644,-0.4352197920020382,5.215441483675189,0.2973148659908444,2.3963955572690785,5.060329235935331,-5.649572468134028,9.398581276891116
0.4572747346091091,-0.7190572684749764,3.9290626271058113,1.7702933616982028,0.3899385064549272,3.016397053116181,1.411586157561537,-0.335903247055989,5.208457911056584,0.1670080413628003,-0.9854790098961068,0.8273342259151698,-4.34191437047007,11.830576412825351
1.8226686889749588,-0.5875345592295058,2.4512816070219845,-1.5532038095306195,0.2908165602051653,3.1992790734482144,0.3793926685053161,-0.4842049952546787,6.1536725872625695,-0.0895388080536356,-4.47296786520418,-4.005281217838212,-0.4376497159734578,9.257375801650928
2.2658125748167315,0.1125500193528972,1.9341924189716972,-3.150484750993242,0.8816849200311072,3.634534684585396,0.0826983246487191,-0.2832684320805736,6.0738466648470375,-0.0922092946439239,-5.866593531344819,-5.478286756686728,4.277042801486205,3.6564816801101
1.1635097185063288,-1.332516788635953,2.878276598942088,-1.898598310335697,1.6757428464071644,4.036822186267998,0.6542442007107532,0.1410201500207755,5.7539158123047445,0.1168301905837339,-3.495931537626614,-1.576199510372348,7.08339796112049,-2.4911566168064
-0.7016349231697148,-0.1201857310154456,2.434548750534023,-2.847298905222474,2.1602885087683905,4.166668570013644,1.523994525524536,0.2117449145604908,3.178386315967869,0.2430136801109572,-4.211498200697721,-2.574522707066513,6.210234100732622,-7.456563829515517
-4.180167753157792,1.5011268027558304,0.9691197380584744,-5.414353616082118,2.073496627006328,4.450596338374025,1.8805582003349244,-0.4053254249588107,-2.014763589438959,0.1682889147672952,-7.254762215864403,-7.417453989866764,2.179735224655744,-10.623826445132105
-5.863176407246763,1.748251640170317,0.0305278221217283,-6.103146708740502,1.5424556930876712,3.823137656544416,1.2570391245105943,-1.379816867332977,-3.653313850146778,0.1140560771635073,-6.6331914921570325,-7.959456324094877,-2.382991174626497,-12.161133783106422
-3.498380731460067,1.8938192215732776,-0.7898175269262131,-5.58768886799857,0.9717822262599752,2.6190455300440423,-0.0983811904768394,-1.9503750544899996,-1.8381350355408868,0.4034177812930331,-3.14369341269243,-5.5519241018862,-4.400377688341571,-12.366586129093667
-1.0694066334399126,-0.9981684703359804,-0.4848715216039174,-4.661413482012797,0.7050318040711154,1.1817620562782287,-1.2963064296863678,-1.5944979714895666,-0.4409368842519174,1.133526059809327,1.268497882230751,-0.3423435607398427,-2.397081464162234,-11.089151644997038
2.670615438933938,-4.392848448744736,1.2675605084603192,-2.7819936169931707,0.7113407263520273,-1.344285860056099,-1.3798628641993955,-0.5434463530129108,1.7983378381379909,2.0897514323862367,7.665862645937346,9.21866747910551,2.387906825248848,-7.707208140837828
5.991031930457829,-4.533571570586091,2.574564050617309,-1.737739448683203,0.620857479863524,-2.2284825693580834,-0.1278003747481193,0.3240150356725024,2.8992230595029587,2.92821463109577,10.412505884558763,12.823285182935066,6.6738597920725695,-1.892086693671274
5.57811477062292,-1.4468651493226752,3.688974805247849,-1.6571668955747043,0.155073370188127,-2.054276396251873,1.520728002593536,0.1844837584191125,2.2849524598845217,3.424108055080737,8.951530095951744,10.190604790146946,7.3823369298857315,5.379874213283316
5.1603483990250485,4.546357511862807,4.134996098499309,0.3710999626482607,-0.4369884255053335,-2.266453085325914,1.958712862030474,-0.9603349212867442,2.712589978300844,3.604724357609456,9.4265971066963,8.708236523430207,4.082156803524107,11.68445633062352
3.866665283117949,10.83396516035987,3.491266804815261,4.096341554755379,-0.4498990657292552,-0.6325523419385497,0.1609933231765836,-2.115880940574229,3.6389511897441,3.699333986343895,10.619144875450164,6.153889092115612,-0.2560692613654609,14.48045623903048
0.5491663682876005,11.263666930706917,1.7119112808579795,4.047085842663228,0.6127189475717358,-1.0719743754934252,-3.291559391361467,-2.004680767603084,2.4991759563461096,3.9203253589372906,9.210163966171775,4.178921154163475,-1.2417453018445317,13.06098895217712
-1.7980637876786998,5.093599236479932,-1.5700511885280386,0.3285670988580952,2.332862577286825,-2.809911653595951,-6.454746334475104,-0.2103716385334308,-0.5330623223485159,4.185766718083251,5.862163963834066,3.7469058722000255,3.267248403606189,9.310096549709876
-2.3191867969216657,-2.0673677895930664,-4.498095913977318,-5.314066260278808,3.3763072965411998,-2.94739766523223,-7.544332606423787,2.1812586380665664,-3.515972633298478,4.022170247463563,0.4243367924720939,1.00649473308868,10.69928924148664,6.250186034099642
-2.7981000270622767,-9.224353899684028,-7.1226908258130415,-14.18873417975035,2.379824505439132,-5.528167252412941,-6.481283602969633,3.1371073959455487,-6.895665553817983,2.8548343016921933,-7.728806934043666,-3.52781045266563,15.030100032140098,5.43450533875702
-2.216268287810188,-10.90296858476599,-8.727054810347747,-17.152313646947103,-0.9314809923027808,-5.883887589007234,-4.985752374506994,1.189477660436765,-8.16559041403996,0.5674087780831769,-10.690937603274572,-6.522221757837055,11.369707989139968,5.555531638242215
-1.349812589998065,-5.6921051974709735,-8.761880918519358,-13.514873502608566,-5.358313135404757,-3.846722715091397,-4.990213386811007,-3.224960477622517,-6.769057252730197,-2.152256826143088,-8.016843850282681,-8.377035653202237,0.2837427082998545,3.7034233880837206
-4.096263971278653,-3.094575729927167,-9.992269122596964,-9.787355249989984,-8.939933439667925,-4.021402457312734,-6.760245988413942,-7.755171892402075,-5.504546194078194,-4.109347564189477,-6.777195891954765,-11.360663003158464,-12.041280203985764,-1.7608395834135138
-6.014010709366431,-1.5496766948076557,-12.19064307180882,-3.7398150540384174,-10.186804014488928,-1.1473105990696504,-8.503709309007192,-9.623029231762487,-3.659453835135716,-4.4164625304827325,-5.255055238657597,-14.975317428635304,-18.29382335720139,-9.366280525134954
-4.826173533187117,-0.6445674046426513,-11.32433658231947,-0.6528837830511108,-8.861553677457778,0.6998322901196702,-7.93478210342235,-7.557573054599231,-1.4702112356048678,-3.154002634057406,-4.403349837143928,-15.028830420846417,-15.517310190564912,-15.480314003612534
-2.072069870240268,-1.825473213111232,-7.599460421755944,-1.594409248689276,-5.837814888470717,-0.5543502336711504,-4.42429816804102,-2.7145259811056945,0.6852418641842221,-1.27832615327344,-5.305447294081428,-11.461028860306268,-6.935232157773157,-17.197419679107114
2.965324702684561,1.0770102396929797,-2.411956582000222,-1.453787867494094,-2.39350862278026,1.0004837913897298,0.2396368257344932,2.119833925527587,1.772115876691308,0.1422017082641531,-4.31920426763878,-5.931226216071727,1.1950630390221164,-14.534396505845336
