AF3,F7,F3,FC5,T7,P7,O1,O2,P8,T8,FC6,F4,F8,AF4
-1.487165795598227,-12.953562538855731,-6.6098670761580784,-5.650649493944101,-5.381938755022564,1.9213371096849667,-0.2006161241461854,-7.643584163104549,-1.022769750923494,-10.1911068173446,-2.3979330580939697,-7.65244971460938,-7.00988606884366,5.376531263070491
-3.693621899461256,-10.662963762627507,-5.135351163679701,-0.4829893427406668,-6.979171903695375,-0.1472035311147241,1.605804906861974,-2.785986123480863,-1.2058414923242091,-7.07194789039459,-0.7446334712521117,-5.009544566387187,-1.5189564064241656,7.178492925299421
-5.650689383799458,-6.780112709982575,-2.932602115275052,3.756274663170549,-7.075763569768419,-1.4190205062252352,2.7586020591852587,1.4823174593571666,-1.2032766823090846,-3.327823899692808,3.04420992693688,-1.9981916917928428,3.038749949833792,1.487531136751203
-4.282387095809707,-2.553663515013546,-0.8028402898954932,5.091096051548579,-6.215971245965499,-1.0084235937461998,1.746193804145738,3.275893734168754,-0.3173483006941651,-0.1210191988256883,5.9993399473882985,0.0428951582970835,5.537999448206852,-6.032116379720662
-2.9817273595668508,0.0710663474997861,-0.0624061764250774,2.77705638647103,-5.571700079628379,0.513186932428424,-1.3592330594063138,2.2945694632614373,1.2296223343360175,1.473769808557538,4.898175730732991,0.0776607387787207,5.804889432237816,-9.078233492205584
-1.7481724545756836,-0.2827943807687041,-1.365049650433258,-2.1224521877500573,-6.147480488735709,1.4355446913381646,-5.446576780029057,0.1089034224197504,2.517423406623866,1.217750075834139,1.0115629412981932,-1.4065534027188875,4.77830053853645,-4.810369419119667
2.2990405781752123,-3.2110402706821928,-3.787147839076419,-7.198336745803768,-8.016868748804878,0.3734108680588033,-9.243071877843814,-0.9629807554346002,2.8788183044657387,-0.0473349196456789,-4.277923444733346,-2.292665619935798,4.039370860883548,4.615833479707141
1.8976887533079971,-6.550555988580072,-5.22243439275974,-10.091187861115982,-10.120328261653976,-2.425708818690573,-11.68918047630795,0.4857816424660193,2.5947493570457745,-0.8244058008726443,-8.09531225095293,-0.2457357233320225,4.8387457648848695,13.83092609264104
1.455247782675321,-7.855614128616416,-3.9556900516411377,-9.908965670037754,-10.870817088689062,-5.170324413091235,-11.963089607080017,3.994946068182381,2.611061498456087,0.1410789269322032,-6.457053449439959,5.323847104550324,7.190402507276128,17.85864329452389
4.09013183045999,-6.211161503523934,-0.1109785576487309,-7.632440369226861,-9.26123782797706,-5.976862007019379,-9.791586828420597,7.6192641218770305,3.5616740123297013,3.000672436656574,-1.6447828406796328,12.355883440581591,9.765977079484433,15.064136734467896
1.4329033286708386,-2.859134206357715,4.329487706175024,-5.219195674309448,-5.698560554565704,-4.397371774849823,-6.041262044879615,9.299727991384692,5.074970036687249,6.588722885534881,3.2001126413155463,17.19939139539044,10.843507720268942,7.7444980301487
2.3085009270460293,-0.0935392168031623,7.033067354874059,-4.088034554857797,-1.850810811173119,-1.698453277628083,-2.724324965246743,8.255074900120674,6.047853395048716,9.135140767483026,5.750604814364248,17.02937846477543,9.649765399869674,0.4183237887912812
5.494680435886586,0.6278024890632976,7.132918748256759,-4.080251912839322,0.504881464564586,0.2678753510294953,-1.7787127012050856,5.501119252901365,5.631900574195152,9.497584217961494,3.841120404040961,11.912010900189983,6.954073586638317,-2.7807965885143293
3.424673732612643,-0.2407777603774912,5.852491046385173,-3.61509741550826,0.7897458260017229,0.5358726744177069,-3.331994158813459,3.1970291766311707,4.015751243353692,7.976983277747143,-0.4450941584133142,4.969591900900387,4.364878552709142,-0.098650611074933
6.39296857467676,-0.9190093021078932,5.399101672559649,-0.948915756024456,-0.0056877921412794,-0.4071160819273918,-5.148055096839609,3.222419613190279,2.2940303251942384,5.99345648785501,-2.5857396268254136,0.4014146605966795,2.9829592946990786,7.158403159613403
6.9069420859896615,0.0227260680975875,6.983086643186191,4.27467450145278,-0.27139200272258,-1.2945591530207052,-4.220132704721441,5.850973247051456,1.540077642416578,4.825527765872906,-1.7786042013158174,0.6391533477428499,2.639375037925125,15.189095679534027
0.9620384498475768,2.3303202293990286,9.571997937190746,10.273710391167132,0.7210720190519362,-1.250476328670404,0.5577619093902755,9.387255645652628,1.8876521340681796,4.483821799913716,0.4802680502983154,4.600974727122611,2.276496837920183,19.22771817380766
-0.9869195550126156,4.157009435042779,10.492884561507497,13.894869992958885,2.10573493190288,-0.4088762564123069,7.035386311586401,11.12080284625318,2.4070042767905875,3.749946533689536,2.835609688267489,8.353031090502256,0.8882361223673669,15.730147042871048
-7.250241347685153,3.484623634486816,7.561157460411053,12.6335146119601,2.215894186302757,0.4378785472821036,11.245428710225124,9.121060782165396,1.8824626798262285,1.3903798523676238,1.5942319199126147,7.852775580362822,-1.9024416456470716,4.510935127512137
-12.849835216186811,-0.2467789655003205,1.0865194548668686,6.5821092605267015,0.2492918316991224,0.6931479963809721,10.616131688324147,3.7172184952318217,-0.1524582761313613,-2.539345496074477,-1.553239326906222,1.916324777769808,-5.863787493940553,-10.42414701422062
-9.945388162947957,-5.544292639317966,-5.982084599781604,-1.2530698263797353,-2.70469935784433,0.4880052423528078,6.186227336578506,-2.465357548239555,-2.978978754776715,-6.5131786730926295,-2.018488717530549,-6.741806437875924,-10.304754409093018,-22.41912256729104
-9.756913824635705,-9.745070314156768,-10.090269811931066,-6.7575645619628135,-4.307724915482014,0.4643482336368683,1.7989939019989585,-6.13778038948943,-5.215229630218508,-8.670697728366147,-1.7926573948197773,-13.253631227059058,-14.063608827103128,-25.75443938107702
-7.724030532476389,-10.721180127491245,-9.726438316524591,-7.426108918566618,-2.839085264539209,1.0942770398281834,0.8955374088195129,-5.61299252228341,-5.864800835823418,-8.240842065334977,0.5683253046961838,-13.93888042921222,-15.6957541737875,-19.2161871020591
-2.296772752387655,-8.169350048370562,-6.441237918770149,-3.921618237939191,1.3125731729074357,2.195763988143762,3.65894243485746,-2.032348564509163,-5.031566263597807,-5.962262111651839,3.488766474964545,-8.805765950027928,-14.247680868699288,-7.114292995372843
-0.9628622008678936,-3.6003223177495767,-3.306042877442024,0.7157573224629031,5.862762119617682,3.063612860411861,6.9467057572027855,1.474527371417394,-3.737460518123368,-3.1885437955656397,2.121849960345174,-1.3691491039578811,-10.184778504372508,3.24247025648987
2.849998616898996,0.8505117744851849,-2.1472677579356056,3.478338236839157,8.394334090650862,3.061189011170695,7.008339801414678,2.152964824086552,-3.0392737647162145,-0.6333145587690536,-0.2117828445474942,4.006123475978241,-5.441037941004546,6.097272921271047
9.82467064040688,3.807148368214731,-2.052959530144134,3.441112484871769,8.157008699407559,2.1384450882663657,2.621769243878023,-0.292813778397766,-3.2067160320580976,1.9877663614454015,-2.7865814480335747,5.1454225799015685,-2.171264928059122,0.8182953940828255
11.433969147270783,5.222475228640986,-0.5239315588759998,1.970438831097343,6.411023155703865,0.8500140439449491,-3.962306020078203,-3.5406055088995103,-3.624014045283626,5.148369718035345,-4.337436353224245,3.2088503415021123,-1.1302422261619751,-7.82048535096698
11.115905355560315,5.907110649022782,3.807811256874776,1.2574310115965277,5.1634410543557925,-0.1062174155592711,-8.91392432388082,-4.531634360639147,-3.426629676735338,8.526513324416216,-2.8741705287994077,1.2849090298709989,-1.1625036280509766,-12.722902667771494
11.591872801272958,6.65011263779164,9.46487427321275,2.5816645483646883,5.52466549733364,-0.4330184885041337,-9.831639061867063,-1.873121099776485,-2.266521146245603,11.027876100220244,0.0250463088555554,1.795404042109758,-0.324192294704634,-8.899287645803387
7.102778909223487,7.730309771026688,13.089176661637245,5.578709492730803,7.066512038272238,-0.4375526880628065,-7.373937500843932,3.122428304133264,-0.5469722923507065,11.877893806708608,2.9443777634553885,4.812736356947127,2.376318531514803,3.406710198139874
4.1761704808045845,9.037959781270064,12.270479779928957,8.710944189712748,8.4828744840073,-0.7578075307284238,-4.35833751034693,7.470165777846242,1.010461400557413,11.56980601369228,3.165319822916117,8.379743636753176,6.14753336951123,18.60243125362993
3.977645056114401,10.37574958941406,7.665238664893265,10.260170700534037,8.688136475289332,-1.826179771764613,-3.312192499958716,8.670391364622127,1.99995442532171,11.47122254388858,1.2482188923400075,10.212251551381248,9.0737246707739,28.65382435589927
-0.7485552192125601,11.468314047395769,2.45143136933946,9.127554308005545,7.351843417439233,-3.4583615622110164,-4.580667178148204,6.293674015130413,2.5641222848186254,12.298940405148455,-0.1833275727891193,9.250712995418386,9.499470545513775,27.47946222885377
-4.271083271548599,11.74949715338127,-0.3948980061959188,5.224984397496851,4.703093041106387,-4.875348448405406,-6.404884785469821,1.948278021629928,3.05562640020442,13.029130411208763,-1.229306389908439,6.00696043308278,6.95543283415139,14.515145287712254
-5.212924786422472,10.431233481846778,-0.5228828573132507,-0.4203751625700151,1.213069999380706,-5.182836405383259,-6.647706931542125,-2.076891032143233,3.5354377422151084,11.585799330052025,-0.7850250766964257,1.82871274511154,2.139927913094617,-4.573315074264514
-7.298560996519694,7.129062077319324,-0.1495857115949626,-5.834721530737722,-2.353216222007657,-4.010178793780472,-4.5817535776200575,-4.316169722415515,3.662648480812966,6.910172042442845,0.9217903221963252,-2.04583540764669,-3.624922617067384,-20.675905848235544
-7.020787262794352,2.6215382658356203,-1.6562809540216437,-8.728806702965489,-4.7687491665570985,-1.8478507054300304,-1.3119710849884396,-4.745083659309861,3.105074067082682,0.4767809680952033,-0.1484871202205751,-4.941641221079633,-8.82360384282852,-26.203527536452444
-4.9534539053484,-1.0813644987591065,-5.133264748643661,-7.607562113406784,-4.690973657483649,0.2161123659329035,1.3224256147181743,-4.315118484615704,2.0269008124989165,-4.363538149849546,-2.347996926956565,-6.670871209037389,-11.901687839229488,-19.41154155857171
-5.193584839857688,-1.765977136574299,-8.173288690355175,-2.827163761597876,-1.6274786559321175,1.231549018192144,2.2854402690754165,-3.983849682669018,1.0964987875046366,-4.863399753805037,-2.4539654996203657,-7.315552428067097,-11.482726322778356,-5.329071721042758
-4.221305805364848,1.416786254601381,-8.084940577466979,3.263948000448922,3.254501397831723,1.0581285079108538,2.013674117150051,-4.025055763297291,0.942529679806904,-1.0855744980592243,-1.0232773790481944,-7.158008157424289,-6.9472346107202245,7.500789135643796
-1.4418817462985942,7.030912745370535,-4.464001517889003,7.518707387643309,7.43586803422624,0.4247522412752542,1.7733757835562671,-4.044491539223747,1.5782960944089182,4.075503901482634,2.8182952817151627,-6.700331630010072,0.855591902083563,12.483646980392106
-0.0835529979754324,11.94294075197702,0.2092984015381744,7.876049915449599,8.552401998077215,0.2933304523955864,2.403779346777113,-3.554808619894029,2.3817066930725663,7.051629393209559,7.96138913712505,-6.55669248284667,9.43939000886789,8.98117961375819
0.6562474317039964,13.172169432838649,2.4323152769259817,4.554542056859876,6.025094227770036,1.0375333978517265,3.603091310260061,-2.5715621763612977,2.660103030742885,6.096971131223229,8.856965685350032,-7.156747030804255,15.561438663702871,2.0779576426894115
-1.304392784191461,9.752764669528,0.3330068538244464,-0.3954331220011546,1.4695481821901533,2.1386988753442453,4.335214470095959,-1.7164070284929045,2.2334749961389093,2.161022149340561,4.587909655862347,-8.456644075714959,16.86510791423052,-1.6722751633772184
-5.843429751849016,3.279073875957388,-5.077040967947227,-4.7637067983135495,-2.5007581524211804,2.6730932899485564,3.877361077661372,-1.7356321856375292,1.464490780075652,-2.3036548227230007,-0.4379526494632787,-9.927500594615497,13.22123394768868,0.6636983407798276
-10.528983521349463,-3.2445501651174524,-10.866240989980284,-7.615009991225733,-4.117589890480732,2.160251006203485,2.478424851677436,-2.8616042626157925,0.7539291287748611,-5.381625991204634,-6.616063563617376,-10.900356626734393,6.725371625265142,6.263206503708081
-12.565302043370169,-7.375206266393657,-14.345254094593392,-9.350979714077877,-3.4846429321802206,1.0086202062473952,1.051294444808791,-4.625381235874731,0.0643935338121322,-6.93792256659792,-9.784374473528398,-11.05486145612512,0.2811607888233998,8.883047362955173
-10.149651289791372,-8.576987399946407,-14.68572681512746,-10.64224950347537,-2.0896549344062434,0.1551291031395678,0.3078577211656672,-6.347242710844581,-1.025961703750475,-8.31715478440929,-7.029573181745054,-10.684076007845904,-4.160159615715244,3.8162121935078535
-6.5422913886814,-8.047102928352206,-12.971538153985051,-11.4757195287224,-1.3966997745002367,0.2327262237479745,0.249734759391115,-7.857523832531584,-2.8097161019275463,-10.9895866320934,-5.138335443057919,-10.502358969766856,-6.381377466647346,-8.241481593945101
-1.4854057303255972,-7.354341240627495,-10.9438234023706,-11.207160999245476,-1.7737632131943837,1.027056906992672,0.4445178655931915,-9.676479590996484,-5.008135225729873,-15.24511199770956,-3.2245681511948177,-11.090512977229682,-7.290928181161648,-21.190914343757463
2.3081681756351142,-7.106581953246043,-9.529817103206188,-9.31839421090123,-2.529346804021602,1.7054416786006272,0.6110891805805223,-12.325213063484592,-6.8367608253847525,-19.79302623522311,-0.6671004701097704,-12.351468262096468,-7.705704439826992,-27.348469693630683
2.4238947915582885,-6.698736820233669,-8.219639823423165,-5.928087105533258,-2.7730836658338403,1.586962468379915,0.7477587331187867,-15.3362472605962,-7.521152549104659,-22.438483268807357,0.1024468802907004,-13.365592418760375,-7.654831928375568,-22.44218209314897
3.461000335289188,-5.164827665209541,-5.684932791912597,-1.6061135948491645,-2.1913469689461444,0.7444121535255809,0.6960447136142776,-17.015808397738276,-6.821359829475798,-21.369014836382185,1.4838211326306685,-12.781287216845264,-6.618474357145939,-8.443487954294136
4.289527125201272,-2.219706524694121,-1.145668078890563,3.0668070046697635,-1.1206120452129378,-0.0893924334046689,-0.158421122904671,-15.463183533835258,-5.164391618538812,-16.27137856106712,3.842647000045143,-9.5387963284247,-4.204135518146783,7.635574815117868
5.134953746327619,1.4590534369063246,4.607016694779761,7.579832567809232,-0.076664430270629,-0.1984834304114231,-2.4156183585769435,-10.155666233130953,-3.321716605398569,-8.595257213810513,4.560739524264706,-3.527944794798901,-0.5592740359686408,18.195964140496088
8.313520203212956,4.829239945299751,9.46946048744352,11.234575724867817,0.6612695928618997,0.4725633317590795,-5.7463343792203645,-2.6934271498370004,-1.8893811872463917,-0.7722255417473365,4.07965381100383,4.189661150438555,3.6775455112685167,19.760551250881896
11.073622499510169,7.248627944792746,11.523866926971346,13.104042369696916,1.064611418855057,1.2603731938385163,-8.597362756162335,4.117874772958119,-0.9329588973177464,5.12923382840068,5.288281971469593,11.741679250715793,7.622197079876516,14.67290041876839
13.55288370046186,8.659639796083338,10.606420511836326,12.509564408443596,1.1579504845706134,1.3365425831836193,-9.125497925480513,8.200430410011291,-0.0436911755491875,8.412700054633133,6.507241126899614,17.23422713040015,10.376285771104277,8.637194041541624
14.6709717557177,9.178252147184663,8.542345722969557,9.648814161872004,0.977756201154693,0.3848112158821797,-6.694635144914767,9.519016305105165,1.2177166287567052,9.746409984570752,5.809612504167104,19.57629961742784,11.303252882801669,6.137394566955504
12.839571362046824,8.738899262298318,7.71034737926013,5.764778894107154,0.7280372892192368,-1.1639894799234387,-2.547288855847298,9.650878686441937,2.810534488594711,10.232267159009174,2.6337717345002183,18.906639369781963,10.380542676682635,7.47852803331314
10.051781014421428,7.314694657729045,9.110786180959687,2.653301977610869,0.8110398966585644,-2.5069464248360065,1.05068719802526,10.0745752865583,4.081722584217323,10.380930661802694,-2.3045472760708887,16.403561449506345,8.35759694407764,9.722896913455337
5.665410725707559,5.450029493185681,11.631524485714456,1.8241515349287816,1.5034650795309776,-3.0989345753275126,2.4592872841958653,10.806855569765188,4.218047573984284,9.863548055341964,-8.32630141242177,13.613862333555067,6.394410268603885,10.225542640390469
3.625365000328869,4.299978465166911,13.14768811504072,3.754089999786616,2.5213358338706406,-2.980899514625436,1.670515818566669,10.616402707583198,2.9768769536471966,8.167517419291144,-10.795331802061217,11.698094621587556,5.293431829688087,9.125294905903695
5.037650595737649,4.7681893459194695,12.411024740579837,7.512955874747265,2.9875797601489227,-2.550131199524237,-0.0628132367640663,8.4829763666267,1.0417716443020857,5.421027475911089,-7.027112165074086,10.979135256546106,4.939113987291171,8.422693381252456
5.663604831147396,6.372988298158735,9.997477720333166,10.962177400085697,2.0051698869463808,-2.0481958872266963,-1.400784842552801,4.804925888234567,-0.4193394334542279,2.5050482762045,-3.11173834763787,10.960722138761302,4.4950160414302935,8.970760869606439
8.454363491947502,7.064956043505214,7.540435351117611,11.66205399817166,-0.578307182075727,-1.313298782238788,-1.7379017324773312,1.2074334375036395,-0.697459265807491,0.3226390910758852,1.720873419874983,10.735084933750985,3.244960524275035,8.974211503334306
8.375689011097398,4.589440832806538,6.121415759830544,8.257532943714343,-3.8906819254512817,-0.066348172887971,-1.1139184790789658,-0.7605032729107823,-0.1418204421266855,-0.9901003520808552,5.120934096982771,9.56164766711036,1.3391874036563944,5.923119426503587
3.143370401355866,-1.4718588370741366,5.409532870476236,1.53498620925946,-6.523315004892769,1.5694359837464564,0.3500977895648804,-0.7285268500811235,0.2047179359881725,-2.0197704253667466,3.9287002762807193,7.349973060277902,-0.2509731391027006,-0.0392286670378636
-0.5153876937886218,-8.775613071939478,4.284244595601921,-5.773796640293984,-7.406519804014536,2.904043722805591,2.712568388066278,0.5406932738610916,-0.3415931959651989,-3.197331626749334,2.6177257371458933,4.774053633170743,-0.5776462396436355,-5.233582646522962
-7.0145297543967295,-13.544187757915154,2.1608583474710947,-10.575276571014086,-6.4043726828487095,3.1293282679179746,5.907642903144041,2.0513640658650143,-1.3618746770552166,-4.069794013745733,1.2953339619170297,2.85729119951233,0.3405671868042139,-5.593856203627956
-11.726430995849263,-13.38882305755001,-0.4087244855279781,-11.348902774232178,-4.27626719351357,2.010257044687749,9.309788645923238,3.2895369020784004,-1.6777905293689708,-3.674439573399824,0.1032323024771065,2.1738232147400423,1.301884724629912,-1.032804817082006
-9.910102961707508,-9.374964476564005,-2.448951275222898,-8.973386234326458,-2.1841401119347665,0.1666786421113976,11.74514058123494,4.1643921632482765,-0.5263753461942,-1.8022712624576025,0.0005764020162081,2.184320611502958,0.6978707459760578,3.5332770001657874
-9.683298208872548,-5.441402503569749,-3.7490303286775495,-5.838085695382912,-1.1539701389559134,-1.3287544272965968,12.073258599228083,4.573548079746147,1.56045144271737,0.1901590120488494,-0.3314360915923686,1.325812799378535,-2.2467319824558283,2.1036582940678787
-7.497244675718128,-5.405002425134269,-5.156213895919714,-4.033827988218956,-1.7215032108956034,-1.6663037873857482,9.925767877582174,4.3391764341242745,3.1032486934655497,0.1491621703609764,-2.367778778876916,-1.9551478973671657,-6.724857238948229,-6.826953858708705
-4.681699199347035,-9.892338628831151,-7.538311805914962,-4.091030692540805,-3.741378992720821,-0.7195017306216839,6.047847437294472,3.628761386144799,3.0221683954001133,-2.938953689411657,-3.8729573982282894,-7.807944059012042,-10.736360016870112,-18.264333224968027
-6.285883271692955,-15.741881528469143,-10.450070775515377,-5.119440844970662,-6.340301661598492,1.069812754638025,1.9803178066899976,3.2005971602120216,1.7245362717562278,-7.624444754935324,-2.9470925296347907,-14.309105910690516,-12.405971302874896,-24.45251526011654
-6.33931917752555,-18.43703374398812,-12.009406319863102,-5.960762874501199,-8.157553348620366,3.054869430743042,-0.7450099601445945,3.895544790172463,0.8157263888566222,-10.75381335925928,-1.0372357468586906,-18.294324172428546,-11.259095712075164,-21.24887145217778
-5.711094263309706,-15.631854132643706,-10.394712610756663,-6.222512185687566,-7.993504206627816,4.603765864543451,-1.4361315990641226,5.692726738088297,1.586267807446221,-9.905855512152389,3.2296453908003424,-17.383300074735153,-8.475925189133745,-11.53586062231266
-5.716747275253304,-8.953785992526932,-5.722201208536123,-6.366376785524788,-5.627074662110724,5.133049656579127,-0.6077621541939973,7.330057933261709,3.65516041613731,-5.424588804544715,6.1512217435278576,-11.806741884363152,-5.94894825253408,-2.6934740519731726
-4.088910612993231,-2.7129258104453142,-0.4981074635094611,-6.950994015349867,-2.185964845187827,4.218814471794363,0.3773400595717264,7.106070618227867,5.120312015628235,-0.1937411488926566,4.334287759782678,-4.526709926608425,-4.922207303576334,-0.433485711804205
-2.3488923837360858,-0.6238675813349144,2.005351537782975,-7.819483686484473,0.4334428524827696,1.9182565159459892,0.2378086450144509,4.335748644130464,4.220263662109673,2.710391030559381,1.7724953613056436,0.6971144227947659,-5.262795749135308,-4.376865034007338
-0.7773431304259653,-3.094208927166075,0.2509637129018918,-7.962538417301956,0.8955801771145312,-0.9704483420202656,-1.296374913557112,0.1876142549505424,1.0555359284549537,2.451625078135049,-2.0728914735722856,1.980158522274711,-5.810292250067722,-8.970669667824883
0.7558140343460538,-7.0379001193634565,-4.23237159705355,-6.164748684024211,-0.4678044168453606,-3.129842188748965,-3.231684835234054,-2.9313249745824903,-2.2516452592883067,0.8818829482059287,-4.666162775760071,0.6328420484300403,-5.371960407845936,-8.54748697710724
3.018164705825467,-8.208839795615999,-7.81829631078924,-1.941035799379228,-1.7973079587566052,-3.4790022994975063,-4.0188097460126375,-3.0430784643383184,-3.2275238819852663,0.7377292471754945,-3.163936478906942,-0.024107647721328,-3.555425141837377,-1.95809676477994
5.781352449324556,-4.295093705020827,-7.332579581985213,3.881606338439256,-1.1968661695728464,-1.9634489207295636,-2.775362926619448,-0.0274657598142828,-1.135662969553088,3.248034580665654,-0.6813442388629732,2.5287951355644305,-0.9460154110350674,6.931559741648901
7.962234105737018,3.3797005250062524,-2.266986820767916,9.311212185292788,1.5401966107302267,0.2872798057233802,-0.0778844254766341,4.267768855750619,2.36359757759791,7.170610962493756,2.480471371251649,7.865215772268244,1.3131862038385689,12.70967037668158
9.461351373888496,10.672472887291066,4.914879637374486,12.046081677947283,4.494367875998872,1.6627316244880554,2.379635454318403,7.261624751851486,4.58302659123859,9.906185331544908,3.884820059184654,12.9148814097615,2.1813363247087043,12.50768013143315
8.257741747352004,13.395672574582909,10.483431366335193,10.70019971881963,5.051252403351885,1.1748698330617957,3.065342548520793,7.281057637819128,4.001290864757923,9.589017456376563,1.7020947274672178,14.420631416615535,1.282556289394886,7.482884885506459
5.242384890215506,10.19388243895181,11.873532075067171,5.817715936762422,2.156661340857548,-0.8465204160573557,1.802105104703563,4.49323383286306,1.3691998911214218,6.411614494412881,-1.3331121109078017,11.447643178619789,-0.86528214334355,1.177796586294047
1.9687405090134773,3.5327939757251388,9.181944639459273,-0.0217292591390281,-2.512177250533286,-2.9893469850261827,-0.1310336732617114,0.6101293936833114,-1.1431062532854055,2.271406376262676,-4.717805283083541,5.897550865352992,-3.094462668730233,-3.2628031515309037
0.3390244158417559,-1.9716552778119605,4.833104512678323,-3.420317166115506,-5.588092792381481,-3.756473479672437,-1.0735875295727184,-2.3225042280601595,-1.865166822879481,-0.7513333680056107,-5.522261455885059,0.793595449827869,-4.238644364513813,-4.752183731888447
2.3648762680764555,-2.7804148972870704,1.7831503435737233,-2.2736477937088004,-4.534511933098442,-2.5940185950364825,-0.3104448266023303,-3.2241555238325503,-0.8691165515233559,-1.762825526851194,-1.776708352476738,-2.027270780031154,-3.8166772109956977,-4.076456021258155
5.235907815344549,1.1144208277228094,1.559141867720733,2.5802740964085977,0.4000159415670707,-0.211061744888146,1.4485677790171532,-2.5650234632201467,0.4174566556274612,-1.287170967188347,1.073767393954311,-2.8911778147960927,-2.2591860522964344,-2.69320633004282
8.841516691693139,6.36658405644723,3.448432164473072,7.603593365707087,6.40109747448232,2.001914002984182,2.741578484655053,-1.9105130084052997,0.6323493826162854,-0.4302384161962873,3.5043056778725754,-3.389243470400162,-0.4972522759887949,-1.6817695535367676
9.60250287714108,8.953125834462572,5.28339591521709,8.868563628825155,10.25635966045186,2.97412541444878,2.5034060520943147,-2.740351397888121,-0.4647949676586789,0.1264502385681036,4.708850303994746,-4.694645755631798,0.739519476370968,-1.3678076940440906
4.840262293964357,7.232544784869713,5.132601363053388,4.872526314093845,10.652717345039209,2.612966196583929,0.7369725069442488,-5.319701704785467,-2.106737787588067,0.4482351669279747,2.1507403252634782,-6.618046148336843,1.3376930308827353,-1.4758457149625368
-0.2338377144853476,2.954083661345553,2.620481138735717,-2.3310108233994464,8.800541091927576,1.6792358456916543,-1.676785963055038,-8.393391889795918,-3.385909872768039,0.9037338665448948,1.0939053837612138,-7.9958686964796595,1.6627816861280955,-1.483796798740963
-7.375464347329272,-0.4893927517715875,-1.0241714062652805,-8.605273883594949,7.09352536788081,1.0769093254308562,-3.663468898695892,-9.94850202538892,-3.8877797447008575,1.596207743605041,0.0198307203396199,-7.783833554081545,2.1226015657741777,-0.9881992424862672
-12.680839854743844,-0.9550276407647118,-4.076370271164842,-10.592195715545325,7.0975417356944295,1.178894076591353,-4.530063960382831,-8.558477982573205,-3.62247309379113,2.303793132038179,-2.021151493473321,-5.8327749948394825,2.8675831418628235,0.0271534154738892
-11.901853362118704,0.9145468209250592,-5.624006508901843,-7.708300434981746,8.4925371048761,1.6830946925597652,-4.150885775006266,-4.390644272399661,-2.659140280105961,2.8925294158469046,-2.4425754943845592,-2.8776200452853065,3.801061303145527,1.14913740874881
-12.0513399412294,2.694744025139541,-6.07836802610483,-1.9911516655308408,9.592478513929274,1.9892555877218776,-2.8858453945862914,0.827271553277289,-1.083434653454225,3.589638659171554,-2.3381901902558093,-0.0158459193884543,4.732279849077717,1.8012712988913084
-11.031149325885616,2.571820601400667,-6.597630135869013,3.5728425661061776,8.77922568395078,1.6788075357081564,-1.4253204575031175,4.859294675014956,0.692301313648354,4.671538731234939,-0.7237196663700549,1.8197365165534176,5.4659117792867145,1.6947841551110918
-9.311562709897004,0.7970440371303509,-7.981366330220637,6.639663652500021,5.674622120585832,0.7048178485479752,-0.5840095963510228,6.310456001663409,1.834797404363147,5.873609170248409,1.8703820944420484,2.162549129289577,5.8216759505309525,1.1224264622747853
-11.365188148375008,-1.05676298634744,-9.933306227514876,6.107456526612072,1.3220652908960695,-0.7489289489579776,-0.976447211800273,5.382954354143699,1.6157056969922343,6.299898070793757,2.9510545655030085,1.134644647726259,5.691871647734315,0.7720069762826416
-12.227041681458262,-2.0405832688881715,-11.235581506417908,2.075044472006084,-2.5443120116354088,-2.4812582376551617,-2.6445215290622537,3.59084092578,0.1854769817789171,5.182439084545228,1.5904910335386022,-0.5903428765546259,5.14328445237254,1.098150172037761
-11.844947644524426,-2.7925206834484024,-10.660401414209485,-4.144158743963019,-4.549553664142535,-4.317721348992653,-4.892062829985718,2.675337216129629,-1.2571018510120384,2.871313306187832,-1.432711207040979,-2.078056301225403,4.45108552271128,1.7722375361747087
-11.52946207600211,-4.448411806990583,-7.913479998745755,-10.02018394866448,-4.411090294364175,-5.992503872483411,-6.560655711231421,3.429543438754922,-1.3018264011520833,0.9700150060687962,-4.097719377402759,-2.651330772929,4.008558775876686,1.84669543282026
-8.615114270718042,-6.737345684763957,-3.916783408903591,-12.534367983938232,-2.9824414035478988,-7.069027254000943,-6.703244481406549,5.158933074598695,0.4360893433497159,1.195791469129408,-4.104789967556319,-2.3162084207104723,4.192771427493234,0.7112851997134078
-4.54404011821122,-7.56791429734126,-0.2525240913832949,-9.843671470262432,-1.6176554087881287,-7.06151456553015,-5.264552146728111,6.12145961148152,2.8193015414746263,3.798818870719333,-1.1500837196754534,-1.7193713255701777,5.258428598508745,-0.9706930165525084
-0.3472743430584832,-4.968592457586391,1.8000472608323346,-2.850704981138373,-1.2615049616311405,-5.72482951350004,-3.2385463611512,4.720290189645963,4.005359519395306,6.982999059373788,2.277196048000296,-1.6199474564351846,7.20657322664171,-1.4552679130963124
1.557506896502474,0.3568589238157789,1.9499395461196265,4.829370724082216,-1.8851369192304888,-3.3117566437913872,-2.0392277446332514,0.7166531137713026,2.9565438801998267,8.037212976431723,4.665621214906144,-2.3055851162187317,9.58603286061442,0.5503625858448142
0.200220261101135,4.628228811644634,0.8800996828399228,8.93025342381658,-2.699571097193518,-0.5890819766999378,-2.412266185598821,-4.402482478735894,0.3328315895462177,5.3888952935633565,4.691496974677248,-3.4245820162049574,11.406514486340711,4.274267708280083
-1.882031675631035,3.6899276008535047,-0.3522237921786608,7.280454553039778,-2.983922193164407,1.459839387544579,-3.717462911592514,-8.30626486036795,-2.029309450976548,-0.0982322687330681,1.8608987901736085,-4.2971661405858255,11.467875525219457,6.936291258301227
-6.2452617597177325,-3.282224030154402,-1.0019196158932075,1.1618332710639765,-2.8090530157464237,2.123931150691342,-4.301741364139729,-9.439586510641142,-2.6002507210806405,-5.693719503648019,-0.1357551423687523,-4.372471999105276,9.118672533257062,5.879949175303797
-7.54657754773727,-12.420454940024158,-0.9472378213581276,-5.70417418011558,-2.9687354232444254,1.374354330805077,-2.8405700030857237,-8.157469225978677,-1.3215899531769937,-8.795402068998566,-1.0835810291694683,-3.5018493061341838,4.911709061034859,1.0617765346881174
-4.292027080628562,-17.614288404608764,-0.5206287847761821,-9.62810987538088,-4.140832073273431,-0.0841246630764547,0.4146847914006648,-6.378692406309911,0.485573809885012,-8.737840265402479,-1.379482416383138,-1.9787567521696328,0.4488671646011548,-4.522054146092729
-2.509508039021509,-14.90947144439822,-0.1095421206791691,-8.991948871414166,-6.069941980483856,-1.216273569158712,3.6556406835426847,-5.949616779991008,1.2663953584922132,-7.019826055236273,0.6919451407581552,-0.4449795199222126,-2.713663791136097,-7.131743527761051
1.931543853616408,-5.315861765897048,0.1326153395393863,-4.6543467280571855,-7.620324884049548,-1.3034291007556025,4.938020167309531,-7.097888301777445,0.3848242341154637,-5.920813000848074,0.9009667444578348,0.330368917921166,-4.306658395791826,-5.302570710652757
5.819166955094721,6.089099664477596,0.3051212070041038,1.0277075828688498,-7.741997750731909,-0.4109654130549744,3.816121689510898,-8.371894591841905,-1.6058268864473453,-6.755146962195356,-0.2078271427183394,-0.158353917227596,-5.607752554759209,-0.775051125617898
5.878676093647398,13.782066820733537,0.5904303319534403,5.512614851111312,-6.462426244163106,0.6701400771797248,1.6901443856815668,-8.130087675421226,-3.589187207227998,-9.127320856040123,-0.6899832281862857,-1.753433357736173,-8.321896798442285,3.416294492440457
8.464593292164931,15.191024462671663,1.0807470210197745,7.007725698176239,-4.908061389172149,0.9946264447327544,0.5064787055333757,-6.166145253953857,-4.726254476169439,-11.541785169498764,-3.8496649693772342,-3.5912124823840657,-12.921903559623328,5.579601274167424
10.51347898046378,11.551164344993197,1.7126795985223018,5.0006988385103766,-4.259514983803083,0.155002973395632,1.020298011836969,-3.904532624855228,-4.861719380978835,-12.599823757144591,-5.591301044612227,-4.598545512725876,-17.88718861079462,6.0055398794564665
9.797635529012506,6.204511681030063,2.298289479958475,0.5154596639541864,-4.613284459595791,-1.396782462994298,2.2632670536286943,-2.997166905307803,-4.375545706857936,-11.767551038306689,-4.345319954574875,-4.202992737402697,-20.59784301456859,5.267406759817864
9.378834989340255,2.1427134807167807,2.605572895227444,-4.139502161928409,-4.876010816856232,-2.629309596744388,2.681527742708203,-3.727839606094757,-3.779200738974156,-9.358536543087034,-2.399756674004446,-2.6588755448595838,-19.236671452762565,2.598611600645353
7.447124842135173,0.6057716211005464,2.482137973424352,-6.423135575470754,-3.8395663480468314,-2.627057717843764,1.763773055218908,-4.791663124436104,-3.373081140434344,-6.122395894810046,2.280812567448527,-0.7351442581087353,-14.172488888497607,-3.281297676423023
3.1732585932720703,1.2203475185114696,2.0140304308814363,-5.063902133574246,-1.4101666990449473,-1.2265102843648596,0.5250895082080902,-4.610073685856536,-3.102925913843726,-2.9328925124858456,6.710714800352736,0.8702181519138386,-7.730323777490193,-11.506112555967576
2.1437366497963555,2.923203824523468,1.616249575079476,-0.9376211057419462,1.2231472835667498,0.8525440727187618,0.4070568323104551,-2.828244514940776,-2.645625496934568,-0.6192040228879199,6.8787177107554776,1.8320222985603785,-2.59381826252406,-17.812102041395118
4.393256284755937,4.723433501372764,1.8870744802768176,3.564593569209704,2.670505520353662,2.497409906269874,1.7709674158312616,-0.5510725030605488,-1.7119410133524129,0.3128550036461242,4.083637223526726,2.090210508422131,-0.1398149103433323,-17.00803045452828
5.843874971214316,5.989221807350139,3.201377005303657,6.35562826265594,2.6240340959875565,2.995845942207981,3.5389957585744654,0.7820063433677085,-0.4120312575858967,0.0667866721502448,0.1083288619612452,1.705502754086102,0.0869832554370757,-7.573817040442652
9.807722312207272,6.49945710586773,5.312569157350476,7.1828020286894,2.0947698530951016,2.5521165390930007,4.3141756303652645,0.6595452813001965,0.6400648130492342,-0.3870327056946467,-3.903087605900117,0.98656617030726,-0.4092925803391928,5.997945969779117
12.604096345788411,6.4630551876307605,7.368859752212696,7.512568568168966,2.401009870412051,2.0985675319258026,3.773798585046741,-0.2953797893737592,0.7188352469563485,0.0685096452073326,-5.059083618662413,0.6712435213605623,-0.3323637636025289,15.9163546962473
11.105994477230656,6.37963745226258,8.471726770657137,8.85013881171945,3.93493233476297,2.5041513119437204,2.8873388226553294,-1.1616847851255376,-0.3257488225942628,1.7334335900180324,-3.310270630291812,1.684391535807694,0.6671419158937111,16.9346331494078
11.215421404269202,6.61627535384077,8.380415289495442,11.051048787152912,5.904384160043882,3.817146123563152,2.7829844616133586,-1.567842147807005,-1.6994896933365986,3.6756049132212727,-0.891488000001372,4.422610563918585,2.123933111794196,10.229518060963672
10.59078823877864,6.988877594194848,7.723384238050913,12.266327658754664,7.217236357033869,5.216110737320459,3.512746796503984,-1.7117886300317453,-2.097880432141183,4.438391860666292,2.01163409191129,8.181050007555301,3.38286161792611,1.9338458601464577
8.422180158769924,6.871440614404149,7.451366772682037,10.69085941462359,7.532872977064719,5.750345485055218,4.028069017732236,-1.7559159232195771,-0.7331582782693118,3.4039835871075588,3.817449995182847,11.411055806349244,4.116715203722575,-2.1183852898841256
8.118109470183272,5.912168462123551,7.970450148935266,6.550433449194816,7.416673841374187,5.204562549191873,3.342238479247693,-1.4655842195825748,1.894880338138801,1.5858450883833513,3.2453654962022798,12.757446714437933,4.431821139454936,-0.5948531369084717
6.595151687662929,4.669873558891894,8.74195051452607,2.3914515395434286,7.528857731762059,4.254146072956896,1.5901446329127211,-0.5541343130079226,4.2396999789727765,0.9936826432603016,1.1162406910351723,12.006552842544671,4.647128571199007,3.554793845896006
3.576739207312483,4.342329195959216,8.735597838157311,1.185260674023891,7.781040863821577,3.733972476449756,-0.1371368075359194,0.7296187213814065,4.87051513347777,2.979217655698924,-1.6973041448190072,10.081690931158477,4.993402138260155,6.6933756593988605
2.616784484142974,5.61406397254205,7.336452111669759,3.795826491114284,7.375010411946563,3.7340575483675686,-0.9334281336462436,1.5918825006480135,3.612989824032824,6.958037946685229,-3.620304111779816,8.116796994126211,5.428658795926102,7.594431420185379
1.9371341514771303,7.705359146048993,4.879879081643667,8.095139868281354,5.673199175555087,3.460064001136302,-0.913645560132857,1.443113287044806,1.6804392078147017,10.66319301575528,-2.798000563825725,6.514026985097936,5.663954075287039,7.437943107759308
0.7444944670767915,8.719991552654111,2.34312399847234,10.629306231670569,2.981159504398047,2.070847016076054,-0.8889027090281285,0.6678593260397321,0.6599776459149806,11.790521145816424,-0.0758485581643297,4.856303127096449,5.39178112369062,7.581384260060989
1.3354604099613514,7.165340443128143,0.4967322076522054,9.405843900785538,0.4247567760589021,-0.2956862980558377,-1.360354314185151,0.5117732978023906,1.22068315980937,9.701792642772393,2.2441652542135304,2.643765930972773,4.575486614569106,7.8986088131167165
-0.0503511787233444,3.271087264369866,-0.7135964882057264,5.288293684544374,-0.9738471498745164,-2.364471110081812,-2.015741559437648,2.0171412320517668,2.6478542839214096,5.814563661430867,3.111015402961556,0.0118241182297218,3.5555883697401685,7.222023685596422
-3.353633140398152,-1.1686174689783506,-2.0282198189808147,0.7884220627085927,-1.1358018571832966,-2.715020183459959,-2.239533063755762,4.949121329134268,3.566187150306717,2.4285694962540822,1.7292504972586018,-2.304822305394852,2.821744709937282,4.898766106734895
-5.561705487952842,-4.284970736018737,-4.13927943237832,-2.4471585988592497,-0.9018646149069818,-1.0934795659170629,-1.946552516383787,7.783069284686823,3.1619089575607737,1.020428314308421,-1.1129027355762957,-3.6517965591066446,2.599626961742393,1.5315976963272109
-9.768517315542525,-5.533269350751652,-7.016020403735691,-4.923616024908191,-1.1994181384065197,1.166300333662354,-1.730630134921879,8.872866004375226,1.8163910167492263,1.3894050475434057,-2.5644614073307763,-4.018886124819694,2.638268473716693,-1.710017186149452
-11.774708765757218,-5.750195907328295,-9.839839217930376,-8.140005543841376,-2.1840521757858,2.092258157596088,-2.1904170350103964,7.7869142987998,0.6563313513806578,2.216126382209202,-2.1481853000289046,-3.9429397614379047,2.4517143838241644,-4.12181150192573
-10.185318417169173,-6.008298825882032,-11.541530040581712,-12.327153153675216,-3.1132124549420905,0.6591812755458548,-3.262106296483997,5.60194392692927,0.523926103894734,2.3790824106735258,-0.6689529455183945,-3.960625014376759,1.8203460940079956,-5.620517249721926
-9.445697279237056,-6.527057322720294,-11.448708917816491,-15.575902844036378,-3.0194363472365198,-2.3337436460795744,-4.3201482418283685,3.90222731211624,1.3335374749145572,1.8210635229972183,1.2798993357472443,-4.233409348284556,1.0493031879404464,-6.120389198358196
-6.070111195859105,-6.660532045481563,-9.55360980406619,-15.38407330611423,-1.5626430450130475,-4.871502680942351,-4.853373842864624,3.434419465297724,2.3171350181818555,1.295023861387783,1.8546344779453947,-4.628872387347383,0.6859463739141409,-5.227918645616335
-2.860969573350496,-5.779768688773008,-6.33570017891601,-11.10534907779288,0.6625715957428122,-5.333598858390351,-4.873908376290332,3.647872910707856,2.7822887807485177,1.387908846720178,1.1254416207072988,-4.962111097477055,0.956001597020772,-2.843070359301678
-1.1742954406114192,-4.019610406958173,-2.4686196640725804,-4.827733075775338,2.575521843952268,-3.743653941241408,-4.620898481486551,3.4599942396330388,2.595183661730691,1.8374332611668471,0.2776252552310492,-5.024858151843608,1.5020691944002742,0.0575583570452185
3.0174542045317305,-2.153407583078348,1.2878532504844982,0.1870500068949239,3.390574682989026,-1.601735845668951,-4.032634617880003,2.4219883578580426,2.0141928637624726,1.790595476814028,-0.6665327511364928,-4.500466723253187,1.7196951761047643,1.6535125107032558
6.725867764771572,-0.8438683756588716,4.080538986583347,1.9551637670693491,3.083390828594884,-0.490013966644713,-2.7417882316839064,1.158762939282168,1.2274266046623863,0.7027280363851105,-1.0350188028100873,-3.1578574632904512,1.3638600434712025,0.7033671454043615
8.015663138225927,-0.115742773967824,5.154129074000348,0.8502721227569934,2.223672031499655,-0.737410245464674,-0.6603506577913723,0.7496309165785568,0.2111732788230909,-1.0378056884524494,-0.8933860114939259,-1.339350401211476,0.8032113413015303,-2.099311524232859
6.167673759504531,0.4320995989287848,4.322632008322675,-1.3704126628973827,1.40882404348487,-1.3527097519254787,1.5877880301625336,1.7430551170333572,-0.9255102589074812,-2.3828392161802103,-0.8966596017309182,-0.137390100183194,0.6522158470939798,-4.331561273321425
1.74059866577955,0.9726232551223042,2.3291679540428807,-3.243651283297249,0.8230810828846389,-1.2191293923200035,3.0515366297576336,3.745029314872321,-1.5818453247690265,-2.537473341272169,-0.2279990595578574,-0.7086311855108303,1.1476062326808885,-3.747768606907108
-4.196071450211088,1.1016188049794762,0.5739186324134239,-4.281975992132198,0.2619222527817508,-0.3258550008342149,3.3865597459886896,5.845006220539795,-0.8720861906240944,-1.6491677267750138,0.6343722829681548,-3.080935687155692,1.887130678851244,-0.3445155843585574
-7.643958633359656,0.2034123082540579,0.1921651268335124,-4.417794886855112,-0.492948140789637,0.2187464638711305,3.3387788408628767,7.333686462166204,1.5894899487456162,-0.6463209865757094,0.920414252393395,-5.626623945490996,2.1739045583200123,3.308569143007732
-5.740566179321514,-1.8091982020779984,1.1579863461686646,-3.3877499024653943,-1.358753845854904,-0.5741986305734905,4.127602569682414,8.023349690809276,4.992991817785481,-0.4153321017264062,0.8229886224085653,-6.021822058663819,1.6218689817531498,3.961937022890064
-3.419816524817331,-4.135813202062016,2.2252296818270283,-1.0281124908927115,-2.002354893067029,-2.3424438951059017,6.21138952533293,8.016700087318135,7.484967472200316,-1.093436759895834,-0.0994692434526522,-3.121985111014645,0.4673785645097745,0.355188978928292
-0.2554497502348518,-5.538540097624922,1.8493144834606432,1.954400913966288,-2.181423793441636,-3.460732735708545,8.64469187264439,7.331985069037783,7.271129186456225,-2.072451013467446,-0.9959667202483816,1.872904168318428,-0.6422526668111992,-5.529910431561705
1.167760660978291,-5.265796724403439,-0.63362577116637,3.964682432811765,-2.0196453835758432,-2.488045818323606,9.739640265106676,5.828610350425082,3.916606690027127,-2.602128311310957,-1.0462503789052569,6.116198290809647,-1.1408488136332566,-9.725005787954728
-2.951847792437744,-3.648036684556489,-4.5224094034857565,3.661986525355931,-1.929766048148128,0.3577038317713139,8.477391122899613,3.4706228985629126,-1.1908111504764798,-2.376052903198812,-0.6155331132417046,7.174405670471614,-0.906151412224915,-9.12601607768704
-7.010527004008174,-1.846566582137167,-8.288771298028411,1.201739793628691,-2.2415786435217893,3.1408979728622533,5.345886129115508,0.6044709694406526,-5.658466723854175,-1.6322342908756453,0.0165292235343957,4.720942588998375,-0.2870839656947668,-3.7814878384398094
-11.739348320428116,-0.996158398076179,-10.612502607787327,-1.810704991283706,-2.8732578502804165,3.723564450240951,1.8191826605823964,-2.060488688013437,-7.610241089390426,-0.8444362033561577,-0.1044710175146037,0.5286563979950726,0.1345376312116286,3.0730945216789456
-14.3775561949025,-1.4801191949057395,-11.08675179989618,-3.7347681220658586,-3.358325919813459,1.55490128726742,-0.9757158646723372,-3.785036143213679,-6.756943279129863,-0.407492611975023,-0.3317877695110074,-3.0049104968693947,-0.1239010899549852,7.204216862108336
-10.777175680394729,-2.866602440071854,-10.183320031284204,-4.245336116957818,-3.224746176028616,-1.833484461060391,-3.070705921902028,-4.195920235822103,-4.247056520399664,-0.545893100495888,0.4415472038480391,-4.395902911108298,-1.1600545291514888,6.155627351361613
-6.817491118885513,-4.394204828841832,-8.706146338779124,-4.210035283815301,-2.409972699588301,-4.048059861031533,-5.173214007069886,-3.460771820672183,-1.571507201525468,-1.322022931757966,1.7206503917954563,-3.5420533782895007,-2.5810399283452226,0.6475137996002802
-1.2284532867328832,-5.487704472442464,-7.253122911026964,-4.301219222006027,-1.35829442202643,-3.704219953712844,-7.459597320754066,-2.143195111888571,0.4416779093636633,-2.5655076922727016,4.077591495124334,-1.2087290840339768,-3.714263736185219,-6.2568180381076886
1.705534316418389,-5.944669209732352,-6.039596049073946,-3.991210310933423,-0.7232262193514698,-1.3805418869309436,-8.977765800521539,-0.8806502911357326,1.7305436877170874,-3.8131775172245046,4.884469466899518,1.565000389085072,-4.112565439300438,-11.409039567407332
-2.536731499735529,-5.854499253338722,-5.080401798706843,-2.1927346715106038,-0.9293231835728656,1.0479799051794227,-8.37632072309357,-0.1304498450366122,2.360277410211552,-4.511590040371043,2.637587877438265,3.5877220953510123,-4.015142395003108,-13.471910160148251
-6.501108569815511,-5.4843012537204485,-4.475826402360807,1.0701414807325396,-1.9410861421128016,2.009130855479523,-5.301505585653056,-0.1115409936820093,2.0450236681796863,-4.472647654858488,0.0511579289614353,3.521715122484358,-4.27274851513295,-13.09793163146694
-12.55468601494674,-5.193773813912708,-4.498950515080512,3.89044492882155,-3.3691103737204084,1.3705604507573876,-1.062382735603479,-0.8424453485127801,0.4675954599216523,-4.15308165357937,-3.572789056010188,0.4355866216307493,-5.595363163714342,-11.535564713451349
-15.67030854387568,-5.277449181122876,-5.336037076429872,3.7576698978663328,-4.746053785640332,0.2480162014169146,2.1830410447714126,-2.1043120042369448,-1.960264356621594,-4.331659040744478,-5.454793881879976,-5.164980549848364,-7.676143708531635,-9.144028495931884
-10.701296393835804,-5.752156791460976,-6.6443095622570425,-0.1233456859670369,-5.720596817391352,-0.1772224297365019,3.0642304372040545,-3.347714246807397,-3.8933375926399583,-5.334833632264036,-4.019949566290407,-10.837989049723603,-9.094132847688703,-5.289210443350054
-6.590725305690342,-6.318182416671875,-7.378633655116605,-5.7601334505244,-6.097691832264552,0.3073192425526677,2.008993181507744,-3.792620976033533,-3.9185704029620254,-6.544676289323727,-3.7606344546961,-13.21522684339542,-8.359423373927678,0.3004307884563957
0.009667247830229,-6.645386904336784,-6.284267029800187,-9.78394950855295,-5.855739825930302,0.9326205116114796,0.7531667889219875,-2.889647293742776,-1.832266428521553,-6.798112051565527,-2.9917651145688016,-10.249131099092944,-5.345727368850584,6.170070669507079
5.213482296585501,-6.757424595013797,-2.913644686702539,-10.178697588896052,-5.2346484047542265,0.8309379220643178,0.8227871970712601,-0.8850439065084101,0.9462568540774208,-5.439039329547111,-1.0789962389491108,-3.048032278605616,-1.7430580115880945,9.386252747318196
3.325060891706264,-7.06223602216213,1.6295571448454973,-7.815054144677553,-4.7643972770030905,-0.1053196075042988,2.3274539289152485,1.0771148000042623,2.4061732020605966,-3.0488303520331077,-0.1819809763800429,4.422149624021262,0.1374000916495052,7.551017343569642
3.500027441792438,-7.874384829360092,5.087328807958901,-5.375140696334382,-5.018890645328564,-1.1876948034135053,4.040790872447245,1.6212266664963717,1.6076300412542777,-1.0829305564680816,2.2233682803227626,7.923527938970306,-0.6764801290249798,0.9680532595338444
2.5490694039671062,-8.859697720158756,5.61827587449542,-4.720639604414725,-6.136042342541906,-1.6678574588231816,4.575083412778592,0.1790796441159945,-0.5312146725369047,-0.6749972153391877,4.65137670652155,6.003623982505213,-2.8867940767571465,-7.014761443106406
0.930307745997774,-9.05230243070152,3.425690657260032,-5.192178409688548,-7.511732121401589,-1.4635409030247493,3.566290338799715,-2.449535755247013,-2.069068517712644,-1.7079205214372024,3.5802693479508467,1.0978680434128694,-4.023135331570034,-12.00059776328995
4.646835311499457,-7.609439100606366,0.9706205115928928,-4.390160588427722,-8.083526539066002,-1.1583910940709092,1.8978920170771736,-4.554311525755503,-1.7407517495666416,-3.0178235767493997,1.455773257220869,-2.317197335806284,-2.6703623616134866,-11.41513891393222
6.670797234736912,-4.689213726692317,1.2926286099803002,-0.653341975644079,-7.124110938897236,-1.3128977144217933,0.8905910194766545,-4.695612946745472,0.0152735713454228,-3.5018103071517084,1.0123464508757472,-1.1489252036031288,0.2281482949190536,-6.069554750338117
7.970347736571647,-1.5683443982861325,5.601690725699179,5.072887521335385,-4.894329047977381,-1.7999452960895053,1.226355391649804,-2.7217907159478365,1.5575819420655233,-3.049368694775289,1.2178893180325463,3.995356217553024,2.2286110988225776,0.6679644889992071
11.478620973604224,0.2778810274377026,12.12181281743542,9.68323974414646,-2.500588062206597,-1.832088039726444,2.4887825964816463,0.1159570644729703,1.503168746801081,-2.457881972536384,2.5039174501724357,9.406687084199977,1.5817766025508666,5.300584715912773
11.182203505780423,0.4305898217334931,17.27785304537413,10.331158691473227,-0.9852452626086444,-0.6676536690239439,3.598950617743348,1.9947469975082952,-0.1993272019103126,-2.532861860658029,3.567186923613972,11.239965999782411,-1.3141133873188613,6.360578087557089
10.503939762609084,-0.0150290357459139,18.36297057556076,6.808286561779785,-0.432775397957319,1.654146921334052,3.695796019227907,1.6969301600812252,-2.4164005108023705,-3.3213257660622486,0.1094702182599632,8.419648756424134,-4.475471489882388,4.862288642476853
12.08687420547914,0.6787165827899666,15.504923659902948,1.916750372137081,0.0655493725563891,4.207052280254362,2.724284757819216,-0.6415424040182534,-3.863516109700519,-4.166579909106036,-4.397085629116497,3.201706460276745,-6.174837194449207,3.012728328038257
9.505218336985774,3.326383601130563,11.299035081378392,-0.5260756202960442,1.513957517896918,5.78085663046687,1.3087515973622863,-3.6738179500338175,-4.0280480022841925,-4.374942925878755,-5.8713073934542725,-0.8972557605247271,-6.189524321310277,2.370506500449812
6.821315633180017,6.905519658693654,8.477405691048777,1.4515300998941427,3.98636086551075,5.675170636561497,0.0840467676886569,-5.770982945085672,-3.308288313198771,-3.7368129518031674,-4.859246921109071,-1.9416660014345384,-5.399896029306844,2.872970268096287
5.668545986749207,9.191643655334456,7.674091417386563,6.463762206828752,6.422392825904368,4.065041561116452,-0.9165937346827268,-6.106244996565616,-2.491690334631546,-2.4532179041423885,-1.2917046638255512,-0.8204727533148617,-4.45813352554136,3.342097401049524
-0.3895013498807197,8.54212294531605,7.205777279712943,10.827327212646068,7.454122183498786,1.7457299159142692,-2.265400256200401,-5.117848085783381,-2.143728779884561,-0.7272287104805142,1.2394943212160336,-0.0248609776281831,-3.0740599536238222,2.8709329046768466
-2.509831353815304,5.371936087341371,4.941742646313784,11.41636877133223,6.546269760863477,-0.4229083852215369,-4.478254683747315,-4.005499355591753,-2.323113186297029,1.4361720966388534,0.5784814536700678,-1.2418805907962085,-0.5893206788278813,1.7989381824182498
-0.3381115685604907,2.019408305783128,0.4766372569757284,8.048474074886634,4.475749972598631,-1.897682036729267,-7.239577386077287,-3.692360625600985,-2.657683393973069,4.054093392901166,-1.1654419209160047,-3.951019278353096,2.969026871854934,1.3754264360589654
-1.4634691097513608,1.016428553184242,-4.368252221727884,3.449515394978942,2.7728493522181585,-2.466778464481922,-9.29047839414627,-4.149366596573846,-2.6206946059220053,6.939365171703795,-1.3979257391983797,-6.134997628998713,6.614014008102955,2.4184964244156806
2.18640006712042,3.152904242952657,-7.088604875471567,0.8530993811249776,2.6165792168343307,-2.092689120905231,-9.289260017040476,-4.636117608693194,-1.8649929841465969,9.755028791017022,1.8593322075393128,-6.234574448348431,9.200680072220152,4.2660254417805525
4.88781258369079,6.941683926509814,-6.608774047083997,1.3476327595610846,4.05926395653011,-0.8844667295521607,-7.057111204844696,-4.533623000884296,-0.4804843572338448,12.245307003835562,5.03402638215653,-4.4559266766055305,10.39719996441602,5.126754778040369
2.425078979052862,9.906414397498793,-4.086404123458006,3.2992719590782853,6.113437854587946,0.7594816856718358,-4.078002169386461,-3.905626868921186,0.995601903856892,14.267206190470077,4.922047948490691,-2.3558197401260106,10.78608824999544,3.651425736284884
3.8754651848148782,10.554803715793744,-1.843783083405776,4.239325203341933,7.543243317512304,2.1077357087398583,-2.5951266998808507,-3.2866204514532105,1.8964097906156112,15.51601998223756,2.625399903067695,-1.3580143336075143,11.044139102853052,0.3261775905369719
3.665670783288986,9.346493824373926,-1.5257247732957349,3.2837795127634046,7.728651735049236,2.412448690959176,-3.8895148586460473,-3.0464982080972662,1.882940280490971,15.326371448862387,-2.3127668838237936,-1.74489714209389,11.121865414662102,-2.65833994386056
1.016729333983332,7.911103335178301,-3.0731368049149674,1.7237425097599126,6.999183183919762,1.4672724086603677,-7.20949265576804,-3.0826084500795745,1.160225806038328,12.988664385663018,-5.358049301528495,-2.9344522268420485,10.27739617433248,-3.0702397796995964
0.2118090684337097,7.353867731472181,-5.148239356720381,1.3367650787813212,6.259790936158341,-0.0850261078347642,-10.36226262507497,-3.13056247839289,0.238728339905123,8.475770867367697,-2.9956517665343325,-4.422561013457086,7.880286021306802,-0.4565129571350674
-2.9636942641547246,7.263180013916175,-6.345109356594159,2.297796562892513,6.228492470225239,-1.1043837066355189,-11.469929241385795,-3.236347334138959,-0.5397331193427044,2.8978734929561685,-0.7935580405869898,-6.201371788909997,4.131055398435439,3.4089305352106125
-7.504397730023982,6.314412804855987,-6.086538886727667,2.922860010493584,6.871314279356751,-0.8111872532147268,-10.276933801206708,-3.768292653023464,-1.2428921378983158,-1.912417719398915,1.198781516569657,-8.263961866139404,0.0177983747760661,5.796273004656658
-8.488439644736541,3.841216739542992,-4.692809267191395,1.5100025827790562,7.47631233963879,0.5445418862377236,-7.859259104209347,-4.918354718968199,-2.120369388338264,-4.508933531262686,2.6980077647503635,-9.954751988992692,-3.34439762949142,4.951701445890413
-6.715913752050683,0.8288383395695162,-2.9069743431831423,-1.6782113219148194,7.323230975102714,1.8338691750371805,-5.214563905279857,-6.272803772137604,-3.171300923129901,-4.744049802039017,1.1089066559541008,-10.10719428714927,-5.294233685839554,1.2117211257121046
-4.5222519527383644,-0.6861514411233198,-1.4086464710365778,-4.406462572529177,6.3930662934630655,1.9607646949478292,-2.325303232972975,-6.996943472594096,-3.9964004485949314,-3.69252139183806,0.4060418623837587,-7.977538628920424,-5.689015994080188,-3.388205577349929
0.0670267792692977,0.6468969389063566,-0.566629424889106,-4.520313342281815,5.4590360668098725,0.764803752974353,1.3158123288516244,-6.5262497752474005,-4.119216961188214,-2.665200356427543,0.850581998980046,-4.042191963567253,-4.68354748838331,-6.504984117274796
2.717308132754477,4.143623172460007,-0.3856775525191982,-2.05277603270641,5.385147832001799,-0.8812418115731226,5.416459828400247,-5.093219286138908,-3.444718669821413,-2.201848217508528,0.4857700587862935,0.1761260549352563,-2.696569669670388,-6.775788549538127
0.6682635393453291,7.355940871727373,-0.5778826694344703,0.6811902382957271,6.193466597488433,-1.856030513547689,8.459581706665244,-3.5400365104907574,-2.3622218087465034,-1.8976734163416165,0.2816283162134697,3.115220373510057,-0.5935636950458374,-4.23879641735391
-0.5410520905143706,7.819220353475438,-0.7556059078729613,1.1092112819609683,6.778746191298422,-1.7372435301090712,8.872489761409303,-2.559825521506418,-1.3772396684212709,-1.0941826018304344,0.1601067295922431,4.115058517443305,0.4169182355660084,0.0631188348900231
-2.7537226200518643,4.899913361795314,-0.6646235128779345,-1.3211597011415206,5.667972778021677,-1.073374753967892,6.710864656984445,-2.0831753503064854,-0.6646899228709982,0.3267212087222333,-0.5809796855953151,3.60110668694894,-0.4861868687237356,4.713645353695946
-4.529188762079342,0.3066650030907477,-0.2524032274858769,-4.631450791517517,2.2899102079454474,-0.7944008025184954,4.027479990036243,-1.404193255675719,-0.0113939492546664,1.806547898148538,-1.2591459689612934,2.622527498113466,-2.850019096038088,8.328924295604946
-2.3208984420381884,-3.0786380131990265,0.5206933636065565,-5.942471804441506,-2.32032296718162,-1.3541474717145932,3.3070940627780168,0.0789752113558801,0.8254098257766685,2.6722594392516594,-1.5147696899159384,2.322520227479468,-4.905545159650341,9.777489694219444
-0.4816687355395976,-3.123463482803014,1.90273653464595,-3.807976358429225,-6.056325817394676,-2.3836424578012965,5.334000379839077,2.2602916139447164,1.7862894250188024,2.7569799332078637,-2.1591182954164,3.642829543859626,-4.799859662283937,8.524522226996607
1.4396963550873496,0.2540203899490758,4.251926461814894,0.643530778654763,-7.156048599225811,-3.105921684366417,8.542681914361859,4.481818755865556,2.6053929026668463,2.470386507625091,-2.422516197216241,7.06598858371669,-2.23629186406123,5.131089981144623
4.589710759343229,5.192719318602136,7.579758476133686,4.582707634541945,-5.39612806934309,-3.0703407007836536,10.510682381722004,6.266815152490222,3.208349657649314,2.3419194199646136,-1.4661913357250922,12.199778761710752,1.0346906215026228,1.444664829877213
7.481614451317606,9.169772293579944,11.178964347667756,5.622515187371163,-2.1643988947492807,-2.5326746802416142,10.157107039400795,7.790690718384584,3.8891269079010704,2.58334974703934,-0.3638288275294874,17.513223261350976,2.596045243047967,-0.0456812245212878
11.194207292389049,10.527857896551522,13.841914227922796,3.598505293869524,0.5597415829591688,-2.176865371666212,8.537804817576859,9.507953713101951,4.965758154302494,3.1030478135687884,0.8172814641313296,20.815634665501427,1.5858188585232078,2.402344382813493
16.08676985018384,9.316759470722465,14.636830233958774,0.6691257460762472,1.4698579851762434,-2.461650074580866,7.557515844451894,11.33646223981336,6.256689057667299,3.8405621382109767,2.1522358701860886,20.55836126266912,-0.2491438395505847,8.527453374919212
17.608280786531395,7.034743331459265,13.579344169007651,-0.3528020233257596,0.5513860044842049,-3.168958791850103,7.976908537179423,12.426141061739164,7.035232560010045,4.9266503025900965,2.2195173761226514,17.098626408172727,0.1928231757979439,15.950636527978268
14.19870159248035,5.518069926852017,11.531401554691906,1.7861261796674217,-1.2082452577002325,-3.537748586055604,8.702435139839867,11.983800859756451,6.666082697892985,6.409299982785013,1.7812970323636133,12.723638085442875,4.707774531631906,21.442162765768344
9.46466886741272,5.695612395925823,9.379698201953207,5.72459727079338,-2.618727787532056,-2.879209929610965,7.955127135742073,10.370776289785889,5.3350380800672,7.840498014499884,2.367324195907888,10.09049421665078,11.968878084355053,22.74468970214498
1.7055615447176236,6.995655890942468,7.284636818601106,8.48547278203253,-3.007866528739328,-1.1745528467761936,5.021618693725242,9.154676495195703,4.047753222676488,8.267719187430291,2.552083885098237,10.178873311661386,18.19238167595704,19.70053428872084
-3.387937398285149,7.7935288811071715,4.75292505771516,7.803098234231175,-2.5175361549758017,0.8402799661670333,0.8465962119685503,9.756676907494782,3.751954135410479,6.818293125663672,1.9130076027006984,11.501567487961388,19.862042198835844,14.001883093228637
-2.5216466559019635,6.60157765018139,1.453707700432342,3.9010361089977774,-1.9329030588134843,2.200313849991156,-2.928529801447381,11.899572637834003,4.380517897732438,3.455316091869632,0.97588224788791,11.379893058792502,16.35131694903051,7.930552838172829
-2.7708602145798857,3.165184256555173,-2.0867051884476964,-0.7647107157065962,-2.159823252111169,2.442908170179932,-5.282172024232878,13.509189454466902,4.802994026530836,-0.764843954079363,-0.9857014270189176,8.279740678933075,10.337220611539458,3.0992949025364043
-1.274014582710388,-1.3281236719987095,-4.677264533286412,-3.5516008861831887,-3.5662106310872,1.9504696887058923,-6.142247811954778,12.408379667529156,3.8328316735817616,-4.233193497135526,-2.506195626731963,3.184478410703764,5.682143848257164,-0.0175647307422006
-0.5846141890542276,-5.063707856887689,-5.405757055577751,-3.662360303967144,-5.560230761378233,1.6124621149382852,-5.706200155917958,8.327365732759043,1.3883132808999892,-5.771375248219734,-2.0494341584036677,-1.223346735317069,4.492421140873005,-1.7532467851768727
-3.6932054607760714,-6.804152689918157,-4.43229885751164,-2.4375083938816555,-6.8118027589800185,2.080830819618462,-3.908121863503829,3.318689163425442,-1.2889574359328635,-5.346019928514792,-1.2204722764710525,-2.857273469533657,5.696355002716842,-2.708057362325472
-5.023892252677077,-6.589168995985859,-2.888721232985704,-1.831987331627995,-6.173399332612473,3.236949639847955,-0.8535257171825499,0.1138578287838472,-2.587864113919839,-4.027240262383079,-1.6807070157732975,-1.9901989895261707,6.218270518791819,-3.520850759317154
-6.858479892492927,-5.488118658312144,-2.034448861121067,-2.624144695633456,-3.709865126332756,4.300268107081987,2.3632933150944737,-0.1228135742317708,-1.807658143036143,-3.2680640975654733,-3.2790971447612964,-0.9979212513842696,3.6949322953193073,-4.912492021466697
-8.31321541281612,-4.713588750266553,-2.4881212242473456,-3.968270632982298,-0.9112905632205656,4.46058469268681,3.781901515926665,1.3439606972430316,0.3341985351912331,-4.00685463270212,-4.184829996454095,-2.3873324777844624,-1.5464634882465391,-7.556249956817889
-8.041550638788571,-4.82422286929595,-4.131386325313144,-4.457403174026587,0.3296300353966864,3.497214305239507,2.028404887493953,2.0340720007152067,2.3219010235509177,-6.118604297090104,-2.2289042590732158,-6.805657394930479,-6.8267291374606325,-11.55394809593533
-8.588590952869058,-5.5520199439029,-6.510017500088086,-3.458501723202871,-0.7196953881488737,1.9098640018117696,-2.16510481909285,0.394344175322362,2.9712620017461,-8.47452878490668,1.4368290432930195,-12.576940841369808,-9.334940456977977,-15.930175421429336
-8.022820866181522,-6.244731738733325,-9.144113910309024,-1.483956843865336,-2.908434473534524,0.5221868379324275,-6.096736332727857,-2.988036461878516,2.1332244635664708,-9.5664039086034,5.8494331946998415,-16.957791277375833,-8.261883849805834,-18.850979215149152
-8.47744188219133,-6.49559801258359,-11.506067071549015,0.4388952178476346,-4.118964794368614,-0.0858673221281378,-7.154496568565085,-6.038740859038093,0.5352012544730651,-8.429032132234699,6.957004973041208,-18.03688815449708,-5.148196710833656,-18.76291097259721
-9.524954176889723,-6.499356604085143,-12.999864734467607,1.466817488148412,-3.133102327019965,0.0947873736678617,-5.079743443268473,-7.031923266198684,-0.9261651076224142,-5.4064138796587455,2.6195084443564536,-15.939468519984615,-2.4576366506504863,-15.716208646867852
-9.309262653756535,-6.93244933036347,-13.293752898306444,1.0267893930293537,-0.7566924731530742,0.5829814793598898,-2.285689316298604,-5.998615718416481,-1.7932058506995183,-2.211154502082872,-1.3983037574383492,-12.642716729008896,-1.841346561814436,-11.726682713408284
-10.892484937775707,-8.45772548558284,-12.772707533539515,-1.3967336031741868,0.9034303922978868,0.7763059628626214,-1.779721154530206,-4.551980598424874,-2.1513006835758723,-0.9658785466332144,-5.0889571479977,-10.604825276596962,-3.465491028587465,-9.649397984760586
-10.65579208982854,-11.149953253092498,-12.46123043792273,-6.017739139796758,0.3847456564996081,0.3516766196196625,-4.472984970364887,-4.344224687264117,-2.301418903669384,-2.6084471625021024,-5.792447957511119,-11.054506477656588,-6.475714356964569,-11.213971931116866
-9.448741432792024,-14.201582286687174,-13.176690790930335,-11.977198458755757,-1.793918022714938,-0.5372324043587371,-8.277931335888475,-5.514551820410438,-2.3626739787489397,-5.788179260675024,-2.299537138566466,-13.013671525055315,-9.68210089972062,-15.592513555324436
-9.98296261814589,-16.181236852901822,-14.579294868351049,-16.962341410367962,-3.673451420373885,-1.3784147415939805,-9.805397702968945,-6.4816168987254175,-2.122392211134378,-7.394100489204224,-0.4365328370572901,-13.829814098675246,-11.815915767219405,-19.571798299007117
-7.810742198607142,-15.84025850019174,-15.147208484422006,-18.15753014999322,-3.7285960861552994,-1.6692796851008591,-7.184167704149524,-5.291519448642822,-1.2164077928060726,-4.7474417249697645,1.5332689792098484,-11.106998994600277,-11.653871685637943,-19.365903312404185
-6.108442381660976,-13.05209455394556,-13.361596780883056,-14.253237581629437,-2.262002453964917,-1.2906040384688169,-1.6044911450994457,-1.401638984553946,0.504455358051497,2.0414234946838725,2.7285627117342277,-4.804145959308265,-8.609775943455668,-13.06538192849828
-4.501584265029784,-9.202345040600589,-9.164201828930214,-6.932504400136196,-1.02799859828895,-0.5972473219083341,3.6426958758352113,3.612150057531072,2.6711186531437123,9.583683347110938,2.1561394169959462,2.1972193889154994,-3.6217451305372936,-2.245375419096953
0.029211666432945,-6.549346499526644,-4.310539034504933,-0.2768946109212891,-1.5391193668912615,-0.1193463397329059,5.735090558416417,7.049494543552682,4.390051119368371,13.345157731523752,3.9060535283599234,5.847621351858811,0.6989622213515467,8.420624657486247
3.1001165487913767,-6.775431507702459,-1.1470852612616331,1.8777731433466207,-3.7163874667031216,-0.0976972351690488,4.356136438488377,6.99998016366925,4.629598797033291,10.927002063802789,4.999963441314696,3.9306829736078654,1.4050862471133243,13.61735751885122
4.355220656237162,-9.68200287930757,-0.7896111732705489,-1.23429952331555,-6.081444592001699,-0.2637797165619986,1.6389427905608995,3.66779654189252,2.858084521454831,3.838114619576793,3.485223021438284,-2.060748247297333,-2.620608608638942,10.609697627360122
3.1841853841845698,-13.08259923931721,-2.2726883326656058,-6.580546282484366,-7.1436979238274,-0.0971833754811566,0.2466206636509937,-0.8785250765120445,-0.4467238446525776,-3.7636308491169,1.608134243228515,-7.897603310375697,-9.447823077647715,1.1422697781552031
-0.7490698126410301,-14.152891494220508,-3.3864502536638543,-9.439767010795409,-6.583933369432158,0.6378121603025484,1.2861105138926128,-4.244498389725719,-3.8471428346541305,-8.299726105599104,-1.9249878176279247,-9.84449593024462,-15.1359551583156,-9.440688534318213
-5.2826862937779895,-11.346759575171696,-2.4259030025321504,-6.83123401889647,-5.216142106787627,1.5692184504856872,3.7341917277107655,-5.303694477957549,-5.697181490498508,-9.217780230369073,-5.194537266176253,-7.51245019546826,-16.488246402475163,-15.431551429479136
-6.499357340738401,-5.454449272077474,0.6391485340647218,0.3516383551222795,-3.978590563344568,1.9509274282413624,5.650028383942622,-4.693756024118933,-5.211075454172118,-8.700949366503309,-4.426273623731331,-3.878027275935441,-13.406412950675076,-14.171296122231071
-2.2479497753227347,0.9946444906417646,4.408558054800155,8.105848555681131,-3.051196422833881,1.299614390192291,5.919999178952251,-3.9832532026138434,-3.0883822456472405,-9.205172355646043,-2.188914026488958,-2.4410199513170774,-8.908664185842373,-7.317602123510053
3.060049108610821,5.475324220941613,7.252665738046319,12.293989889556428,-1.8971849525490043,-0.1097283224448055,4.962954038096072,-4.278399712619253,-1.1168129938518376,-11.240053994963924,-1.565115195851585,-4.056070909129495,-6.733629899416677,0.707229919269853
10.156100891434852,6.984139355324636,8.34275306150808,11.465371881346226,-0.0344201654552378,-1.3505453327742796,3.9443417313188434,-5.381328018597792,-0.912950780578873,-13.308878403547318,-1.6127930667582548,-6.2933330002035,-8.416226630396093,5.729787299868699
14.44551902282396,6.279502183253633,7.840132733834004,7.440409522072831,2.311770433493459,-1.5101792329552968,3.488453084905609,-6.105286532263772,-2.7169616410525848,-13.713531303693127,-2.3940532984019574,-5.880992716191773,-12.141285366707953,6.151376235099935
11.081607096167282,4.929974749986346,6.4820552553551565,3.484371036454309,4.292771320669657,-0.3903373191222421,3.2323992276638416,-5.414504442182986,-5.23269174922657,-12.246442785672668,-2.6633293874026363,-1.9396067703149156,-14.239444901892268,3.290487666238928
8.093934306205822,4.140883278638706,5.172841766915043,1.7839441873254973,5.110064560221618,1.318618489550044,2.538711606251334,-3.4064185291318747,-6.704744697559207,-10.17554425938493,0.8684888583700594,3.0213436869238794,-12.103507556524004,-0.0304929490169083
3.639372157618461,4.232027892560849,4.796302864879203,2.2597427571301925,4.618273642300803,2.521356898774039,1.4116675934478646,-1.3125913944720278,-6.358983504626124,-8.788093196037119,5.754364812691408,5.301475376116918,-6.232031422452298,-1.4458519740491305
-0.2959814357052256,4.850987321131337,5.983424287262171,3.3749857440255404,3.355967462436764,2.473677103287697,0.5204882737463645,-0.5320545728671373,-4.968307770978534,-8.133517472811997,7.120435905473056,3.407235230866186,0.1532584494742526,-0.3460150579489323
3.4778238727237665,5.419152585451247,8.671823355388675,3.859723574386436,2.0795927115519497,1.2438094465624356,0.3259748710778662,-1.52997507168946,-4.048288044900611,-7.199809185686636,4.534572811236501,-0.4371289123480135,3.5591854688203224,2.0621870124095274
6.748170380097197,5.4134704395108,11.811929427303811,3.689877270114855,1.2730321420207158,-0.4197875264266759,0.3808794753800093,-3.518850112414855,-4.422052584083096,-5.172746955853027,-0.2056930975606451,-2.028626081588756,2.809515798488184,3.776200412801078
9.405068520570744,4.538455220525723,13.739900365483622,3.6296769983395496,1.0035709536067134,-1.6488694567722677,-0.2997200766366017,-5.126651839082781,-5.473965958603227,-2.357325515609057,-5.408572929456931,1.3505026401481066,-0.2010006243382314,3.404766675366785
12.64718264800684,2.9726079797241542,13.18991787394805,4.108569106578878,1.0977161163255076,-1.99912288590428,-2.127710172049424,-5.42059872577496,-5.762065158061025,0.1874761311570338,-6.423629727570277,8.68848427922524,-2.068676025692905,1.116108022529703
9.351745001122588,1.5518541061999258,10.197370821862696,4.716264233202049,1.35798358595396,-1.6169115569475618,-4.316305247455501,-4.444902339543502,-4.3786851312245805,1.847467805556368,-2.8791581383030347,15.980340825217318,-0.429798993363681,-1.4118689089466194
4.756550749181508,1.4856741598137564,6.102883892875225,4.74963537022427,1.6392672405733268,-1.0002076644728444,-5.517439013274535,-2.963257614041144,-1.7733590418533254,3.175907381045702,0.4211732583954649,19.16230704449208,4.5153717059963,-1.967223453909108
1.6556633179471831,3.5020056921296785,2.636080109990878,4.029511115407667,1.838056372168985,-0.6127127671025256,-5.1708059323581015,-1.7912447543722028,0.6813896165568334,5.350001404098382,2.935573387384816,16.824365212404082,10.541728774465035,0.8899822620372468
-2.0690967412667454,6.985169292756027,0.8598143539386558,2.971377351195136,1.9149894690480984,-0.6460527412119514,-4.211816773910273,-1.3191511935838562,1.884172701552517,8.876516967532655,2.929346086338742,10.763160172364053,15.272474563594614,6.9027720256155
-1.9942570430056252,9.967842980479825,0.7755019343780476,1.883329912472801,1.9363146084326743,-1.0348721001348498,-4.350414227358133,-1.4929564537921838,1.809261217217471,12.833368685129814,0.3984835581341764,4.323955649559112,17.651181362929236,14.014256056684772
-0.1707495648664559,10.290888519813132,1.682963994763556,0.4960595447234013,2.0211739267842788,-1.6044382476711938,-6.497772071010212,-2.07088423788153,1.277441905014041,15.439971169960687,-0.0658264291108077,0.076938640390908,17.89903692163357,19.136346409710725
0.05229301808571,7.2234714047255615,2.7577266797278392,-1.4875035915898298,2.196229752782485,-2.1720615791291973,-9.755748108293728,-2.830602984604411,1.1009039937481484,15.497011092358491,0.9227774555606084,-1.4608565983126622,16.444540588676702,19.51143028474584
0.9086173334592972,2.2741339885961462,3.3558596133334024,-3.3644360902631423,2.3285521219500955,-2.548257179914974,-11.930996901215384,-3.5829692862733404,1.5066987326770829,13.418689150520333,1.879965567405784,-1.443808928022964,13.281364932913217,14.133486336896294
1.420765949398806,-1.5982987103772084,3.0512603874861197,-3.3558536274212027,2.270426283024621,-2.532504373054052,-11.224065455035005,-4.086566666057368,2.261628052234373,10.931944614883625,2.633555464450547,-1.3527653192375908,8.55764365414909,4.549061260686743
1.037047709095405,-1.9538620274475136,1.679569750039894,-0.1066991730762039,2.091177535130779,-2.0064071782937054,-7.727488877751579,-4.044203969390935,3.106057759990809,9.681168638559472,0.1395036036318649,-1.914849624353141,3.602509233360065,-5.519342120414364
2.2216453919728187,1.3676405461063856,-0.5433290969306417,5.463316228590694,2.1045482264866013,-1.0816993423272718,-3.4867760252344464,-3.275906671356766,3.882149186867375,9.909131588270403,-3.755587558764843,-3.0182150859896746,0.8154827104533129,-11.786220191806008
1.9341176531441684,6.012793366392328,-3.0506007880115376,10.02691460440397,2.5822061395614484,-0.1313801606065254,-1.0239496886610775,-1.9836280839137517,4.281773397312042,10.300648291624965,-4.7961652169203095,-4.360711475067401,1.901771861143123,-11.59404729535956
-1.4853999137565204,8.644521731307155,-5.230258824619762,10.124783227776254,3.4157868220222447,0.4066221408481207,-1.4631643903645513,-0.8561736883109532,3.724541168096273,9.09178049396456,-3.171312469719515,-5.958744919777846,5.889527628121545,-5.497202817216782
-4.861361779110574,7.188874004396078,-6.765033895367323,5.108224169901284,4.117264056157032,0.3428915899849651,-3.7222827743581113,-0.7536407062436439,1.769783441480454,5.524023596446948,0.1449201659835536,-7.92326887326181,9.113039993251704,2.858454948148242
-10.04127586032399,2.217022941568876,-7.639297569865539,-1.973195198795968,4.2320791401109545,-0.104603288657932,-5.376964783493424,-2.001071424305874,-1.2271195177837466,0.4870763632247872,3.2967558227193394,-9.797287903960129,7.806540130443285,8.791105823427612
-12.13179290878585,-3.4978049824202726,-7.809448835836333,-6.584415565705049,3.786382320984278,-0.4827464803292699,-4.466580793396703,-3.779525351736684,-3.966214813920871,-4.110445913661488,3.247382147689084,-10.34429252237283,1.3827022377684033,9.48576782218578
-7.877678637621848,-6.895323400513103,-6.9750365194819,-6.231223579549959,3.302422528396993,-0.4867968108196918,-0.8185054789607418,-4.294661518964708,-4.946580733440498,-6.680973430436351,0.8138622648846765,-8.310890298683375,-6.571813194915492,5.764431142866807
-3.163693329891061,-6.613175186309858,-4.827117176414198,-2.260192460036322,3.320648250806516,-0.2169257288294632,4.029711814508258,-1.929805056469707,-3.597649481193918,-6.932483167362999,-1.1405648311377865,-3.637613558391831,-10.79416499341588,1.2413081044615035
4.503367092314107,-3.639194081008928,-1.5822485796162775,1.555471019389152,3.8661700517625865,-0.0632231060759833,8.041825183542056,3.331561004577508,-0.8054901728333288,-5.770947986440049,-2.0268308692865973,2.068235710212659,-8.428332114130361,-0.675674371659037
8.842386459827022,-0.271184916152444,1.8242337989972657,2.276820904979327,4.373958527635586,-0.3120225873866671,9.959304643293557,9.4575198735402,1.7029365829354068,-4.3341436130582185,-1.174361740280342,6.4657714671299695,-1.2387555047112355,0.4911054737612099
6.51342824805942,1.694088465829994,4.251751790824601,0.0344184939565779,4.161692620166815,-0.8353211064488519,9.769683499703218,13.563330305283918,2.650153759363243,-3.043652207334059,0.6883512967221778,8.179429761388818,5.923302515566364,2.294815399457036
5.4006894989307845,2.097807084890542,5.188308713783331,-2.5408974868231478,3.0239036306936957,-1.156957354724753,8.322082954804756,14.016473397058064,2.107120785944371,-1.464238077070986,1.5035901668413745,7.800682243122111,8.993201218180355,2.176678491132531
1.2887240173235517,2.086738028421046,5.096502190620408,-2.93723057569175,1.4129376952522126,-0.8487779017810997,6.646679660651984,11.72911902847594,1.2899629234910623,0.9978063426048838,2.333222944563448,7.276968767605783,7.546109610847875,0.3888452205243524
-0.7400466522705827,2.774618265655981,4.8939983313687225,-1.0088912876362972,0.059536703052796,0.0850320382901781,5.480036742052425,9.407252399200624,1.4938304613470326,4.264623745397712,2.535890441320617,8.23116092384117,4.394758181761908,0.0162178844604099
1.5602207174955585,4.161290954514218,5.073043398511803,1.0542740658239342,-0.6096697546322734,1.1672850962681878,5.090052993104571,9.245086372387576,3.07020494933534,7.407777610184716,0.5489257336142763,10.718896727981235,2.700491234696319,3.8568534492919895
0.711470547450751,5.236931689996343,5.3511348377402985,0.8664422139373738,-0.7408417201510247,1.7836051993554063,5.268352802486611,10.997609660424652,5.214205988828061,9.272565922867626,0.0379446610773154,13.459121754610155,3.3906408035976234,11.156218669206671
2.177085483023411,5.06380695692202,5.1858828799692045,-1.8717889316788376,-0.7998438164655717,1.6257913880916828,5.45187001385794,12.148131175633663,6.614022099939545,9.319851923536588,-1.1004420057534707,15.144283143807588,4.990645125191442,17.52734469022221
2.948860902023446,3.74643600044484,4.543074600814032,-4.966676994296785,-1.074791985782781,0.903172548568481,5.039507747659268,10.104215085776572,6.396435069113009,7.934409640890422,-3.156735932297628,15.47043837309642,5.5228584458180485,18.34110771096473
1.3205403213714662,2.3812100572243384,4.010938505745793,-5.561539627547626,-1.4200405022785605,0.1777043162484837,3.823305547066808,4.56322226574758,4.707495987490812,5.979105909531675,-2.2852459857626406,14.942792706281748,4.372121024031344,12.498820691920294
2.890983285289459,2.0947438292735185,4.070183583140121,-2.621223772678448,-1.4786960722491609,-0.0419212659497034,2.215989633213759,-1.9983885466172675,2.603631169686647,4.076986103479975,-1.8476359975748224,13.844755657441697,2.4646301284719545,3.207219893770384
2.5668677441812253,3.120078722280347,4.320362524264411,2.081095188945362,-1.151826249044909,0.3505291448823442,0.9938200484631246,-6.1554861544005135,1.3579716169652194,2.3125665797210324,-0.8494801696934271,11.6275021768442,0.9952243731109452,-4.681316958809214
1.808523362236367,4.724434733154986,3.628232890313466,5.330043675207211,-0.830054242745355,1.0100443797883614,0.6794822115353156,-6.142146417316575,1.595697155930388,0.578927269983744,1.3157952122490668,7.511693905362536,0.2512974812840642,-8.128226345784148
2.584168829049054,5.914676197771279,1.2369374872406382,5.005785163770312,-1.1129716025944028,1.4154280471004128,1.087651300994512,-3.060818549503725,2.7988728171426622,-0.8705091394462983,1.9853027103086711,1.7609335017519108,-0.3313232378736597,-7.2864021587039804
0.9744730957500672,6.156510164673666,-2.218987882459775,1.6434630980757348,-2.2275602890496278,1.2605327823491734,1.4833836119531618,0.2442420902425794,3.5895034188818684,-1.3255260825854336,1.4576108083100696,-3.7523189406173074,-1.2025264587738942,-4.305461469256024
0.3029560197160237,5.509860444781669,-4.921011608487241,-2.196746606770848,-3.6784527961976607,0.6709002332609764,1.2415014527960082,1.5794262667930925,2.733444034362236,-0.193512706750262,0.7234601757472084,-6.5261608059586464,-2.0394371928554778,-1.3760137646052968
0.1280280690030232,4.29317517487641,-5.294274969336485,-4.036687618281636,-4.504148567918691,0.0887961377622978,0.3830346745126647,0.971427161957454,0.1955266551099015,2.2351170983837125,0.3754043528878054,-5.334268286678697,-2.1199641207732505,0.1386015073162063
-1.5744096370326384,2.8005936382576664,-3.4080015865276145,-3.217828248673218,-3.9971718706329575,-0.0748831571159875,-0.5313713358240193,0.1577823161349698,-2.654586680967892,4.595300940006254,0.102663904646983,-1.4473078194695148,-1.252839440246758,-0.6140888882887605
-2.191267989454965,1.319385851758348,-1.0216077226065785,-0.9985762116730292,-2.3145791912956355,0.251719896018507,-1.0062715475140678,0.647390861474765,-4.025700724182794,5.1651112902366805,0.2349401305070048,1.9811483227534303,-0.1968180737644029,-4.21423989852299
-3.3579872709753427,0.1910045709197874,-0.179160248225628,0.720524777589322,-0.4512125634932218,0.7660874732907352,-1.041852483279662,2.2388819303698853,-3.175366277583848,3.030590881131836,-0.434606049744824,1.9862788851124653,-0.0745980172849449,-10.304145710497384
-5.18566007806687,-0.3857418251781936,-1.6090338772952748,0.7792458651720722,0.4475720654626798,1.0396799601172333,-0.9410108589905376,3.342317439965065,-1.0892130713708357,-1.218458787944023,-1.438276354382174,-2.269359364785789,-1.350423200036083,-16.71754605403133
-5.902752961874221,-0.6569542530270382,-4.331548742181209,-0.7373458211291037,-0.0891902491695191,0.8461393916995199,-0.8036226456136788,2.667563216431855,0.3190830618059763,-5.847246062268788,-0.7746182627520583,-9.105188996752467,-3.3797399250008464,-19.87613493260043
-7.230183756349652,-1.2558482635990806,-6.688464748754594,-2.8794258761877742,-1.5489108842678938,0.3200365736301975,-0.412663973959777,0.5429570287382006,-0.1643571457979078,-9.107581092997943,-0.0755861089190964,-15.569451422317126,-4.946231638915704,-16.944102947764975
-8.680981342083392,-2.6404342213015752,-7.7035036308373535,-4.4964813232789,-2.874024650998283,-0.1598775859625192,0.2921496672019117,-1.434219351219184,-2.064874295390186,-10.228276872804344,1.0937473844625707,-19.192826775827328,-5.240356419921374,-8.339500668889912
-8.512429075790438,-4.530384834967919,-7.540499517584674,-4.739879648013467,-3.26906898298482,-0.2578962744881323,0.8010628488749134,-2.0073805863153247,-3.761844660761291,-9.53036387548408,1.627090660498914,-19.024373272968635,-4.371551715669956,1.695689523357018
-7.809158948614492,-6.019582962657012,-6.886588053368314,-3.387371640644485,-2.715855844995847,0.0852433204591065,0.4078112339728612,-1.4723706984672589,-3.996881381287423,-7.761457050526197,-0.2301516274867233,-15.608990778111572,-3.056201048847438,7.503290882442748
-6.701904045921988,-6.415499126274884,-6.163649494982419,-1.064676731742907,-1.83075982865369,0.6435702510457411,-0.8548581614947217,-1.2963103516847774,-2.894773236588282,-5.42366801377959,-1.4186588642518747,-10.415931628220662,-1.9475260286988425,5.876541169025899
-4.094377905833417,-6.037319336298861,-5.444854578043699,0.8183734125134521,-1.2865885050046089,1.1059406619501324,-1.849343277706556,-2.6036751071843938,-1.6085746079996568,-2.741876679476768,-2.107189812105251,-5.28902491555505,-1.3197755213260045,-1.663018915350655
-3.058906930619089,-6.10142455548408,-4.961833591793514,0.6989391540444032,-1.350918538715355,1.3002985348893965,-1.272777190816182,-5.099720593554386,-1.0990962520706198,-0.1420842416396084,-1.8323284331748293,-1.984329365019612,-1.2817564630595475,-10.0958177767439
-3.9611859776102656,-7.645035000129921,-5.322888696476994,-2.057648055478758,-1.8762139666837785,1.2535285918291097,0.8581669825694309,-7.44330154282332,-1.3326840968949547,1.4958581403339153,-0.4741543068193881,-1.57644497980208,-2.026165187677483,-14.574496948858988
-4.062778457672324,-10.407122793282626,-6.922999753788771,-6.338000406703445,-2.5858785686147154,1.074168362100636,2.848608289443927,-8.531352537300663,-1.588824096649299,1.3215232135361532,-0.1490739420691936,-3.8240589495118265,-3.5980860174268443,-13.40345565623404
-5.529707093772556,-12.726305816715804,-9.10984442643071,-9.560516330490294,-3.270575112462268,0.8198608797702711,2.8020990651114293,-8.297498041106431,-1.3519664395243964,-0.6026513986619761,0.0038039141759663,-7.031059745247948,-5.351217704960725,-8.078647605673378
-6.140855242852452,-12.65381437637522,-10.205328110195966,-9.205064130349948,-3.7484459173152263,0.4990640578328715,0.6114098175962503,-7.32291973603642,-0.7542354149539747,-2.937696334842988,-0.3136804174385242,-8.836396246841158,-5.868952479981949,-1.074156364124364
-3.959865464727839,-9.419395067316248,-8.745121768058766,-4.677871109384954,-3.812802149852603,0.1636587048543107,-1.7012660816072014,-5.933989691475006,-0.1954692295017945,-3.805127377928188,-0.2567938304111948,-7.640811550598233,-3.867896402718469,5.980362970382042
-2.6697873561847847,-4.097441709310266,-4.952498858323107,1.9186953270153888,-3.406231039423812,-0.0813834088636964,-1.9270657277414047,-3.950242324547266,0.2544635391441439,-2.194859371378333,2.0099456759122942,-3.711583211752868,0.435210304910048,12.07427444726891
-0.5957062133188655,0.9926218044876682,-0.94402352032963,6.908084541011101,-2.8818442688691244,-0.2129334659497344,-0.0599130107513035,-1.3429500690724527,0.899157343348278,1.1189091348484776,4.3064989693946,0.905948267843093,4.798523330748526,15.571874810663992
2.1582962925200198,3.647982671193478,0.8348542603109692,7.431406843121771,-2.927050408802503,-0.4008662806700962,1.4259838007803247,1.129626708785335,1.8863308425893,4.031384159191998,4.570683036869183,3.703570786997707,6.148334895025428,14.262757366180576
3.2406071787369197,2.972864842829301,-0.2403244197079619,3.420078438250222,-3.977907137968733,-0.8898449802669761,-0.0481530886783296,2.3048251939529143,2.8131158350476184,4.686913074086947,2.6269306456675503,3.388128564913311,2.890578598193467,7.420860974665224
5.087859407308637,-0.2296066903986009,-2.1738638631655345,-2.317640699053939,-5.558905000775521,-1.7033663358111149,-4.384292553941352,1.8180492540043112,3.0142942696901853,2.942448634876712,-1.8856085414074049,0.7946945739518281,-3.482144916521083,-2.1104151516816465
7.566861921654267,-3.915299858218976,-1.8156897170037036,-5.971294803118369,-6.270398053372727,-2.4879380070532644,-8.483483335347307,0.8230767519194071,2.2540156051550664,0.4921883262606474,-6.822510172753424,-1.5718168564235224,-9.016844146624448,-8.488705031911952
8.533301883341945,-5.8038481639009145,2.4806170607697524,-5.198146845663139,-4.680542709760884,-2.7334732728864743,-8.8984908817684,1.226132413429811,1.0408208754644193,-0.4933076187412837,-6.941058027095528,-1.0878422830991568,-9.93651563608416,-6.507330691880561
9.14885965222299,-4.529042674334109,9.259757522824533,-0.4662430754554592,-0.5175655924992721,-2.212914107486588,-4.998182529886147,3.9377030146390126,0.1955835410673749,0.8890780730607837,-2.20495940271743,3.306206091863057,-5.321338573309955,4.347679613490904
9.918061819493008,-0.4449375144714196,14.90527102153627,5.5397299975423255,4.856626452481216,-1.2132983819951946,0.4036462759648316,7.800803643861705,0.1322328927939153,3.5961456584588376,3.1843751267802234,10.34612482872831,2.277373787995579,18.83457788828525
9.235439701837816,4.453531480237107,16.46134425448388,9.877191544895036,9.200438822918422,-0.3078381525723408,3.559324560065136,10.364070223037992,0.6030335394529658,5.5784267623562585,9.20633498084567,17.11252149155949,8.753621687242607,29.00000651182978
8.79429158631895,7.702547231679063,14.008848830220735,11.246923411477784,10.860920790379977,0.1264194427390883,3.0209739639279256,9.912274865629984,1.1113530932237945,5.498203946913005,10.222346323561183,20.735513570668168,11.318535529530756,29.16983215034064
9.62736535610496,8.035100489668906,10.571104282441588,10.569857447983225,9.823779799193352,0.1983898567787676,0.5783592773293442,6.884051345608064,1.459789789336753,3.71798977274738,4.222177143472558,20.037946293668355,10.07977391623195,19.310848889960475
9.110374644005113,6.287229318608233,9.59244352472864,9.921446134222002,7.557880738358364,0.3585926543214555,-0.7867086847187181,3.320667124253532,1.8113281308301763,1.7240831404105634,0.1494442919969125,16.02681999957442,7.280133415844034,4.624210888648136
8.569275216136493,4.636627839106524,12.092364424712263,10.64595926224562,5.856750894650446,0.9747500786504516,0.2362123107325899,0.8713344254432158,2.2575885080444777,0.5794637487054928,-4.519358126261403,10.933851869412017,5.093102680386359,-7.9313172694256835
8.74583535806358,4.642972558547875,15.853914046335255,12.109130352551697,5.633562915792098,1.979678855780172,2.3374218826367823,-0.7019796445515638,2.4759725252621863,-0.1176974383752096,-7.823542810041417,6.552332285256128,3.896055925390094,-13.572560374596575
6.501630941838306,5.785242958857019,17.24551926425208,12.161942275074622,6.5413082490504095,2.832780099008666,3.184364623075908,-3.041806805928488,1.9513511741271257,-1.782562804308796,-5.641427261001112,3.1244739180836945,2.318783377845719,-11.69280678080922
3.989236346790928,5.926992203691398,14.074051440967123,9.071317348729323,7.522967987678996,2.8171568234732263,1.7109778135557576,-7.191937326956023,0.5689422578324468,-5.323630099630911,-6.489835092525151,-0.4123504781965508,-1.200951138166566,-5.290374283348342
2.2935163380920534,3.396376054811867,7.139717840246988,3.333149495202079,7.680902558424066,1.533075472651774,-1.1488684861282437,-12.06661350579941,-1.0850587449038829,-9.992135491687511,-7.477710038418602,-5.086780118044352,-6.767924295089031,1.1470243223785488
-1.4365082788000398,-1.2430507588748654,-0.5714608283773188,-2.333877894396224,6.771800157680218,-0.6715324258677242,-3.673428655495094,-14.990474182521275,-2.1237614911085245,-13.712967073205576,-4.775409972318899,-10.59203275540964,-12.61094330725647,3.82755226795485
-3.911818487955978,-5.454989044523913,-6.122858208395684,-5.032808690418861,5.126609918454612,-2.6693263189017813,-4.92646396101194,-13.92815037147723,-2.138282151740185,-14.653252132011389,-1.343986432575203,-15.135348957724588,-16.156945086948504,1.0645370449354843
-5.445188726980931,-6.823865685047352,-8.399791411602003,-4.068982005750399,3.302776664037303,-3.12672908775955,-5.051889485372428,-9.3543716553349,-1.590860830769138,-12.656718877053107,3.0977149830959547,-16.640968347090578,-15.738760415058168,-6.205909778328177
-9.456551951053145,-5.012842619895331,-8.256697133192262,-1.474934437311454,1.8357429591367804,-1.4485472287759291,-4.328113888928257,-3.988943788589168,-1.3871377997650214,-9.29543304586594,8.471407758918012,-14.388381933389006,-11.692658652876254,-14.76711536196364
-9.565525204839988,-1.7996035649583462,-7.36641339559177,-0.1182473032934083,1.136686375987736,1.593617076415207,-2.424554082795936,-0.5950913432210712,-1.9912318236552904,-6.529377056447146,9.709337304253298,-9.737106928078646,-6.110064721540574,-20.434464363130147
-6.884617444126099,0.6836587409827786,-6.955371568294957,-1.1507316898261877,1.3467702455239987,4.185798308442386,1.0943202443985314,0.167493221954416,-2.931828443711723,-5.184078215208693,5.9999386403162775,-5.265493852477427,-1.4805204156229124,-20.154275527552244
-5.079178829116774,1.697813310249515,-7.295981870632673,-3.2397125125174,2.104869830125025,4.673244411566472,5.585464630851831,-0.071483988727877,-3.2143269465856434,-4.570655164262433,3.834762771315928,-2.9620438451402435,0.7871826540911542,-13.901948844527157
1.4939137552444313,2.0405633406261927,-7.966184973817384,-4.264659147573198,2.498193036113236,2.7499898478714897,8.97517836987312,0.7726613313638779,-2.2904562022715425,-3.4968266571727327,0.7451958869054152,-2.9576193476430888,0.9507492184736464,-4.973242146977782
3.827759207350669,2.7438898186879896,-8.371074475871168,-3.668546646845897,1.4874310843827772,-0.3486698395843461,8.962756562516262,3.164078932273071,-0.6667955788881557,-1.6392283265035132,-2.0214322332996018,-3.84696213399026,0.3212988403674472,1.9160517930428824
0.5182905196120922,3.868510405297485,-8.124843782435462,-2.993687375638487,-1.3251042432733442,-2.8271185440200526,4.867923739421912,5.533434221414467,0.4632638190643092,0.0665577244926112,-1.750539748285846,-4.232862608457609,0.0573025342265225,3.617304452189444
0.038692263076943,4.599872262781801,-7.207797584213694,-4.04015424924782,-5.178381897339023,-3.646977063739911,-1.5449987209105984,5.815710706070433,0.2642044664581249,0.4044370195219784,-2.8299926146791523,-4.015988638873949,0.3645379655946499,0.464987389866863
-5.232006458188494,4.323970091353843,-5.93583202340588,-6.609530051445944,-8.438542097738335,-3.0909851533552484,-7.069226084159027,3.4471172700102386,-0.978064341075168,-0.7439800266953824,-3.580176051064881,-4.237232510380977,0.6574174004252598,-4.312772207148214
-7.484522705603344,3.366367255995371,-4.739285511679157,-8.301250558980371,-9.615769682611043,-2.211637134252669,-9.114100624393728,0.0020137727425577,-2.086824457403424,-2.045461881722048,-2.796840681885396,-5.708437828964378,0.358984538197646,-7.129601098682201
-3.4472510477794778,2.591960751597042,-3.8099421578387336,-6.751788470481657,-8.374903084955946,-1.7984566652866365,-7.240492755432513,-2.0351091358897264,-2.0087764866918008,-1.858883799370517,-1.9572243760447143,-7.840293282953155,-0.4936333797931524,-6.462176420425209
-3.4518985264782,2.3883304413722755,-2.871871478264921,-2.164326376565853,-5.738418266832198,-1.8260284883774036,-3.1385270292734617,-1.2225335487602609,-0.6914827065080544,0.1491728474741052,-0.7976504650453018,-8.836300443865042,-1.3641937782454647,-3.398778249707135
0.4021376860283949,2.205328242304418,-1.3669480035945725,2.4378920018440766,-3.314781466008497,-1.7644645032278845,0.7234214815076427,1.8170030147031893,0.928223791337672,2.5249871447658307,0.7974179062866931,-7.073827041528048,-1.804832021171208,-0.2651406724014435
3.247664962348488,1.1684280489965315,0.9708868977615452,3.6601684207666594,-2.1714277750890005,-1.2787553162372944,2.655861892877283,5.0259787224964825,1.7350607506790254,3.288396853901695,1.5378965574623098,-2.419965698938171,-1.820377476701097,1.2250673796916942
0.6294611184220809,-0.8851449086409175,3.613528945042887,0.7297228736962609,-2.229232588228612,-0.5567138660174891,2.454142683500862,6.503479561002457,1.2805942688418668,1.843121662782842,1.278967838900742,3.585935546654717,-1.6339567090366387,0.8046305859115677
1.7129244170543705,-3.026372776034968,5.346044277667318,-3.676373699433761,-2.5885275742440186,0.0008089985240786,0.9973826401474284,5.730558255537176,-0.0089946227105315,-0.2778836239461242,0.8422178959933541,8.677228630231369,-1.1801105613960343,-0.8140365329422252
0.4263476960878953,-3.9082929565159006,5.04986883452321,-5.558269290794243,-2.429947069857654,0.287749915563694,-0.6794129456388021,3.625678370291269,-1.2739443410496492,-0.6235593234550265,-0.0979426043190076,11.107627635691223,0.0261867696027593,-2.8194590737303
-2.2637740020224597,-2.8753653171757207,2.5879684657517146,-2.910166018907788,-1.7130155635042996,0.5811109782033625,-2.0132533394430894,1.662432237569142,-1.80162529354304,2.0438959816196203,-0.5950647415743507,10.429112015228448,2.404539194387617,-4.627693484327011
-2.436813799909533,-0.547948433562425,-0.971570516024201,2.4923041290526555,-1.130229462228982,1.1081325034461784,-2.8829585444444987,0.8780011985830001,-1.3092045338862448,6.598334672425075,-0.2034338135342678,7.563940129455439,5.660880696865888,-5.595461643000292
-5.544682409455098,1.537503647350647,-4.049590378205892,6.258079745322938,-1.429986793113386,1.6166071184415216,-3.2623590649441283,1.4030881452297592,0.0756187861856645,10.364178080095073,0.2856850232325015,4.295290994470669,8.652569623556055,-4.891822481874236
-8.751446036799248,1.862032524009756,-5.635607870428643,4.603309424342598,-2.7320473075673632,1.5098621742058924,-3.129007086930738,2.5709535653336038,1.8899021240616989,11.110080828562957,0.720015458860986,2.367681566168472,9.968728323613526,-2.119306482567822
-9.969518461224002,-0.2578657608434049,-5.871229578613047,-2.775642652534444,-4.417454298629629,0.4863445879655295,-2.736097260913453,3.3298073911333965,3.383980742964855,8.509979549138627,0.6521441982129974,2.5058999725293774,8.754927658706634,1.7572769817340763
-10.549039122175063,-4.391374700759293,-5.683198710102904,-12.287037339591516,-5.640838530368612,-0.9894085972395636,-2.74259864679356,2.7492917337110043,3.724663714513948,4.034884888429964,0.0407857056207692,3.9062807318352135,5.134373967245487,4.348902423257378
-10.051991934987193,-9.244172359040691,-5.850351433425658,-18.813711047581837,-5.978368317607414,-1.9564893683245952,-3.724965561390458,0.5365343348890264,2.4682639464224785,-0.3144659370968146,-0.669894979983298,4.715342744359084,0.0244412118849979,3.270937198681421
-8.887640855637338,-13.211770746019504,-6.358699810793328,-19.19141133390219,-5.651206070509652,-1.7837245435245448,-5.365334254471687,-2.627864021876066,0.0225514438310181,-3.2320878055164224,-1.476355651500445,3.376633287659936,-5.309595176605578,-1.816935994005928
-6.917956839603425,-15.007910169602434,-6.577289118916909,-14.276387044845071,-5.196609566071781,-0.7563505625167201,-6.253263957981275,-5.284165458525015,-2.419167055914519,-4.491803668394158,-1.60302153593736,-0.0856880853788955,-9.556677383754351,-8.385301469721426
-5.186455842138714,-14.173608495076683,-5.985934285762324,-8.07062067387406,-4.964185532556035,0.1717802229316154,-4.846554453667807,-6.055272749028737,-3.6504723516869007,-4.611196242557496,-0.742166398374101,-3.923398971641089,-11.511167955871615,-12.4637646543568
-2.965950244281274,-11.273025924116702,-4.681225344717088,-4.590895521825447,-4.915264837156695,0.2294088530471381,-0.926125560692677,-4.698059934456836,-3.401034202897666,-4.3543866772923,0.4539908880121582,-5.890355862888208,-10.36891146456831,-11.38223103806807
1.3008041534296115,-7.662250286552322,-3.1604082068372463,-4.956254864613872,-4.838168917253437,-0.5270096602407293,3.872504532928048,-2.440097421654752,-2.58802918480022,-4.389925287391073,2.523090966728168,-4.90446982297955,-6.248776237288567,-5.59847325847916
2.906111970096376,-4.920243201196559,-1.6526345668697964,-6.984704218318605,-4.666865708529041,-1.340522078111011,7.180660179384368,-1.1035206421840795,-2.507776952831616,-5.049604530330868,3.6257376818848455,-1.799807998949035,-0.5207458927137836,1.855692482716357
2.68680986063516,-4.207447319559115,0.2393900951002834,-7.464241912031625,-4.531574057008861,-1.4591551237204357,7.799515491869336,-1.599454424269254,-3.611527269244,-6.1360669530069885,2.2442689530201405,1.415214049674475,4.611685332087511,7.669346529693648
3.8416885588438703,-5.802280862072337,3.116275988562208,-4.987317465186251,-4.506120934013822,-0.747007031402724,6.638235018648118,-3.120536269227862,-5.016334196068229,-6.949328191454868,0.1084676633825545,3.120503320241696,7.279447257680211,10.255668382639731
1.858277382169412,-8.916206504848681,6.914262581517569,-0.867302934990569,-4.357062097025221,0.2764350401774607,5.784810909530627,-3.8752706210157584,-5.290349138294033,-6.678536543151004,-3.3080843402970257,3.153844141936183,7.103383089068075,10.03539647821036
2.327702008666976,-11.810505474246028,10.464348894112716,2.469462978728501,-3.597976249308473,0.8973971183208391,6.590095497939956,-2.7824224431634264,-3.826404700459335,-4.952992143750919,-5.06133494442282,2.5886928769138398,5.392686148997768,8.366072699182567
7.394873748761895,-12.29320985295351,12.061196771459777,3.88924185036754,-1.8446169043737228,0.7534492551098708,8.561188376072622,-0.5388551005503075,-1.4917514177533633,-2.096766654313214,-2.633853994233057,2.582254594608685,4.152996865734934,6.528667001989234
10.159502062952624,-8.649971695616344,10.73478301970097,4.4527668103470575,0.8246359480492629,0.0961808071628524,9.99699551205147,1.02293782332778,0.0987684066483893,1.1524553059385312,0.4117909241146512,3.408085542831415,4.675204298772201,5.56864207042652
15.569577916173772,-0.7406150086149523,7.216506233402683,6.136405297950503,3.803918660052588,-0.3744479265390481,9.594440477990531,0.7386601970514022,0.0139897767627132,4.195183564302482,4.260327498163329,4.489560462823874,6.821266993167171,6.484717501368891
19.312331101407786,9.42858444179896,3.720904829738714,9.812042050522436,6.256064802003948,-0.0254671011874023,7.45163533889469,-0.6478475688874425,-1.1973944302392,6.884375035788224,5.8076366818326655,5.236997572686803,9.464374074309063,9.89098728855599
16.041548314091084,18.337314042496843,2.552177560585534,14.455027787193416,7.575931171811746,1.142358144304339,4.703642677262991,-1.0481044808185942,-2.0476351754956568,9.361690881224206,2.2770380828855883,5.741294121847986,11.502018956032812,15.19442819031245
13.736331160867463,22.73628199720808,4.484975980462366,18.136686407141056,7.72518825510852,2.3358536542853727,2.444641428850616,1.072031994262474,-1.4227352849286206,11.647289079569504,-0.2211425714721628,6.592038606254235,12.45088342603202,20.311644614299155
9.398505945268028,21.531348025119183,8.115399800372657,19.595382647036036,7.22478332162305,2.516499513388084,1.1032274539992954,5.19457984704151,0.5276153001125437,13.407629053784646,-2.2751880282484627,8.020639294542718,12.223498965856194,22.679636811706075
4.22227681674294,16.386346097394494,10.724091666071246,18.84687756159923,6.801737726110758,1.366266533320129,0.6564983569095659,9.00652148979897,2.601779077668283,14.107386175854856,-3.337278628061268,9.286743201852232,10.62137866033214,20.975925974202426
3.1820646178173213,10.510293789935275,10.11302784397239,16.540580263228037,6.918016197051742,-0.179735705420569,1.0378461129710672,10.15334841519268,3.5190685960693884,13.407359253493269,-1.133152354941754,9.016094881418669,7.347097087436708,16.041080345782774
0.6108823287421778,6.5240827812518205,6.150401637008997,13.109958863838358,7.50956870941468,-0.5311023865431821,2.021839731617547,7.948962245402356,2.799344322242291,11.511151109514913,-1.1969177314418389,6.2832062824780905,2.6497164350193145,10.110628567507009
-2.8547841994549685,5.051040050602836,0.9142443555190312,8.769091199265887,8.128836488879386,1.1225931812518295,2.75529095156071,3.677405467722963,0.989623806029556,9.2261302125452,-2.358157494833629,1.5099156866925796,-2.172520867122074,5.064700078824615
-4.352997221293833,5.012661344672665,-2.7112492609909964,4.199207195316404,8.365487102403932,3.795392447215562,1.7994710827161668,-0.5664139229975547,-0.7191705787525962,7.659737341910841,-2.2206640027595643,-3.60461422955828,-5.236652168356329,1.3355716918027554
-5.102046289802608,5.115516582829059,-3.025190390015098,0.815854697799324,8.176682418208685,5.22191827267244,-1.877959943100194,-3.378128956049068,-1.132214399483587,7.646824419626341,-1.564003576111778,-7.089172909565889,-5.377404698188428,-1.620764968875477
-4.940955276954482,5.063720381016992,-0.671530783603373,-0.0594037748444407,7.838395833648974,3.690575410544597,-7.6726216802019,-4.702386660049172,0.3522821278409651,9.193967481834877,0.6870819849686532,-7.882493801013567,-3.162849628773728,-4.013810609698481
-3.1880516415911404,5.469438983116106,1.867249373896584,1.5436035194932742,7.589350087977266,-0.3505474701290723,-13.162896258646214,-5.354722559111536,3.38347286922766,11.331902948781988,3.5701143359957443,-6.378662854219101,-0.5857571269582991,-5.11880007753652
-1.6717312010926646,6.764868001081311,2.073733931401108,3.9286203052933217,7.34437571642755,-4.422709875279622,-15.494666641711888,-6.049585963688344,6.719050234786579,12.600374685500327,4.530757862193938,-4.047590858076603,0.4142466121969619,-4.096205861725252
-1.8024307704319973,8.333845676155136,-0.8212505756681026,4.905971259753841,6.7908046097034,-5.896211922172256,-13.382165331893844,-6.804409544261148,8.806709880641847,11.950498502912552,2.802494972973609,-2.4505887262488386,-0.6776474626786637,-1.3477267197699518
-1.4729140280655528,8.775442963923211,-5.3424784668847565,3.4727221148026786,5.785490092168004,-4.046103605085364,-8.078524026798448,-7.087284591075559,8.672518412120894,9.451197799133183,0.181939224023074,-2.2855913662755256,-2.8383435359296243,1.127242064243518
-0.4227061696031977,7.08006884272109,-8.835680491453331,0.4533725749378732,4.632733295378671,-0.5323512827170305,-2.476457324292568,-6.403036433057849,6.561278390629212,6.239589457061527,-2.764475094659037,-3.03246940829024,-4.571877661807889,0.9521428157291608
-0.6138342575084126,3.64180435380797,-9.24152534385965,-2.405065306773622,3.894969498115188,2.044608031922536,0.9113196591834763,-4.740350310623455,3.801453889555802,3.7021815932841946,-4.312428951942835,-3.421949602559806,-5.034513462470272,-2.812990515129002
-1.4199914332828376,0.1796685216313562,-6.332224437293348,-3.880605293801637,3.838395368758171,2.194827555276561,1.4531693695901424,-2.5587712617520424,1.8931461403966807,2.485123444828787,-3.121756682936465,-2.448877224272138,-4.293542005544964,-8.837872927857688
-2.130703491508631,-1.424628695870723,-1.705708655044759,-3.909922505279411,4.029282480649925,0.4657551568564599,0.3156006355020793,-0.4497396700577951,1.4640502481936153,2.0821230290638084,-0.9698965939812252,-0.2376552866402903,-2.852628602305145,-14.342136280263844
-4.29862084327214,-0.4758209622025049,2.2487158196701102,-3.1202238373671207,3.554343908005876,-1.3637855434703283,-0.8512699581732477,1.171232629977169,1.923859158245591,1.298176256174031,1.5548876558338216,1.9198655919078649,-1.228285347254996,-16.83422148483504
-4.842513759565242,2.0518884665037262,3.645506157293596,-2.116725212275668,1.8095298543308616,-1.902532091281785,-1.1841338088783289,2.146135290622624,2.1204454211699613,-0.7784961917331259,3.509166773221265,2.469096052689366,0.0489252218683873,-15.434492246952884
-2.282883256907303,4.293918970730857,1.96600733609705,-1.310045833589612,-0.7852554792598312,-1.1198703620434571,-0.8641828201348289,2.5304494675563944,1.4512088804851544,-4.02119203190226,3.721162518714917,0.7949571195401859,0.4252434676649272,-11.008693754471407
0.0754336300831662,4.954366273131939,-1.7944022496013474,-1.0819755131568627,-2.86567348264434,-0.0121834356106518,-0.4671165357949434,2.5921864246471245,0.4435875193741054,-7.262988263582613,2.8638627502954352,-2.230272614425658,-0.2426145504134069,-5.320139219987723
3.8322373653108,4.287465177056276,-5.638564378765835,-1.618468098835109,-3.1069481869448907,0.4674194874341708,-0.2603944030915954,2.8112935068116087,0.2399664584231828,-9.039645362546423,2.184699293813579,-4.819796141875784,-1.1601199939060225,0.0517171651787293
6.154960067452261,3.756986847015156,-7.511809569683578,-2.430630389575967,-1.3826193726272606,0.1528425853522463,-0.1055581685762661,3.662860338305919,1.4039275118930163,-8.574714043333728,1.0857514597323332,-5.526068943413463,-0.853533098540197,4.360193716922595
4.75181554042788,4.590174322759864,-6.318276199073011,-2.414775243564989,0.9281195716476986,-0.4359804647719301,0.1491319488354889,5.157996036855067,3.1483519706710013,-6.371493330680522,-0.1537882038347574,-4.196197597081351,1.5566033426018464,7.617456808507427
3.670262895610365,6.452841571379871,-2.527792326357279,-0.9144326601746968,1.8837364076423528,-0.6928154475952013,0.3899086662930813,6.530958460102411,3.791054117471816,-4.036044836407825,0.0673977706094609,-1.9319652932598217,5.113884207525018,9.922882056267651
1.284859533440906,7.503060890829381,2.0310769002080846,1.1345131685017051,0.483267186527442,-0.3704931075595894,0.4242976828022975,6.573425848741849,2.154073939806686,-3.4131508459537017,-0.7409104136729666,-0.1786195430433963,7.246074649073201,10.735906055377136
-0.8336513903390728,5.9421282806780535,5.18176183748006,1.5047037613591885,-2.5223571708206,0.3953593143700047,0.3618228816134952,4.608146901988281,-1.2899755756333686,-5.509494735472803,-1.980376828616869,0.298807721597786,5.658199111472477,8.85314442262499
-1.2725994664930076,1.7765569887423671,5.659045155663922,-1.321857820524628,-5.222081617927671,1.270635047233873,0.6572772792660609,1.3553225258446864,-4.587222946376328,-9.817614760989573,-2.5881001776243635,-0.1796739827893028,0.3869586739437967,3.45395733079111
-2.99355575074713,-2.847568571401513,3.826401538410978,-6.218432197835519,-6.045132710678374,1.8598184493876888,1.673179866100707,-1.2257997235829023,-5.731304653385447,-14.482855152852938,-5.5044934733507045,-0.6031820822637322,-5.897147361432932,-4.441537356834171
-4.489674469821185,-5.208940983164226,1.381444775598858,-9.71843450783657,-4.908275362744597,1.8156285582649327,3.2097015094841623,-1.2734576155142818,-4.189608307345395,-17.31194421434671,-7.724821774412061,-0.0720849526513589,-9.762036596405274,-11.55777376100162
-4.650220822990725,-4.222681381398246,0.2529453947504265,-8.726085347763274,-3.1086077406531416,1.0431013183490163,4.558641159008445,1.4277849051582765,-1.2650989003398507,-17.080013505832014,-6.439883553521615,1.579976385340288,-9.490247799780292,-13.95731566143013
-2.79631395203842,-1.3687112592679966,1.412021127604362,-3.286866964351674,-2.174018901599013,-0.1100692847606836,5.111323954068638,5.04851819147639,0.9808131579677024,-14.27520686916874,-3.1284411898337896,3.720464233583584,-6.052152192433979,-9.844217946054655
0.4299061115065495,0.5260870703674811,4.33078630924058,3.2403424540814,-2.703802270977405,-0.965542357976176,4.943540706846335,6.990354245821862,1.3261168885783547,-10.673320715176118,2.256320178689652,5.391272368657184,-1.9047277551279649,-1.2862254546377585
4.477194261165714,-0.370344420126969,7.367120146401248,6.878481309649516,-4.085174683874385,-0.9835455031046648,4.774851322179217,5.926009619979311,0.2065112949066474,-7.9587811871891745,7.97161457147321,5.983226020179643,1.0854565879378697,6.941488295548311
6.631310442926604,-3.446675829954273,8.778237347853803,6.131580564533152,-5.135139986769559,-0.204968663450046,5.302774226943996,2.9268318971283804,-0.8472096214934481,-6.4582109597917,8.83426351237489,5.670375026312456,2.682710729963929,10.76835189396266
3.242031993681495,-6.312529538145611,7.724954502293201,2.70627169770853,-5.016933896531242,0.7949448556644256,6.524939482443187,0.657265563238326,-0.6090007352385385,-5.114315245323041,5.516833438505922,5.303445188967999,3.595454150278499,9.678385941645274
-1.0338527480794026,-6.953607443218061,4.683232441367409,-0.5595448585189615,-3.744930107089658,1.4309485204137786,7.671507761854855,1.2046719748294663,0.795823591671649,-2.821954193329418,3.53005962204719,5.779231006968075,4.09963185125946,6.48526237837541
-6.049582868924474,-5.51247670104118,1.05730345201232,-2.3538089988576303,-2.0551708301216536,1.5823037289600848,7.788362595725971,4.29283612467043,2.0400544476324285,0.0654097703010734,2.499778029078841,7.254923227833842,3.5237370610810217,4.2832222192201925
-10.455089026880884,-4.217799233104756,-1.7286444739419835,-3.610148435225881,-0.8835984144964186,1.541849855667465,6.4409366329099385,7.372726268815597,1.767968584735797,1.5944177934710524,2.7699515820443192,8.763628307144359,1.057848092197787,3.48342304891338
-8.440741553248934,-5.567675243321901,-3.067062356344593,-5.8765634856519,-0.8431464753178375,1.557362262949482,3.974808772067093,7.567566846181648,-0.2217449408486231,-0.1831136893847542,3.954224281676684,8.640477074741057,-3.107980509813501,1.7559577552357837
-5.791624911933674,-10.266423355567497,-3.3907296353962124,-9.218029044041032,-1.9666458982886184,1.5338098659933053,1.2247612576180131,3.9268340900935073,-2.7747252745925266,-5.186791768325065,0.0454118258289964,5.657009739031423,-7.612716513821056,-3.1486801595751785
-3.932566717163624,-16.523717951776007,-3.6645076126795857,-11.814457419897051,-3.776109431098803,1.2404336566040683,-0.9888962020366988,-1.812789550350601,-4.297063898889746,-10.78925001601931,-7.363403701569263,0.1476018384132658,-10.925752146379637,-10.56234850759256
-1.5080644510974563,-21.204929661615893,-4.553388806006183,-11.609318927150412,-5.570749290137883,0.7337831159858297,-2.190941422285391,-6.537004185805245,-3.981120149847925,-13.495388810579072,-11.398911539086027,-5.810416054898269,-12.463931253051214,-16.934338078519204
-3.8664863378315792,-21.933504323314764,-5.921437098068736,-8.382145762135451,-6.749134316809887,0.4199287783384307,-2.308120862633132,-8.044402280084569,-2.3288034028854554,-11.528746041274871,-10.3317789472358,-9.57296244989152,-12.69851003805013,-18.80191198773321
-7.372022718046781,-18.626372830821538,-7.047357931693682,-4.299931515513435,-7.013405752354402,0.5998044735910071,-1.603846748272531,-6.503855774195472,-0.6314357700224491,-6.169409094619255,-4.847321614949983,-9.799184244432809,-12.280418705740544,-15.882260528732331
-9.085897621584902,-13.436198882080475,-7.338251620400797,-2.432612501235326,-6.420912651624008,0.9925940877648144,-0.6163064562183536,-4.030248565815214,0.0455993789945523,-0.7557301956459241,3.3053487750697057,-7.569050927583248,-11.277887311464838,-11.35043812596018
-10.53245687255966,-9.22429382860446,-6.88344680863554,-4.444240076185565,-5.33327954309425,0.8487523094505605,-0.0340091954858507,-2.869487578018152,-0.4775887871522855,1.7675402364666295,7.910151865013428,-5.657117675951781,-9.402501851115858,-9.059647462068938
-8.192067279039057,-7.671977247165387,-6.334141066208304,-9.230080838616686,-4.295622481030136,-0.3377114451387797,-0.3854508872905171,-3.698309197085564,-1.578851283800077,0.7928439319350673,6.042448419846714,-6.320255360490933,-6.866588195372515,-10.292547596577378
-3.995911778459155,-8.322772203850718,-6.234805455373476,-13.454714505031234,-3.818969390165421,-2.1949913527200806,-1.6236020834812734,-5.2954496776523,-2.3915609668633806,-1.8576037701642465,1.6383731798482968,-9.35024934382932,-4.69708878967333,-12.925585569959368
-0.4367326629102752,-9.146018988405558,-6.467590206189925,-13.606584267201242,-4.077757593605838,-3.6112897456324617,-2.957630364393367,-5.678548660601223,-2.338375593608476,-3.4792070894350218,-2.6642259391001164,-12.124252336449103,-3.908167516539947,-13.530581699449726
3.4073642309159986,-8.129784712254718,-6.361798119028094,-8.281547544611726,-4.689889692247675,-3.6144769642280608,-3.257257786869445,-3.725703150730169,-1.3825326156783149,-2.3687415057137287,-4.832713868116921,-11.751738882613154,-4.298445474452706,-10.317400302611304
4.888782881680434,-4.715161219915672,-5.342244734825272,0.6872485173696532,-4.826515617970017,-2.214956388530481,-1.913065403448627,-0.0673598169287288,-0.012958115525862,1.2121045392614178,-2.5992678464851138,-7.533517929087338,-4.247556140139068,-4.357965397172848
5.956324349576652,-0.0747700301686791,-3.440670553042878,9.030194996621276,-3.7185596972100257,-0.4240817315826461,0.4829501795238684,3.331409290595161,0.9903682152787496,5.419555851975701,2.6960624756770173,-1.593675915956965,-1.991937364119849,1.6235608177767062
8.428195746120391,3.843104755570834,-1.175667987741349,12.49473653937946,-1.2661933239417067,0.5856574673734372,2.323703177897812,4.526564423093134,0.9929508100919406,8.12827589874928,7.011384284276273,2.8548274918898078,2.6535306353429746,5.442218846152741
7.961028453101967,5.673486472099626,0.9738356926133064,9.577499595798995,1.7383465213362117,0.4168252635393514,2.0948093628285847,2.9018852374153994,-0.0306658229739014,8.282552287044666,7.883547798971334,4.034895237972023,7.737594234772075,6.678294048611463
7.129062701568282,5.373416225071537,2.8340709171118306,2.709180463938992,4.041570719274887,-0.3471767145953208,-0.3913605866753187,-0.4786890626575086,-1.3850289983290622,6.481820982907493,4.123008259760619,2.7015145917721384,10.430075082434996,6.288047275642384
6.5470976375327705,3.944744782168073,4.241742030610112,-3.146884117644049,4.763130250410768,-0.7918298532874815,-3.695929850308176,-3.677021293690132,-2.1249524112884046,4.458238658438177,-2.5653867244239605,1.0102419623192418,9.16899371037016,5.471797144364473
1.8973775249741611,2.582053021507932,4.663068535951084,-3.739346665407425,4.016438690482687,-0.5222883907964615,-5.759493821691308,-5.211759202239136,-1.8098223980849752,3.817602096126621,-8.402929517623633,0.4372649652262907,4.99958209948295,4.965745180702811
1.113896359664703,2.01110538719081,3.4249904314906416,1.6183913741342622,2.8241983297255047,0.0641483975858818,-5.468666541812354,-4.925441749935999,-0.8642916797547286,4.953347230712097,-9.550047317956816,0.7614657753589427,1.0307603129928111,5.043742686099904
2.871212722895942,2.39909937753896,0.5647685179975497,9.66860265848743,2.3810698824113388,0.264269481856445,-3.497622055138322,-3.8116244543535913,-0.1605167955308388,6.937600812593246,-4.991335170627046,0.8851241547498603,0.3560424237285815,5.6901072364623815
1.4373003134799902,3.6052319725174575,-2.58616286221843,15.537817361058046,3.223799809689353,-0.2102387241172891,-1.717205133457128,-3.0764071680270035,-0.1985851264856819,8.420102180544518,1.1508738353873786,0.39502298286925,3.9005540013976088,6.51765839796667
4.557572881068069,5.322393488583771,-3.9686373849611982,15.962256757523278,4.922936878422888,-0.957748808755582,-1.678738305057209,-3.263424274616682,-0.6935149700441343,8.73165930204334,6.5329506842183,0.1359267919688136,9.73116060365328,6.698178137055606
5.210716615054896,6.998214957289861,-2.326335226656397,11.087120322398505,6.478922425569067,-1.2676833745904332,-3.447839771517806,-4.082287971882465,-0.971497172370846,8.255902407357667,7.584164546500739,1.2195160855790164,14.376783891528248,5.402304430350682
1.3993848290443416,7.856012231214663,1.5825811370995098,3.8613890404615177,7.063961751166971,-0.7684380188545674,-5.72125592350892,-4.8918794344579055,-0.7419194264676889,7.834359388280291,3.2676159705513017,3.568448281723704,15.277286471101093,2.635213761463092
1.7736383713414487,7.315694156981635,5.300686472904999,-2.083308301184502,6.534256493421822,0.2368428283358525,-7.045402320197354,-5.282615747496834,-0.434061005269541,7.852787408103722,-1.2626795819941852,5.575427189146467,12.581023087863628,-0.3581491584336618
-1.3161122987211231,5.599430473480993,6.41651660237028,-4.392057024224869,5.3831107630185215,1.006260161925411,-7.0525603273873685,-5.288713628391406,-0.7577673743625155,7.892669139593408,-4.958377640554416,5.309016798860057,8.89086850916533,-1.7814000192255437
-4.245029893341512,3.870025460874217,4.3339950283319695,-2.743049457477923,4.267915871659852,0.939397582049878,-6.667813298634826,-5.208585167035437,-1.946880619509216,7.235927152719569,-5.246292011132936,2.145161638076729,7.108154927430292,-0.68808113203022
-1.9440912249909952,3.492097047852724,0.6133093782873402,1.5201902593825594,3.529548276735852,0.0287569722283933,-7.142356323896649,-5.3134819081491855,-3.4394274876627837,5.68556113114488,-1.3036933910612774,-2.6959671423752525,8.085502167748587,2.139335196500326
-2.3629947148923662,4.857775366463329,-2.320792554491902,6.255792731157612,3.0424512328072524,-1.1502629489162928,-8.759774842141553,-5.661880068174298,-4.295870998985663,3.8863262666815785,1.5070469189878664,-7.132451864002405,10.015830288313794,4.737350150152963
-1.399238463002216,6.856704186427351,-2.956081900449874,9.425626596725124,2.425375055887116,-1.8695711853559944,-10.349997175667454,-6.041579307670531,-3.961404684787453,2.819700098562919,3.5446873656749047,-9.72032453143902,10.048733586465175,5.538434149949126
1.216297029958044,7.693290271339492,-1.554138611894075,9.84933216994898,1.3896517511331012,-1.7523256715165871,-10.100307812649248,-6.014013166042332,-2.7080617483817377,2.926298294131243,3.6863941027064233,-10.323723509701152,6.735410233007826,4.57947091214271
1.0326392333142778,6.510156814502807,0.3791498889147533,7.621986373288337,-0.0298218999330401,-0.9857623487514502,-7.070788710607928,-5.105245089763059,-1.415915709843489,3.6584295736445256,1.0556080146384126,-9.581282010697294,1.2376228518138532,3.265015976868653
1.9414970102545608,4.32081949336478,1.351573829382744,3.944760743074454,-1.477689568823337,-0.1340656317653952,-2.170438152911686,-3.1492448703537264,-0.9083193534748945,3.887165704429663,-0.2953034943397868,-7.993296416260392,-3.63619628580841,2.968120032319632
