AF3,F7,F3,FC5,T7,P7,O1,O2,P8,T8,FC6,F4,F8,AF4
-7.199803047127968,1.262278220300515,-2.9271522505405763,-4.720738917399226,0.8906005506837408,-1.461509383848856,1.0905357703471144,0.7226428700850638,-14.095452509334374,-1.8683579129566772,-3.84758239782514,-0.4639745106712301,-8.109696718475213,-3.075010530346316
-2.4026590681240894,1.48014626262768,-1.2758133337151063,0.5982442784138242,2.422655244698385,-1.1313208141650817,0.358896461930849,0.1904639303632027,-13.114579269763665,0.5578718403766144,-1.006678005860797,-0.5550958405350234,-8.24309435853575,0.494558575416045
2.897742761755615,-0.6643905782836207,0.3579492669535327,5.7637451322754645,3.685437645251117,-0.767269682435032,-2.156980873291385,-1.264961292751679,-11.79096354556218,3.8824243218445473,2.014412281423379,-0.7572135382876323,-6.711268472108866,2.3339921587119488
5.892624671392701,-2.698844723585236,0.0584685265796842,7.481930028630852,3.361179184687745,0.0696369385153152,-3.8104929724472014,-2.488155735973144,-11.34414474209022,5.316635297118931,3.7132482262182456,-0.3331696948204339,-5.501045178246269,1.9907126055240016
2.759196800016211,-2.6047299080445154,-2.62123662752208,3.9643867529169134,2.18505763416204,0.9912308163595231,-2.132120823957527,-1.0510180142401038,-12.414993709469885,2.9573779281429298,1.689106547187134,-0.2864097461833383,-5.465028230614944,-0.2830911624072258
-0.0636084046537492,-1.9980411674796836,-6.5126619036090325,-1.3683524532973277,-1.5342347016647635,0.7940510778947266,0.1780279605174854,0.020814731779627,-11.67431850322047,-0.1660297211273798,-0.2776179029534927,0.0877679665975548,-6.11948062513336,-0.5245647067980568
-1.6862247783974351,0.0123332654056139,-9.919643411131888,-5.948116255420596,-5.429796697314638,0.6952617339283977,2.9303472312170937,1.805801225453683,-9.444075799368568,-3.944893610304799,-1.4374898310354989,0.5322231161148222,-6.701357169612507,-0.1663870737565337
-2.193038064032106,2.1947749397413308,-11.893939518741952,-6.55288517021222,-5.719560809506032,0.2225043744674707,4.217411238781917,2.887921283243784,-9.445394793537725,-5.9816856167312045,-1.589466028717075,0.5335938704521092,-7.118038648266374,-0.5682001372740869
0.197015513673485,2.2101224248932807,-12.61736235813822,-2.5920967527222576,-3.4496563487373777,-1.0671933313563853,1.6250088548074269,0.6962591187158724,-11.33977730453663,-3.943830665806087,-0.0173067777800822,0.5483966948355661,-7.821575739241322,-0.3859173132781247
2.2726943175148864,2.2235799150365816,-12.735827100591262,1.6504998382823797,-0.5164301449565367,-0.7970201745103946,-0.450302519181144,-0.8046608198858252,-13.184836011034216,-1.5288521672483426,1.01282095260558,0.6167110975713469,-8.930076095340503,-0.0760875243688125
3.683185824592179,3.1512903533378585,-12.503100793588152,5.012262152142304,2.391933662554688,-0.9577140201288684,-1.6318967211241289,-2.5079282850971643,-15.647044309143856,1.2984954266889694,1.450728356444794,0.908783672156691,-9.71634822573187,1.7137908279558445
4.182240472480676,3.441567445644922,-11.692472334527276,5.3443306367105885,2.902656452669789,-1.1492337604854836,-1.5997963395686847,-3.1156969180531138,-15.022005481294034,3.289718312772482,1.5009552635693069,1.19493342863665,-9.14411212194075,3.723509844450827
2.6235048091937205,2.798937227733856,-10.29456820253403,2.037245620222836,1.0692960181802678,-0.0371215146725616,0.4862288010909097,-0.8587669244508993,-10.74766431418298,2.2377206390733138,0.7856841596421502,1.0512092069293866,-6.992955586822031,3.0050839122039488
-0.1332672438762215,0.8465954059486609,-9.029204457217208,-0.6104533622010958,0.1573041830280621,-0.6723335505874508,1.0646181015914755,0.4667584122081119,-8.095000331484167,0.6091341589761461,0.178261058931946,0.3889749438389991,-4.423650214680794,-0.1982055430004832
-4.262713896632258,-3.9406435040269994,-8.814481150111625,-3.233362944461073,-0.356299219874393,-0.5395232863011447,0.4892046765003148,2.0772924028556363,-6.2767070595543695,-1.073562567260562,-1.0068498609500838,-1.077417356038539,-3.26495959475195,-5.214908214948224
-6.496622755389795,-7.40268827415061,-9.564467937677282,-4.406189807602822,-0.6672115027338182,0.651152433799415,-0.7399991537940352,2.477526661146901,-4.301055200757182,-1.867118571588804,-2.0609681412174266,-2.183311800297307,-4.463939777281148,-6.898805549389664
-4.698137119223417,-6.194562936970255,-9.700790593738445,-2.1773311449442105,0.1452695988280279,0.9540066039983104,-2.1582249325511143,0.5923666041769939,-3.0708339076127973,-0.3533201930702859,-1.6635297619643254,-1.950349529153689,-6.9952027694783006,-2.6156071103414185
-1.286003872093498,-3.190434905337021,-7.282263569718786,-0.1706152800217925,0.618134013384469,3.012879379753561,-0.9641950679865892,0.8059414758402855,0.6313636456241937,2.084362504055378,-0.4971323599752398,-1.0167905311680026,-8.288888119965808,2.917062970399242
4.02866014755072,1.9748622388421728,-1.9644981033843865,2.719777148269637,1.0533140410829769,4.610764006514152,1.146925073076274,0.7380977126829056,6.936449235962061,4.544502102565295,1.915231744680072,0.6302467469075088,-6.046690923519442,8.698458362322846
7.102519647497903,5.622043974469222,4.135891997243107,4.731137044245733,1.509870353076414,3.710819595562481,2.8054054865212605,0.4240537162514602,9.527490189970072,5.029901433318621,3.754391703338151,1.864957132070979,-0.1179699340910822,9.30716004872244
4.279298367648996,3.6959853618487055,7.802017539982348,2.5789768502036883,0.6900395282905257,1.669698094615339,3.1466207553970373,1.4873229878220706,8.690650280559725,2.229090130396554,2.641823872581424,1.355924253828062,7.086740765979675,2.7211312057326045
1.110078563579216,1.1210352523216738,7.305690748312495,0.8401484117146394,-0.24025724468502,-1.2864516103909285,1.0372889513559316,-0.2131571033497981,7.047302989485365,-0.647368691298292,0.973673993809638,0.837456213040314,12.106691012517384,-1.197578850105374
-2.142268310440531,-0.9737007084763698,3.896966092363877,-1.1581902760419849,-1.1909699181428337,-4.261577691295852,-0.7233358431781615,-1.2596584261039423,3.263113894819216,-3.4685679254767487,-1.0197869909730355,0.8577716367864615,12.794261682105548,-4.539624434250969
-4.517548720558446,-2.351202263472618,0.7674957250961736,-3.1540520387288185,-1.827759010328467,-4.950986249266724,-2.0398025319050235,-0.4504134115943484,2.827986823675442,-5.110271739513071,-2.9889484868512075,0.3945540375485881,9.707262872704057,-6.182836538097579
-2.795531730184879,-0.8485749976193449,0.3858399300282418,-2.075765732130819,-1.0327972393076847,-3.253189233767043,-2.9109100711130944,-0.9275600103604112,6.295066814009508,-3.785281208342508,-2.9079051804739877,-0.1313300220356505,5.457076227718561,-2.8561261491452625
-1.556705855619862,0.6026854042381367,2.593085084183864,-1.607653496526023,-0.3432760579945218,-1.6849686218000972,-1.7176456759867138,-0.6607623904834559,8.201706472159222,-3.210752070895293,-2.741413411255888,-1.1074733428525676,2.630066197408913,-3.3328372194260387
-2.249369654348466,-0.0275966050316339,5.079179520501088,-1.923151825368394,0.0657013572659241,-0.0689825903947953,-2.274106473060856,-2.6915769084634387,9.780935300109956,-3.075409271760524,-3.772375806479279,-3.7114413192236864,2.07621601020285,-3.268243170105314
-2.5231399653701696,-1.1094959866971097,5.638150372311609,-1.2619036354438895,0.323618650187681,1.1439965505697378,-2.445105112682644,-5.464219036287023,10.86709460550441,-1.962928195891108,-3.771029641476125,-4.700845954148373,2.92588869817288,-0.4011159971037097
-2.382866144077722,-1.914307127505706,4.075097808484426,-0.5229926156894054,0.0900665548282141,1.17389280687466,0.3596263930383423,-4.260085621724759,10.63825627862597,-0.983602999939168,-2.4172056063935266,-2.3366747032581547,4.028439971762851,0.4706952600758567
-1.1902773917279987,-2.2239082039004927,2.147552913417903,0.5139986961918113,0.1513419503320222,1.2563413898607312,0.4818689985954397,-1.3150373018802797,12.143456576917105,0.5884362898475864,-0.7952291430593967,0.1712848126854744,5.20787584582118,3.389339893080251
2.848363780545748,-0.4626204452383384,1.8105088500829536,2.7725165688517786,0.5445609788640138,1.62014850390777,2.7415398788144296,5.133736203245241,15.237977838586971,3.3742957438146157,3.140074368760058,4.24250933320206,7.082134583735529,5.852567840807269
6.069352397973935,2.171488961023586,3.4698038040598957,3.812373043176821,0.7630345909140459,1.3707405570533553,4.940463284372436,9.88412221537138,16.39652157272456,4.924703962017068,6.222112857847687,6.27667250233839,9.811672703896557,4.073279927474537
5.287452141735304,3.2915004585010017,5.733013814463115,2.0897803580002754,0.5274793275459093,0.5879039409399667,1.870142269468335,7.232379098372872,15.99185007850457,4.406569060665366,5.568842553306352,3.006497053181852,12.3065017240801,1.169704526604343
3.258956983351455,3.3142503003450794,6.699363381389046,0.2629909786503038,0.0352186246061709,0.2768144357263367,1.620983042333188,2.700659248884896,14.292406400826684,4.068191707718777,5.033199613327116,0.5580722189560716,12.86811141466544,-2.141126676876964
-0.3958656135145184,2.6708594181912098,5.559293867727472,-2.468480987713301,-0.4878397752270524,-0.8552571815298405,-0.9546281389779356,-4.409876057456913,10.54208715950903,2.6196369806793527,3.220436728090962,-2.482903024451432,10.604930406522156,-6.804079183438565
-3.327605796029607,1.050304748104161,3.1907550501156408,-3.924295498953764,-0.5606040146640949,-1.8180277982313424,-4.395249861741425,-9.210285452264165,8.007548578302103,0.4751710748743014,0.5897065756987089,-4.1293621472281385,6.089450999614947,-7.9295115583287235
-2.2198300395564585,-0.2610366458641425,1.404310210896038,-1.9623857748358733,-0.0586500897862086,-1.498637861436293,-2.445948845134436,-6.011118751024746,6.686310323571639,-0.0494916732628469,0.4307920066038858,-1.1618283475243316,0.6161754717447012,-3.518931928869716
-1.2725014293968324,-0.7838665347991386,1.5537076569679753,-0.626068836398223,0.2462339964758262,-1.2762802166821416,-2.34508938414369,-1.9018731898498773,5.548286573142183,-1.697052507814998,-1.7079663393815472,-0.5244183573477497,-4.950304276778591,-0.3214883878579351
-1.923388490189453,-3.128613241886614,3.5884037084383325,0.5585075993335794,0.2375282108910087,0.3084457583694996,0.5189317074948153,3.0337164350099157,5.368319793482825,-4.129892547816473,-5.991653154546826,-0.1005732328632912,-10.310161591424496,4.3067721443512434
-2.005333031720518,-4.592871305270901,6.171659840533007,1.2527441465921212,-0.0054234785164836,2.047253246634144,4.468404356659296,6.803142890273956,5.299197167675348,-3.938550212784766,-6.873921978264339,1.2010026470496324,-14.73226617494051,7.964665809769816
-1.5314932575573756,-3.040025731783856,7.6894012024081455,0.4545945969828479,-0.2589246035709608,1.9585423707709189,2.998259923836093,4.713357952167172,5.4063363383427445,-2.530531150764443,-4.842485351998312,0.5046012393726188,-16.35784514549404,5.139367707323104
0.6408169091461093,-1.3408176026335368,7.391500858374677,1.503058507244707,0.0300129077615366,1.3968686659170677,2.0612858330390336,1.472035247136119,4.655017241017815,-1.3088978934831217,-1.3258945477185822,1.743612860630954,-13.11338992022203,3.67407780658255
6.545762711933723,3.7320249311658302,5.85643284518433,3.5063357636560624,0.4496343507306102,-0.2231698119008486,-1.7689823943419405,-1.924853020699524,2.7738446057527297,1.3881030914365948,5.332799405216805,2.4387339489308486,-4.730971707079714,2.024739280839457
9.831368444073709,7.860282100378935,4.445770986459101,3.778016340632148,0.4398195225969726,-1.8439947883032224,-6.2199184019249145,-4.972112092787033,2.1556412117294457,2.558102287174421,8.355182683689435,0.5007310759127396,6.135749182184378,-0.8505595753156268
6.154794285540419,5.587352288615945,4.14346020349751,2.330269613359114,0.0143682519997248,-1.3994054169243415,-4.485034683717744,-4.275041292345568,2.604444815224283,0.6131890661972745,3.975612079768426,-1.2082867465432514,15.129499840658529,-1.2726979067396238
1.175191758849981,2.4036734953516974,4.68793855819329,-1.06007605134795,-0.4853351925190815,-0.6703154684682111,-2.4105961915658627,-1.2791121066048925,4.84532184836782,1.1666465131560448,1.016971643412773,-2.1408383583056323,18.95906197400402,-1.4237709578143245
-6.538635397694385,-3.534192472824383,4.75704931117587,-5.307702699276954,-0.4171028761050157,-0.1506913141349214,1.8230471738605865,1.7451049022074543,9.500406696131812,1.6070481328689232,-2.6831017287031047,-1.4851735343190884,17.384295547258787,-1.862714251166076
-11.573591080047011,-8.44638620247221,3.1394702182172,-6.026401182586201,0.2170060786684534,0.4941377855771187,6.367320263855945,4.075055558783638,10.744054545359509,0.0920827184122151,-5.804230741630031,0.4804788725532167,12.80873789518354,-1.9767098741898503
-7.873888739293115,-6.2306246603784565,-0.0668690726404914,-2.820764939536087,0.6080705108151151,0.3546406903499537,4.941885554695302,3.771113295671748,8.52598443713992,-0.1602845690001745,-2.896180878766581,1.5155985768783695,8.102623586942215,-1.8652034852624555
-4.394582822911822,-3.226947715011162,-3.3253164492210043,0.4361616514354605,-0.0012732646102526,0.3443926161187396,2.513835876331941,0.4010515044394213,5.565062362234937,-2.037453857977802,-1.7615278929750866,0.3198590464598055,4.726881879020121,-2.546492210870704
-0.6717366861668188,0.3035828508886612,-4.813851651936512,3.92740275039216,-1.6943658643609512,1.5254917127029572,-0.7057084271220854,-2.200893491529416,0.5056216241526598,-4.318293925122205,-1.2432506039143392,-1.6658936280973635,2.570727277601499,-3.129668796100876
2.733319363162314,3.2310737933057463,-3.897292491219595,4.782662048517355,-3.04393568714264,2.133039495685824,-3.9062859107069694,-3.0546434950269994,-1.483221919313639,-3.5207221494159384,0.7084416047880533,-2.6269338344052064,1.0735102853151233,-2.2489215688072712
1.7978020530255332,1.89214483063067,-1.6015309849845618,1.745757279875077,-2.563531497864027,1.1834487299550198,-3.3035917996288657,-2.560297496127344,0.1183842000109906,-1.374760818119748,0.5690650697963053,-1.825888490201604,0.1563714145527903,-0.260209430597322
1.3425341840436915,0.4029204341710986,0.3390680050953731,0.2304700198102977,-0.7504086215181527,0.1674939290909167,-1.2914408146620937,0.6419381729863278,1.2748971376890297,0.2522041696163771,0.7181304058715479,0.2861882694671891,0.115889921413089,1.9669705412441056
1.8883334810855632,0.2226584315576396,0.9613128775537776,-1.3739522352290932,1.5927131734126403,-1.8533977685225729,0.156450839775411,1.9489105390788413,3.2562146982451488,2.056250850992802,1.3805367115005809,1.8653915956556928,0.9537071329958896,4.833323349268601
1.6645968871028,0.304762705514464,0.707320898520666,-2.579846827277253,3.1427171695914136,-3.165135001151845,1.1408744450502166,0.9229033141609432,2.877421196499834,2.9181198947524614,1.3984532422646938,2.322438191742582,2.11329700253868,5.722422792147391
1.988544920560941,1.3173741465195627,0.702944687256501,-1.058188178895179,2.8616883882982767,-1.7958041777959863,1.2642210562690848,0.4986843186448886,-0.5740535133548884,2.3639893864061263,1.5889576650682218,2.0378359081896478,2.904137538794676,2.920294850947543
3.311590874367304,2.606785536249436,1.497773640707397,-0.8646525543133041,2.133925668840124,-0.7731472433400146,0.6148898865389646,-1.117827148356855,-3.559622432763897,3.0937766472801886,1.9340592506128156,1.3040082322472346,3.017988152769697,0.1234239875296586
4.350832239524944,2.958053021065814,2.549346514734548,-0.4886074696360429,2.422176920858313,0.4852846085171745,1.4778719361393051,-0.2490399556417569,-6.957159083293841,4.110608098292793,1.681837628998652,0.9867064532443048,2.5235593265984937,-3.992217765798175
4.085138533212708,2.4211837478515488,2.892047943402879,0.5749118350010378,2.478619187302757,1.4475334394767816,2.300486212176758,2.0504248665664293,-8.950657377672366,3.433453929558798,0.473563411933151,0.1324495921925386,1.4623820246170984,-6.177690598753113
1.9302988823022575,1.0900589946062935,2.183128492459661,0.1180894290891365,1.4053497347242334,0.705550318629049,1.5446092349524123,1.9482988063875628,-8.893244843447773,1.94117841220194,-0.8686151278520438,-1.3039210451659824,-0.3289592417743874,-3.0730587463186945
-1.9339779735210507,-1.1336181362154318,0.9588050769115322,0.6450055544287722,-0.0614288358057327,0.4158064222995437,0.9241776011618844,1.5715976055570324,-10.024714686894123,-1.1393209579123436,-1.6438262586738022,-1.2197774996418689,-2.890386063396658,-0.4164766128319809
-6.310872177231176,-3.782968919032756,-0.1694631550778078,1.7962141436443158,-3.642553575727103,0.0883554778440866,-1.2928355946194194,-1.1485945484906146,-11.840175931619296,-5.873315526650141,-1.7139169729800336,-0.5291777433470337,-5.748769558481369,3.1971439717402754
-7.282924395853429,-4.6607769984858365,-1.4486540490893516,2.176536585235289,-6.011670444707024,-0.2840460526012524,-2.885776255629523,-3.596721224234298,-11.742401414965098,-7.3774698677705715,-0.3283117078855608,0.9486553041671066,-8.070246842887887,4.933477144712519
-3.9024913818742393,-2.996210021589563,-3.885802215289617,2.016850124686554,-4.247646971474909,0.0337668543267784,-2.1001135841786644,-2.4206149242807826,-10.055867290950737,-4.797764684553627,1.023495506855915,2.213941489464365,-9.317640531333158,1.2179937436879846
-0.7131685729301123,-0.9413475753592702,-8.005317184794837,-0.0457627155690753,-2.4540960638889278,0.1010886799836804,-2.508311280800385,-1.359739631771586,-6.687693339051441,-1.7687911402672956,-0.3092377741974359,-0.5523786311319611,-9.702938592791782,-1.2381843049238508
2.3012969571236472,1.4022118685900018,-12.658365019237936,-4.0140536336839325,0.8265754398477148,0.5673183002833857,-2.437992434543013,0.9303651575149126,-1.0610199638346802,2.9873268112307447,-2.764833185608416,-4.5052261123692805,-9.872063397364958,-3.847120205013047
3.00616001268472,2.204005001471688,-15.286303288827678,-6.328032860551628,3.3442990822760126,1.1889551388790731,-1.5430812699771792,2.614844517156869,0.3749767434450465,5.4280279224259615,-4.746067262684253,-6.477658735852091,-10.120539820622596,-4.802428996700474
0.6330825856610325,0.6089639658192019,-13.780437752210045,-4.615168975982879,1.909673393111661,0.950328638837212,-1.2671507340208683,0.7205751111245596,-2.70337560977689,2.5008525363095675,-4.794156916843502,-5.3661627156644975,-10.027914295825068,-1.045724937861794
0.2111219125882912,-0.1467127347929789,-8.46069908323583,-0.239590519087549,1.1181311188796643,0.4628489957879911,1.2210646658493614,0.5170522594408746,-5.670649217159307,0.8749168712237835,-0.578689361796079,0.6107294331264815,-8.982583364358307,-0.180976853112196
0.4466032384764409,-0.2285508875834954,-2.2972088595465845,5.720507676037033,0.2237268600552361,-0.7334409978955913,4.387453737949866,0.5563602989118294,-10.019319657732142,-0.9349233563147236,4.555728422936179,6.802535056396061,-7.048907223702617,0.0726878827146743
0.7592561408119515,0.3197964144815126,1.124692808400071,8.357542453997915,-0.5633750344658934,-1.9527408265821669,4.728477946364961,-0.3494288788663021,-12.04060604651994,-2.510028605890333,6.854342038762618,8.176858507119759,-5.160865151506568,1.1404221801314027
1.6836952396244385,1.6870353714050832,0.3675169534395319,4.593462081200967,0.7025418489314885,-1.7709249480025724,2.975845565376202,0.2639921831380675,-10.920333541391384,-0.3237784694568333,5.8116625340674775,4.999260145432567,-4.298275425011024,0.7939984840191492
0.6708921750147379,1.7088674739951315,-2.707132780873792,-0.7304754006338867,1.1744848354900004,-0.981598178942926,0.1840112643351558,-0.7650939294351972,-10.78978240006326,0.720527731714447,1.8877470098791609,-0.4525670993566344,-4.442307896016773,4.37958152351248
-0.3049391970290067,1.2185563135154212,-4.4752099966712295,-5.694085775278745,1.2614409579006292,0.2992195591980445,-3.095220861866123,-2.181365094044573,-10.63730846128268,1.373629264409251,-0.738354492469409,-3.928323644723945,-4.455610859207524,8.867863690183503
-0.2336150022114303,0.6296343036609494,-2.5378717749603945,-6.854481226597093,1.243170617428673,1.4253701959122282,-3.821171278433316,-1.6727639880853926,-9.282851244624592,2.209037864120996,-0.6499492471139506,-3.1769310428478383,-3.150236229909505,8.54864153457441
-0.5630360787147541,-0.4790486468832504,2.372687632545311,-3.0442295845435283,0.0134136301628679,1.0571742208164985,-1.79407153782253,-0.7164610018237874,-7.150316009649836,0.8433042931695043,0.3781810370451697,-0.3083477668649269,-0.5605166793754577,4.122311521399294
0.6705977970489272,-0.1772077015727539,7.1630874963340085,0.7740766455711987,-0.2339954758109092,0.478418446826327,0.1199094656279603,0.7642019732203786,-5.582948774216632,0.0005850749623256,1.5714646302823452,1.8185480052648064,1.863088335462539,-2.263789025883928
1.288418754211207,-0.1379867644792541,9.065511431021584,3.5024189155855665,-0.4250344534681707,0.0424512470993033,2.075284667077773,2.0902829891856114,-4.582958465945674,-0.7952785932825988,-0.9297071469474186,0.9467749935456088,2.43924217636231,-9.092834190971628
-0.0968827820939773,-0.7859536204114865,7.831815927965229,3.507922590775727,-1.143794948849207,-0.802320867606267,2.511536139376887,1.8784858465639984,-5.524580021708667,-1.7300045819911156,-4.697850048075464,-1.487572552383894,0.7908810851121992,-10.950404957371342
-0.9576835878214204,-0.8003210966308456,5.5636033347778255,1.1993295194403524,-1.1729201174268806,-1.0046030824382537,0.6767962488843209,0.7499378366360722,-8.947121756039436,-1.5493127663365018,-5.357244041658509,-2.51616448336858,-1.6722250021174483,-6.506168455247372
-2.131554267962944,-1.9803714662104317,4.510917895313497,0.5658704207703217,-2.0620562171744425,-0.4140255523816817,-0.6072789302360972,-0.0227451842548441,-9.62447428952549,-2.110186945410601,-4.877647742312984,-1.9303733407288028,-2.793961024466494,-2.7274659948642253
-2.3919530037273344,-2.559470386837189,4.996435972992848,0.7923583861104584,-2.680138590302389,0.3644873593811906,-1.7110271682777531,-0.4062732915973332,-7.712189796619703,-2.574450853682548,-0.9898511953247786,0.5947206477453003,-1.3506695095346424,1.359532383305032
-0.5014110580398969,-1.4491224123147584,5.396578130804212,1.1748266127535794,-1.7431609493746234,1.6565992048326708,-1.7399606339981506,-0.142358667257336,-5.064884768237937,-1.7458941884031765,3.564223290089032,2.804220391543016,2.0595440967189367,4.377053856668099
1.3810521467775712,-0.1741128569249741,4.086845675194766,2.150290621107329,-0.3393220015018626,2.639580408882434,0.5415426568387225,0.8754238281172059,-0.5198282833775659,-0.5090671992539738,3.5227980731334183,2.406901375206251,5.62209773275592,3.1203091043193503
2.297334448129067,1.7103488497899693,1.35637130208326,0.1681036880330687,1.1460574419259069,0.9545185854813892,1.014196638960526,0.5896242651356967,1.3826913661469864,1.114944434880219,2.7409374639487623,1.123662051662639,7.812433587136289,2.787856054804743
2.902885248206511,3.4407640410260703,-0.6697281578717091,-2.881956932579586,2.5488605857476943,-1.785630905856027,0.7390648416830983,-0.3597372077263081,0.3106673532133935,2.540313480684817,1.2992664575836004,-0.2720881369248448,8.471503543990217,2.1069773330060206
1.955397460074328,3.163609347853773,-0.1080991797664678,-3.444884127595916,2.675691762754357,-3.512779896699754,0.5439746862407582,-0.7995180705720865,1.671361801471956,2.3925901678176893,-1.0319342132219624,-1.1561155982666556,8.567429918232673,-0.727746465172855
-0.3557862985462121,1.3809185513855378,2.608261211134984,-2.9688139099023805,1.6417895424173146,-3.6028311509623974,-1.1409145335423416,-1.351521973400672,4.610863693100825,1.623593647632109,-0.8258556094148461,-0.8993545692870752,8.960284375698087,-1.9586208265717748
-1.6472922346489565,-0.4750934336565587,4.77026208678783,-1.2210102768062816,1.188786030678704,-0.5283048279575869,-0.929389460378593,-1.0762494952120076,9.25148586789186,2.257765576976979,0.3839260569031446,-0.9389119571183924,9.37527081374207,-1.3208363177724278
-4.317576264275197,-3.0809535469800697,3.6893798464419385,0.5980201784022245,0.3702445034686626,2.8297920665040563,-0.5820421709690059,-0.8992716999845106,16.6215423268638,3.600006582048834,0.394310069079002,-2.3836880622967755,8.578282135284638,-0.383364341730622
-5.654874660811191,-4.185293295959198,-0.7976725450979805,0.4744002798201993,-0.6334475234856655,3.62811679679178,-1.044859808193355,-1.2302551597571347,17.70053598469467,4.127477869663855,0.5671656113309413,-3.3489308748552915,5.625579846375858,1.6374521616602893
-2.792372528482587,-2.178698949993633,-5.955648543929124,-0.558195515082632,-0.7953549087704275,2.002360747950608,-0.8364037597525601,-1.1103725561076858,12.141512617233335,3.1142258368831985,1.0535126003391124,-2.404014051330269,1.0409062442599866,3.257785867256617
-0.4056259441565666,-0.3024420589786374,-8.319877134400024,-0.4789785148819528,-1.1827566196812238,-1.2064821764745512,-0.964969079639371,-0.3183691637810379,7.250011133301737,-0.1857094266004388,-0.4159934526716423,-0.6133455630931176,-3.206472302117485,-0.017973455212381
4.635773001768105,2.8384379488932154,-6.494440874883753,0.9614408843439456,-1.065607988093162,-2.824730094431612,0.3410052040163006,1.956419816679296,1.0950513887505804,-4.28717384777781,-0.8378653114588402,3.065494407001841,-5.001616595585132,-3.1238723411966136
8.159554516498948,5.127905382369815,-2.14263917716632,2.064774748640194,-0.1532400077245397,-1.8320698899050136,1.8788505310825951,3.553947893940148,-0.2704257815352383,-5.92544037509468,-0.1102873624360484,5.601104169827642,-3.617959611926413,-3.016248682399967
4.552134947769407,3.040734286323585,1.5598647450679062,2.296164470498385,0.2170318509241147,0.2789425759953787,2.036977199649653,2.8455317659489823,4.710279923459047,-5.1063596882508975,-1.03301235589442,3.9744926668836817,-0.2487163769856426,-2.0774245311749087
1.0218854056533169,0.3770027701898978,2.4841923907919465,1.7997648898498588,-0.0937378748031759,2.2602328058210697,2.295922730449082,1.2577343596349022,5.372548005949009,-4.355175377085267,-1.0368084764422902,1.5873193041029685,2.8450100368893567,1.7137036400555314
-4.84752948729455,-3.532206728631661,0.8917972832785748,0.5433173479621094,-0.4464848763184562,2.1682080054387587,1.4180549638009252,-1.614043290190752,3.116940488379759,-4.535058751370627,-2.1456189381284463,-1.9542368507862204,3.8563158114551617,3.231315460097765
-8.654248048301797,-6.060873747875132,-1.3337827229634225,-0.0670663997778487,-0.5281280064872399,0.554221928235896,0.3274159049570169,-3.2429450803551245,2.639590822120611,-4.542126305058089,-3.473157196192151,-4.382374369644369,2.503628897051068,0.4072291766020335
-4.166497617135922,-3.5183334176789978,-2.5308809560991765,0.2457194129404714,0.0254835182795367,-0.3690593173638127,0.6515718026489905,-1.8110404081016105,2.300337133546179,-3.426364038168665,-2.1848632310777374,-2.8430766472570923,0.0215032154031287,-2.30257016859103
-0.8104721924219336,-0.1282192848972122,-2.4186102860603773,-0.2083211552429298,0.9138562187894792,-0.8774370557639977,-0.2615440946098545,-0.2051858974767665,5.996036590891441,0.1113554654828322,-0.4436496905417216,-0.9465000857852732,-1.736774169266628,-3.24469320829718
2.8542773531350045,3.7025296040781615,-1.757313561562345,-1.4474832485182465,0.7213398204308289,-0.6298917662343518,-1.777628947247093,1.4822283083387675,14.575157174635182,6.420492264652253,2.5112853456704274,0.6200873565747651,-1.4075258584020034,-0.7918172656245073
5.183705436561222,5.258629595543283,-1.2035022136959923,-2.279394342080048,-0.5997912284222804,0.2523625186759801,-2.166470543643243,2.0388336936421703,15.781553279772828,9.664177940375732,3.873389071361155,1.429808239958675,1.1678998440798622,2.9111086774405788
1.9639103649658989,2.299027939873323,-0.6610913277258379,-2.244882536882726,-1.6290513774422486,0.2423262568409945,-2.131510909637036,0.3889137857534448,9.85612920727451,7.913900663589399,2.3592849944711523,0.6733896824028639,4.8732905266808695,4.560964830095124
2.0517539462358,0.0922446871227299,0.2807110174728975,-1.0652734635914594,-1.0956839631568305,-0.1679763540425364,-0.9491685868851204,-0.6887452267984919,2.885823462309125,5.906520955594366,2.7322560790959822,0.8544214636946578,7.839271076499757,4.090990802124807
3.957619938601593,-1.0917862918098642,1.4307944489194495,1.2623327992596758,1.4604128881251317,-0.5741945874185188,0.7707684844579018,-1.346075433029279,-7.767135495929248,2.806693012752681,4.03376424836822,3.0563001887372883,8.325610537085414,2.7742031644630765
4.503083802641995,-0.826330388890739,1.7135297618527847,2.766768120726927,4.054405614902359,-1.033405340213937,1.097992718276362,-1.3661361997182877,-11.963482535595208,0.4528383812057996,5.309874250258455,4.747271277508936,5.610999436054076,1.6368579989085994
4.95877320897668,1.3885455629171908,0.0041134529756279,2.197140856010863,3.916113291966356,-1.100318608147778,0.1787386231977322,0.1218913905460088,-8.444075137400523,1.0672598248724532,6.179668138793058,4.214196701986627,0.468355390077404,1.2971248233907398
0.4617796671437586,0.9763030823664804,-3.5806320364542854,0.7761059652189659,0.7569416102347817,-0.0786752115447611,-0.2368729607101142,0.3116460399736194,-7.132159096200942,-1.5425991654365574,1.098048029124451,1.3222421436893717,-5.095885995805832,0.892868299659925
-6.43679756267626,-0.977648982794712,-7.180774831111185,-1.0241342961931894,-3.8918952357301215,1.738106980200194,0.8600215125603798,0.1943441485588409,-5.605905024213689,-6.599541657300428,-7.484681863009889,-4.1630455998290525,-8.809826607381524,-1.1444340944207965
-9.42325842415131,-2.543090551944338,-8.166973625497436,-2.212764662918361,-6.459979643864442,2.675022103583045,2.2880228066722776,0.4163198379900003,-4.318441570673303,-8.242883061109238,-12.163345986916145,-7.730402425111969,-9.330370635784506,-3.188698590194106
-8.200778827760121,-3.614244210000568,-5.008380162170331,-1.675628232582119,-4.547665493487477,2.023717313462436,2.481035994601612,-0.4220845088402473,-4.66304688501931,-7.1145697389748666,-11.258827927391955,-6.502781285995013,-6.9502260200839405,-4.56246736534387
-3.805795128267461,-2.1472803908180724,1.414363942406487,-0.5635691815148063,-0.2464770488113278,-0.366791247066116,0.3530700023359238,-0.3455793684466464,-2.07349854880869,-4.240796039962409,-5.061639125243664,-3.716654535402636,-3.3352108145777155,-6.782606823457571
0.4901892533991169,-0.6461871679004427,8.170884610032505,-0.1381230790831724,3.599271450640657,-4.463362038332958,-4.737574430116183,-0.4649591444674181,3.109774138560876,0.9946739503395344,2.524700667757176,-0.4369369648229136,-0.4337118252445533,-8.931637858405173
1.6755841157471791,-0.2996924838566832,12.14214476676568,-0.2772577592716398,4.244242182677972,-6.813413666854241,-8.299035686314685,-1.1845229649158855,5.703991966948785,3.717591351131943,5.593905315738056,1.4622838195209988,0.715651520759867,-8.20628781793036
-0.2563986635746433,-0.1898450332690365,12.024453251167447,-0.8825914845906841,1.3092248091879095,-5.073338137588817,-6.692991015604602,-1.3871661240894972,6.19933525035973,1.816136769134761,2.638692600570776,0.2684738246934267,0.4729959474438283,-4.281363187015388
-1.1338226605067503,-0.9249764702870118,9.02640558944344,-1.1169529481760012,-1.938472201428904,-1.2668700710006164,-1.6821512873546616,-1.2032047550860272,6.654765429364625,1.3887803755726402,-1.1438601927651018,-0.0572262801392789,0.1016979046993105,2.0813237519945296
1.932166663052903,0.391535973114591,5.83027709442674,0.4197378352414071,-3.271104975947702,4.12004318904748,5.817568854841665,-0.316005877999241,6.09113087344921,1.1465644149461387,-1.195890181110964,2.0579648643316584,0.7315425687892292,10.953449206246097
4.921342165731848,2.7806232703589124,4.657736435615847,2.460613942630877,-1.626020140077526,7.722633155392848,10.33558443878882,0.694965716117799,5.898026461817865,-0.1843309534359601,1.0948299156691634,3.7239922646535737,2.561094718036533,13.95747461515918
6.156503486633893,3.787051844568425,5.827562015876467,3.425139028868509,1.848286986357285,6.359569159580271,7.977947354823054,1.9123123238589304,6.260614586798083,0.8984074057533997,4.665165128514285,4.332236220782349,4.80150695263303,8.815587409793777
6.368068565048634,4.954033742211779,7.732338615396141,3.2069129899436577,4.139547685415574,3.3158994076314303,3.365434713912518,3.5972030171662417,6.014369416160706,2.334874438651961,7.846856028087367,4.200198843836753,6.262113535248457,4.45071491381924
3.3126550784547533,4.180365199937885,8.129241118512317,1.3696886521252254,5.3553906202716695,0.3264207540352446,-1.1546179999581994,5.890958764709928,5.490096255140802,3.934873461808009,6.874512038007662,2.2653623844651887,6.072064054332092,-1.3105580236564276
0.076803334816614,1.5436766650091331,5.7764502793144565,-0.9590962266106722,4.350847348183547,-1.9006423508505847,-3.4203451690888573,6.69371986598988,4.167480397405783,5.713491915600343,3.321912623773032,0.6749590809240653,4.075666871596313,-4.348240223987693
-0.249120086461095,-0.009653836609395,1.2722206445450652,-1.508165791491022,1.2319063261744083,-1.86099316205243,-1.4901895078367944,4.751391360388832,1.8632280662851384,4.806072670036613,0.438598520783527,0.906336883863129,0.7700892008992142,-0.8549977606001886
-1.8973136440856035,-1.7282874561978885,-3.453546672687942,-0.9190574818342608,-0.5489424206238608,-0.7199216940400948,0.3325522002549785,0.4721478510064624,-1.6406405794276966,-0.0027009498881692,-3.205020709553178,-0.3759144406169379,-3.043868696639592,-1.7114603540879538
-3.995388356485204,-3.248865880717039,-6.569428748283002,-0.3311380733947062,-3.3829441053290124,-1.5358230845562575,-0.6239786346429137,-6.261284203404137,-6.601954716193763,-6.723905429451318,-6.831281321845167,-2.847835364025194,-6.627849577529946,-3.352050934750207
-3.843001686492416,-2.7697148765570754,-7.586659217863239,0.3591303863495286,-5.385774423232922,-2.3719659749634374,-1.965628214394192,-9.760777567049898,-7.856944085858024,-9.640291828146616,-7.007756289984951,-4.219784584244361,-9.49455439055768,-2.3761336732455467
-3.592888941524272,-2.240100993640583,-7.46397561255319,-0.2902487630149744,-4.090765730200645,-1.6922117190942605,-3.0440703546777312,-7.880662225340235,-5.090768823163558,-6.90848343714249,-5.189465915341659,-4.792719938151297,-11.384502387041524,-3.045201797460135
-3.1598601113493543,-3.3211582602932594,-7.557749538089027,-2.6808444907230644,-4.101652680060568,-2.094423562367613,-4.096342984149729,-5.346687986039488,-2.2529037092231747,-1.7197322494682392,-3.519791602426633,-3.988737718616844,-12.15329918077471,-1.8501314900853592
-1.6409279181250551,-4.587903500642796,-8.372955371214157,-4.40101702655133,-2.687365416775105,-0.1489970683147072,-2.9240140026177563,-1.8293647734035208,1.8674826594472371,3.855823264751786,0.2097521617046885,-2.0765891950051265,-11.736726732983165,-1.4533968962171366
-0.6894916721715694,-4.8661295403430245,-9.20400427561944,-4.269717877300406,-0.0484492864835061,2.212310352538656,-1.1021945131643172,0.8843663548607446,3.180808654206608,5.30504371980549,2.961290494633252,-0.5077486319002054,-10.238688224336371,-3.6490937477118095
0.1722036018142049,-3.261370956637612,-8.911214310733476,-2.364244932849604,0.3929663442047006,1.6473802139762457,-0.3550429440175175,0.8207940410062929,0.8624297592896072,1.6823578382473974,2.6189915508852963,0.5475515297213882,-8.00421335340213,-3.657806541002958
2.1010804857453604,1.2744454742651194,-7.0397627053269165,1.308931868335752,2.0661388861791843,2.1103542496622905,1.63972460410674,1.9650526339945489,0.625659756163159,-0.4416342865440814,2.564999708095205,1.3940096876896744,-5.514251154198909,-1.3423195324969486
4.377015188952295,7.218893712058233,-4.239494277618131,4.772081750557234,3.9075017872920297,1.0209776212751576,3.74773846806375,4.599139565287794,1.4958644205426317,-0.1318506339433057,1.3230286968607483,3.410256923635871,-3.1450924906932767,4.578352981652173
4.682432859519227,9.363860302579855,-1.676829671452352,5.3186789553871865,3.5544919429170774,-1.1126234750507464,4.009612746609985,4.883704251144639,2.7544910399521507,0.8633291660512958,-0.5135918308295759,4.394306423442181,-1.031480758636433,10.190056451939904
2.359807589639908,6.411846278545628,-0.0858301914207539,3.499508077181176,2.6684934912079727,-1.1000105724310767,3.219814695435074,3.2203018517293684,5.337707814729018,2.19134985517462,-0.0897516599037465,2.891144140747452,0.8208031128815918,9.208603189791706
-0.4080960235266513,2.106169673720637,0.6503395659082507,1.571965863511069,1.383105726174863,-1.8597215156837887,1.651388865550666,2.145574129880888,6.637781158388137,0.969849124611326,1.060588553524927,1.7914404639025507,2.3443083521907573,3.8445223051448463
-4.5523725360615135,-3.2099630897926064,1.1204579427927115,-0.1385414851178503,-0.9323794213077364,-1.9874399013189723,-0.5420919362935793,-0.2500284043154779,6.673664292379493,-2.6195634638191807,1.6702893278616109,-1.1917305318052782,3.4458242790631664,-5.249777244021098
-6.590845866936273,-5.575003911414608,1.72446196788073,-0.9190200291788496,-2.160096900306611,-0.6635035911700738,-1.591844238355918,-1.5286104506295377,7.05184279343728,-4.2255367714203045,1.28905831102908,-3.530386684782606,4.289501358288341,-11.784367490323874
-4.4589618053476,-2.9187972222053293,2.4078026565194577,-0.7757747551250493,-1.598448488933621,-0.0942502523813077,-1.349408853524959,-0.8568269946212916,7.259464845782364,-2.742532620974639,-1.049603777145138,-2.53295828048255,5.446954112112758,-9.69160217135564
-1.5619951013736224,-0.5626723080607143,2.93444820719734,-1.0389262674083517,-1.1874085490429165,0.7894988237999286,-0.9114842461596008,-1.9285707204850744,8.017763155078383,-0.0429042141825379,-2.140835633331672,-1.8214791132666552,7.55110191098832,-1.977497983662635
3.795377867665673,1.4398786598855944,3.257406988272267,-1.5558070630353755,-0.3460440976394697,1.4915989989917078,-0.3959157603102471,-2.2352340606278487,9.560348259908734,3.157677726704166,-0.6921300035943552,0.2842234783291119,10.614888080713408,7.467186464559652
7.652808612882172,2.24062674529884,3.5235936554189298,-1.145987472967655,0.624295192319634,0.9057564433741956,0.0006934465397911,-1.2705904904318308,9.687804362173784,4.046851353920984,1.44400446384874,2.191248860952462,13.657345651885288,11.82703336061388
6.3172420849189885,0.1997633062453798,3.753175825583366,-0.1728984169603119,0.3700410706786121,0.3898222256989958,-0.0042750735640228,-0.2612900008622955,8.485862467895158,1.9787129317559544,3.232968798914685,1.5987391098352428,15.136237169490302,8.224247221785896
3.6889662830931833,-1.3414009370638371,3.6576414256313328,-0.1944830033553999,-0.0583168824816779,0.5955317435815253,-0.7907481768760768,1.6961759181245095,6.655285077925006,0.647382686559206,1.7636313250077442,1.4592177735543572,13.985592265501635,1.1299480719277355
-1.2796152647822017,-2.1062415589052232,2.915461099567244,-0.3025534287788951,-0.0300008328993776,1.298472944875107,-1.838055223609926,2.751422478083833,3.710390080873035,0.2112629745376407,-2.0196178151553017,0.784231996102936,10.484719395072789,-4.593016725202595
-5.519355188813745,-2.021192291285528,1.6618521048615629,-0.6674585280597946,0.0621012973088322,2.078850727758831,-2.500659589545045,1.6433197480257309,2.0564118673385896,0.5168705666522693,-4.163556881464615,-0.3125932089351135,6.271036404473335,-5.315727753050936
-4.01940587905171,-0.0570155725192012,0.5996199735009462,-1.0389094378481425,0.4047852847014401,2.0004003947397844,-2.000034526556957,0.2478991277735754,1.8645967672575172,1.6354743120128967,-2.628287273574175,0.141862482869828,3.428521050659052,-0.5302997738777793
-1.2056283665848773,1.3167338676433795,0.4453595050492396,0.6251594435758131,0.8098130326281919,0.2599735340080574,-0.0830311950341472,-0.823858413857477,0.4579166330058961,0.9677270832371924,1.4072770583085874,-0.1894407237957324,3.191245408264141,4.210873333278057
2.22419369262481,2.4600072158268023,1.1322340342124964,2.4665750173037275,0.1584335322134879,-2.3767146692660805,2.3413536124746326,-0.9756692178070452,-1.6886184781467963,-0.7223816816644495,5.498068187781266,-0.5272072972257162,5.031997711979757,6.381848273679789
4.982853448030478,2.599807047606149,1.581289604952799,2.8655337344508376,-0.9758069349452124,-3.718417410479191,3.925066476051812,0.3523072121163378,-4.716551670054431,-2.0753092653055183,5.999421026278147,0.1393718344180658,6.746132692688933,4.930667286330889
2.4920770544887647,0.2205479261506318,0.4495634139348183,1.790046012376424,-1.335911633899938,-2.9914015926355635,3.4333558740571624,0.7601164983091983,-9.113197614956809,-3.330226106383595,1.0837317024575182,-0.3441024124810156,5.6743581812711605,-1.8375317569133256
-2.5462598955235274,-1.8022310600932596,-2.6391696446646504,-1.1771935821701125,-0.8948515979981259,-1.135498404129954,1.516473306032719,-1.0878106166083397,-11.66643610906337,-3.6478673124284606,-5.269530912545019,-1.3108054319615672,0.5117338190932577,-10.328485630241117
-7.564662117499467,-4.5669308124853405,-6.438141080136786,-4.232618305539879,0.5959769623747248,0.9431003773790284,-0.2848567216226607,-4.1030447919584265,-12.341456131333782,-4.298356043332754,-11.089275600937924,-2.658671728506641,-7.455610905036895,-20.35103041901816
-9.509405786813495,-5.624516081394099,-8.691434736085888,-4.719066556219662,2.0316858811521006,1.781434997470779,-1.3526536922336998,-5.826552336019194,-11.995461893216548,-4.000023144104522,-11.375859692289158,-3.395248212189792,-14.763304090908434,-23.124482327012217
-5.726726272593954,-2.6366320494850037,-7.68146490097106,-2.530171013830299,1.8016563497101508,0.9138078124964806,-1.3575216707141764,-4.055721312517389,-9.817493364832885,-1.3087562259602232,-4.212853690106208,-1.796824238711835,-17.842119191729754,-12.957044603650749
1.5153333316094084,0.1680992057668643,-3.5562489266479407,0.9488361513690732,0.4500969171599691,0.0042039061233326,-0.3401330783498298,0.1031348795152425,-10.037018957839686,0.4966097764238498,2.333144277229758,0.6720743582029587,-15.368733299945422,1.846872854201304
9.46554807448171,4.225275680551278,1.5972752203659866,4.625326782790578,-1.116060136258251,-0.127911487755489,-0.4433948632282282,4.793355873191952,-12.865913184842578,3.67656421125624,9.052950895979466,3.334967423885104,-9.078998933174836,22.94812524517267
11.939078637605313,6.455621663731664,5.0122519785044215,5.53455536972963,-1.8884852447600249,0.0099273557603055,-1.1358167237368848,6.594187322248313,-13.672097485539169,5.792402228948886,11.220061687764124,3.795801118787032,-2.3890607926860365,32.646242415142524
7.281491879685904,4.309380074616696,4.928656002728804,3.0573013268174964,-1.1433073704614778,0.308566012953283,-1.0851453777211324,4.172577770558024,-13.249681592279932,3.804110232381493,5.484908690992483,1.4582104454038691,1.9871282397961672,20.390495636374904
1.3124987273268824,3.8337162062070345,1.5603827737144034,0.2204023264596072,0.0553525057057168,0.549865215129539,-1.657613309806712,1.4258657561156287,-9.57078475324282,3.730612656723835,2.829836297840011,0.2860166694779317,3.4530079529499518,7.310702913625926
-4.89715979734617,2.980359466631392,-3.195649932223114,-2.736901884610817,0.3369014314625825,-0.1020220312144883,-0.7065089863251128,-0.3263760681681942,-1.5889387871590084,2.4876418646939094,-0.2539547434110465,-0.1910054735676732,3.0581346993803056,-9.815067555972444
-6.902553817418075,1.531784364263526,-6.958926167748443,-3.7075059445363183,-0.2397136587331621,-0.8301556033235342,0.9414503337142338,-0.8831676422265966,0.2094146814576415,-0.3863155973828405,-3.183753687662037,0.0092556232777084,2.0278091401102145,-18.829863865899483
-2.334602897895965,1.9732967529954144,-8.132018413889,-1.243091053923148,-0.8136441292228624,-0.9845934784882316,0.9729602846254708,-0.4509989563667988,-4.125505180328724,-1.6345226240375628,-1.7163469275427292,0.8350907748299333,0.8926055762464795,-7.320244130257498
0.7291482778606712,-0.2800425726797941,-6.528905543499702,0.5065479247269952,-0.9878737352498904,-1.2617368786161032,1.0073687599095011,-0.8218432802438743,-8.983792041503257,-4.048376574213052,-3.063945648943305,-0.8083723393151392,-0.1852902136801564,-1.971785069153284
2.8643731238161605,-2.780806374348939,-3.166637033123953,2.0839224214464087,0.2753832313139213,-0.944053341819642,-0.4054151183568522,-2.806571637987131,-16.655146437336448,-5.728983033900763,-3.8047119879699673,-3.0489674170363963,-0.7585536165058446,0.3257405377855654
3.4797802304021794,-3.203485236787197,0.5050778403064768,2.717658875158706,2.125549085148814,0.2572392941680499,-1.8984324816612168,-3.624910557189453,-18.183831161779228,-3.79507893287828,-1.7765729156334988,-3.301298659891528,-0.2315073318088885,1.8806589706841352
-0.7741118267031424,-4.606898699747514,3.439440923694523,0.1140502264577789,2.448347434834131,1.54013365307243,-0.870659821471323,-1.5732602948447114,-12.376700983483842,0.0086985336086949,-0.502339919860137,-1.76830840438975,1.2718179854251623,-5.373134619370124
-4.370104651513186,-6.4868528790254,5.425177870561948,-2.3485097074994528,1.5049928218703212,2.746967759883995,0.9493981698800048,0.8959267560708416,-8.936494373803752,3.2193350208708043,1.5837575077313024,1.350187519377974,2.5000485820419875,-4.268846144934275
-8.29348990818894,-10.655182492085943,6.891010336487355,-5.424091191628933,-0.4371460289482357,3.97530571900289,4.347472369738134,4.841222298975376,-5.772572162311567,6.688357775576864,3.098129850018982,4.615703835440045,1.9852191832083577,2.325376660425259
-10.203634803995842,-12.883630022916732,8.258480423448141,-7.060999450571616,-2.2137032573880755,3.3926231604364565,6.332385705867184,6.56517887193141,-6.338948352962144,6.599581392997465,1.8976635770355363,5.042799790726721,-0.3872783498189491,5.362277602060163
-6.197104486163677,-8.304311100248958,9.379996019190177,-4.553664800676324,-2.2853473939566094,0.8890082145560025,3.570037727311107,3.3741498367575096,-12.46780704680024,2.2185245619230454,0.0181872004325221,2.4978363865239954,-2.7999356100801265,6.040581829957695
-0.5784300489562317,-0.2309845777303527,9.597637872278517,-0.8641742369817305,-0.6586482914772218,-0.8480197702237711,0.0328430880150062,0.6587236436382296,-16.54279109843342,-0.7247419126295797,-1.0351727656791072,-0.6856542433187951,-2.795046775367208,0.684439131415477
7.66588926957404,12.652069684755665,8.453278619313775,4.36564429767359,0.7615763590492781,-3.58530662319048,-5.137238199828917,-3.4097663124308992,-19.69838710109778,-5.754300701934345,-2.0739691656950634,-4.735021114399508,0.5485998398836465,-6.0681867629843
12.586691354090682,19.758153072202223,6.422983886304966,7.232451668631755,0.8011135234659126,-5.20970822352858,-8.503799637721965,-6.21827685497378,-19.345671852205257,-8.393692364995951,-1.9090041663345008,-6.585243312699337,5.582860753808081,-8.087668591753726
9.74828571519278,14.43273438844644,4.875905751069624,5.416522878062459,0.1318935800132806,-3.545274788195033,-5.660503484980028,-4.351425911013866,-13.811298019146196,-4.564686857918878,-0.5810286870739368,-4.109137048761716,9.28749587363621,-4.161191801915296
6.814786910729254,8.984001824081558,5.07846555384705,4.249317351950442,-0.7965076846958427,-2.848489855533169,-2.2802891146020547,-3.69299188105716,-9.392482882002392,-2.1933254785241347,-0.0926279667517911,-0.5391131960371152,9.695297458968929,4.441130604472887
2.692692458742701,1.8829836280697203,6.994585091659332,3.557096314226433,-0.029900018254037,-0.4024768579172459,2.25807025753232,-2.130128457135981,-5.108427204271412,3.4200650942882214,1.6432265608026406,4.989991005949292,7.353745370546317,11.43994172181202
-1.005030290982886,-3.3561837607857736,8.978219437841144,2.832162069418465,1.808932675094029,2.729742478951989,5.552322264337034,0.5958169411370202,-0.1910746043128895,8.195923617030601,3.3582430695135725,8.492996510824156,4.518056092245228,12.03923441925599
-0.4225055757039342,-1.4852427504669754,8.788851319539368,2.681962450488356,2.462725764595275,2.851720772608825,3.653442855776415,1.0907969386813925,4.307136319317228,4.901926841464251,2.756984084005392,5.705687927545558,2.9079871555109644,6.851210547181767
-2.2595883538548223,-3.452465020803521,5.233189025474626,-1.0642486647880958,1.1499643997788933,2.163093239014795,0.7188325656588855,1.9314689124152784,12.201752296878784,2.247817850682301,1.0856405897545962,0.7998361475111309,2.194231711813176,-2.790527406614556
-6.597405928095658,-8.598328739465078,-0.8354975425449584,-8.297587935732265,-2.478094540140661,-0.6144031839512075,-2.560204390182095,2.3248583543708348,23.54601029173188,-3.364309673503743,-3.2676254033132737,-6.034558649544065,0.6362510193078244,-11.80874324302314
-7.677926517526168,-9.823924754673511,-6.928254800808155,-11.36068514881104,-4.827086254812225,-3.306173703692941,-3.696442049467686,1.1482864410948457,28.376612214886222,-8.423746581464785,-6.632334439870975,-9.782398484907493,-2.807873278863404,-12.952653086149043
-6.273366886077857,-7.868958560246336,-10.410839369217662,-7.933132497851129,-3.4754677394848112,-2.2019387553257426,-0.7707757036764242,0.7767010884615339,26.721130702357996,-4.675891402227307,-4.793349780974147,-5.748229217519216,-7.019781719823671,-7.288432133523218
-3.79714604431782,-3.560039388443993,-10.001403593766428,-1.6321867772883487,-0.107687593099892,1.1738106657652838,2.405962408823778,1.9576675380937296,23.11252253210897,-0.3386593018616927,-0.4319049835798274,0.1060447664753593,-9.426510679838769,0.07225900994569
1.638956955089535,4.002641746437471,-6.343165128826003,7.72914127954454,4.631780426109764,6.052318054890459,4.9178894855435695,3.5103248514141736,15.238495286444657,6.060912778777648,6.594740945412054,6.559550903437049,-8.32497537123652,7.004881679802958
4.749164767538198,7.493846495137447,-1.470197907222719,11.803529112202025,6.549078188234468,8.10657637030882,4.467927415758557,3.937276199309338,11.92357919699844,10.54260227078654,10.600702899754268,9.15881123029038,-4.706341133691845,8.211813332793078
2.8319380742886966,4.477234402039412,2.3354491316922275,6.0817833475305765,3.1887208684923043,3.984415219220481,0.2861025200197398,1.9969451697053948,14.031149620385593,5.972903391082331,6.540148652660912,4.19403163602151,-1.8627840897802823,2.8745966577937696
1.9730706469897177,1.879977304791396,3.612664198089917,0.5136027316011792,-0.4447460965527693,-1.1264555851473648,-1.9832482421319084,-1.5318225274470352,14.115891988961613,0.7809714047331237,0.4282429515256606,-0.7908049343289884,-3.0198522407798336,-0.6377590139084869
0.4562907986432882,-1.545048667249921,2.2666614929896216,-5.370528972247854,-4.187140985423608,-6.428045439973966,-3.329792335461542,-5.052991402284135,14.274853159036786,-5.521291300998498,-6.914690365833715,-5.051406602596931,-8.919359669983331,-2.28968582855157
-1.0339720984574865,-3.259929715654896,-0.5298407998880776,-7.880536789840949,-5.834732711870689,-8.49148241226146,-3.1090982681611945,-5.639367692870275,13.443856360500613,-9.555506395002858,-10.55968727345395,-6.487670431110853,-17.213752748745478,-2.670358616340479
0.8607546950092585,-0.4192266827743169,-2.9752955913684955,-2.551944630649288,-2.6065728105972235,-4.126758994152884,0.0641037147858947,-2.7932063783891943,10.658930953169198,-5.883829853626393,-5.950918656245109,-2.399596371764371,-23.95813356235788,0.0427070869160353
2.015125402378241,1.5814639806878898,-3.567433570043332,0.9754897841137788,0.2814198010656205,-0.4680894058684316,0.3289401688597611,-0.5152060998509853,8.362117871779656,-2.71027051454848,-0.8110377655764082,0.5503216031166283,-25.93230004141796,0.8491469630655737
2.647592056278891,3.710173608026229,-1.9386713783117937,3.653988644764228,3.256603945792653,2.909274135081711,0.5834136009694206,1.0242551060485052,6.052707998337147,0.5969879624645116,4.014276705660039,2.888421482485887,-22.236639197601832,0.0167355506498295
2.940859848107184,5.015078440998812,0.8488571794076165,5.189583371327172,5.107894932662467,4.872519776712872,1.2355706287847743,1.0737396890132744,4.650488207125066,3.398903724769104,6.288290612714765,4.150837426098275,-14.466639677611958,0.0476397089725951
0.9746009436546212,2.527415282428477,2.830698874277328,2.2061653992988,3.044922352924882,2.617602741184389,-0.2166795187638714,-0.5892883565536844,4.605787302125746,1.7769522857323108,2.85424996963282,1.9116199788880333,-5.749076692588295,-0.0082036121707572
-0.6527710770225044,0.0918981657936459,2.315895559536198,0.7277086356268637,0.7123050590285058,1.1225405756296978,1.1465660099029518,-0.0833123290579909,4.551232367316418,0.9250634865912734,0.1525701094339355,0.4019392346390142,0.7113254918414249,0.0008694387803765
-2.2335209780426424,-3.159827744493328,-0.9768600961371608,-0.7802515279603555,-2.1611633199491207,-0.4935429053215873,1.8331670406878229,1.117395477427908,4.838099149482736,0.4981609239743055,-1.3700357527041689,-1.4819922999986186,3.0181438684332136,0.3933326045438712
-3.5564247778681266,-6.009877555562098,-5.649467224932668,-3.018280018715632,-4.191268333676969,-2.266864110885651,0.3684767991775147,1.3824992984992917,4.03718776090378,-0.6223273933687838,-2.235107576423601,-3.2645156430347773,1.4229029761899312,0.4704620257526237
-3.437613927879807,-5.140906271877418,-9.540990593811566,-3.244910315817666,-3.1430035179254805,-2.05291088193076,-0.3470019990357208,1.475239358142707,1.838577805747351,0.0781825957257956,-0.8534276355248094,-2.4078324210617184,-1.8464135211357815,-0.18177777521001
-4.055892725918453,-4.080522193725963,-11.251217369497413,-4.314611584834003,-1.9889476939960984,-2.1035791989401407,-3.118754317174261,0.5061686527144527,0.3306660500587814,1.3271618516868458,-0.3929607876121933,-1.5762518172627946,-3.8892217436329615,-0.8022993578650263
-4.043904924819784,-2.456876353995228,-11.1117428025757,-5.036102082569836,-0.9075002972816464,-2.1084276569439,-5.134985719095443,0.2791532351698211,-0.8334118880457998,2.6590021368185925,-1.041277645776541,-0.1076085352598592,-2.9365221028990387,-1.7594660924227286
-1.9568859850370808,0.025650163840424,-10.775287778355942,-3.280858377785693,0.1260441092216796,-1.0860732105732718,-3.8316971311795447,1.1744926631300625,-1.1141205630416813,3.552450078497921,-1.0367468594230136,1.4928367935488522,0.5569198433865505,-2.3416024901531114
0.5896569461133928,0.8826655109076763,-11.684364436446993,-1.037135358335374,-0.0433944567843776,-0.3785900729157906,-1.4589045708564303,1.2338690407299169,-0.08172236621203,2.3474763735392616,-0.8359990788650733,0.9097028256800253,4.4218571660835,-1.5405471542760836
2.3043011871514625,1.3197040211301898,-13.662057032578254,1.093537630864839,0.1359830847605021,0.0858453953167113,1.360115017144821,0.3034631517852843,0.7075294036317413,-0.8036205049987204,-0.3449368603234959,0.075423109755608,6.576159282412288,-0.0254689300888851
2.905637988988188,2.471925065956327,-14.850086576419333,3.755618072524213,1.185128736040563,0.8666724996471407,3.371097959111988,-2.557620366196104,1.4740517374027435,-5.23116068132737,0.7386632073398247,-0.9298068353225788,6.692902991372572,2.0414078632543213
1.8756561769923048,3.2292737104563214,-13.141158951921932,4.650290439583109,1.7421995820466532,1.0932708511131883,3.030851629138636,-4.670890347465264,1.906276766664132,-7.171541226580773,1.4046488653016351,-1.5643495786694672,6.331934740879634,3.02502311487381
1.122242902721004,4.027138934935508,-7.987735718032069,4.091721734398211,1.950804622171166,1.4622718718647725,1.6742151066718751,-3.1501143235373417,1.6807179417185218,-4.452050476921226,1.5564724213375358,-0.0689325936682238,7.413185686707615,2.378148818764221
4.198241229676331,5.922735114172055,-1.0994750677607872,5.27678575018827,2.565847410613645,3.3891471791013985,1.7533636468239018,-0.0836116227227143,2.7332878988153766,0.3040343004217973,2.158247417695612,2.203923240969849,10.391280436826769,2.017889454476648
8.471693414650282,6.283538275962033,4.584836460581924,5.796746913102035,2.868210388017096,5.7247308714902605,3.1007401037265434,4.686871892912546,5.001429015479396,6.8773106422464325,2.6717961113979123,4.905484582322989,13.817962617382546,1.924565816782897
9.217037270673403,3.635167723466693,6.868065682548767,3.996311083065071,2.436172442434182,6.0688746664315305,3.729421644231761,7.261517173005109,5.979217173186959,9.842850485281234,2.0215173373554274,5.824259035752641,15.7482825013205,1.785320371543538
5.134489833885873,-0.1115681086986511,5.6638613005373095,1.173282883606204,1.2965533427074074,3.623967351666113,2.412247254327236,4.669594527506295,5.901634079066762,5.589892693288412,0.4289452482846689,3.3052882429298016,15.67917386029467,1.64725936816156
-2.1396651946513665,-3.0481732360308875,2.7352076215288683,-2.9233491177770765,-0.7919711071480582,-0.99584151627752,-1.074083497868746,0.7672591940151136,4.118819396447803,0.0926026054856009,-1.1391540260687012,-0.4610968736513325,15.069797294601177,0.313917365753624
-9.224702512615014,-3.637317037557767,0.1265575350459364,-6.799307103097662,-3.295695213443384,-7.073645161365673,-6.2683116733084345,-4.530728525997418,-0.008479517669395,-6.554753747556262,-2.6801264202714505,-5.672568140342526,15.75114275455899,-1.4767138622460134
-10.435190457758072,-1.2053346211191278,-1.3336942914765508,-6.323230102943704,-3.908325453752545,-9.54618327062332,-8.072591757889727,-7.540493239415211,-0.8362248780903598,-9.527699188808862,-2.4933088197332016,-8.119624041718929,17.67239567536665,-2.114120386284461
-6.066499622499127,0.0987134103990952,-2.2314347040908995,-3.031822052236308,-2.433758587153783,-6.67188057452992,-4.47248937627952,-5.200943801918522,1.6803160013078389,-4.683855329364075,-0.6659012794366401,-5.190601710103666,18.372125648643816,-2.3699750272133424
-3.9674145573911934,-5.301217482164281,-3.4474460030351537,-2.418225159189636,-1.4687558833911092,-3.2608358782050706,-0.0997112405173104,-2.006698821031139,4.852646492845971,0.0082076495061794,-0.6044157286997995,-1.648131879285327,15.13061401257768,-3.646625351865499
-4.965607950426618,-15.047412067783366,-4.89406732091059,-2.719444548825289,-0.8701635787083035,1.1734670853292912,5.428023621888119,2.3300925295455803,9.984623923130458,4.296677144461914,-1.060741146876965,3.3774526357409504,8.061650343031282,-6.635583895251518
-6.479983829873756,-20.00170701770244,-5.368868735375312,-3.3573360895613917,-0.8530833823575731,4.064175475951064,7.534946719473024,5.505680934585721,10.70591151576115,5.639939619005492,-1.573247106773863,6.357814341762186,1.0549707063728366,-8.378803890305385
-6.01649222311416,-14.09452396700846,-3.692436945045916,-3.5311637022804354,-1.169874640735072,2.738337701553328,3.410435327876282,3.818280022251096,6.351735291939101,1.063890945360767,-2.0849112953658206,3.565465004642488,-0.8889702243783315,-6.1346492403247765
0.2818067127097402,1.05115293004714,-0.0388198955551857,1.2537082339800305,0.4723350175532717,1.688044782592741,0.1897831479495165,1.384102354948439,3.1861712074779445,-0.9211480845196944,0.3701832498111813,1.0398753422154536,3.992306279380316,-0.111327539719237
10.86070810739653,20.465550746180725,3.8571657984621215,7.326246629569919,3.42578333044562,0.3694533325205678,-3.504621163845788,-1.297640422021793,-0.2535543546177701,-0.8136227631310005,3.7079203640987286,-1.6970439253520735,12.069339471639996,9.801469369170418
16.13462216362466,28.60111813729637,5.912890306124936,9.22057355603198,4.823890012480519,-1.384323914898657,-5.346143132263866,-3.7360924943107583,-2.7156834225899007,-0.0608427295454025,4.923471330064719,-3.6778276828679832,16.644187551901553,14.904469055147723
12.18341998494047,19.116743746161657,5.332680974144763,6.7634405499858685,3.4721896843019304,-0.6391720697866082,-2.0876022814535165,-2.663493365314086,-3.177670260245049,2.352934498327897,3.633915258453688,-1.7567370461752465,13.107485549827448,10.327230153334702
5.165227924748363,6.174055919976372,3.285653139371451,1.56570890759202,0.2617530646352735,1.8254686542031835,-0.286661637174071,-0.1482230954296431,-6.927905659733293,0.6652600768870909,-0.3741366501059351,-0.4798451651432073,2.621842877538892,3.2520833711792343
-3.2032551466417454,-6.136096716980441,2.0757834230638323,-3.506574746710549,-4.1951975642842925,5.031962568682343,1.9478497021256185,1.4718540401808755,-13.643414892269904,-3.100779893423878,-4.968273995843829,-0.30047356224986,-8.804919629776848,-6.036637366187168
-7.325057342360454,-10.969041243448526,3.4814789093148484,-4.847948872943341,-6.4362828788570905,6.93927188587732,3.763370291715393,2.096985899966346,-16.78016466919487,-4.700187562027169,-6.395649971105131,-0.1906758825396274,-14.99855480743665,-10.430998402468036
-4.291198353229622,-5.110609551620991,7.510988446676192,-2.9566796971202844,-4.70714116757859,4.795525471092702,1.6033483360308631,0.9263207682766836,-16.917966300722178,-3.669814137229027,-3.820034618657251,-1.1433095107743712,-14.043871580762096,-4.779156166358939
-1.512905928093172,-1.0651651181019193,12.394758880020056,-0.2060655628457837,-1.283536222782108,-0.5256219889626942,0.7084709887411491,-1.1049855356300218,-15.76733928609334,0.463433160195452,0.3211271297870526,-0.9295194860486796,-8.955001586098328,-0.3980619685608701
-0.6094011778488309,-1.460890699287757,15.713845930051152,1.5646285121108758,3.2343388314258616,-6.800951593778218,-0.6613641540354107,-1.092365638261742,-11.98303650872038,4.817638287750928,4.312368669270113,0.7368206094041012,-4.566656973378995,2.051008391843347
-0.7970884399809928,-2.985187331976765,15.877575247599973,1.2687175645758637,5.995061980536532,-9.47782300136408,-2.5533624198733085,0.3298971613433751,-11.636122172497071,6.004279941789964,5.658112868835545,2.056572646325868,-3.7255823018847902,2.57667624694428
-2.481753081432735,-4.791806041166652,13.047877586669586,-0.1765104204642389,5.024041031580307,-6.490776904897392,-1.6529103143360755,1.2974641342917534,-15.091135967585734,3.385886119260236,3.39432593203063,2.5941160366347424,-5.895610952314989,-1.0795725972133323
-3.808754828565193,-5.263204930037668,8.982583778468861,-2.393728498318924,2.529165320941196,-2.095920329659203,-1.5313529253146678,1.7619440399092976,-17.10249692637171,-0.9516221443893532,0.5415116596446781,2.28328879164017,-8.674263709217957,-1.0028629335884238
-2.9577435991410166,-2.5324338255320704,5.889489566364116,-3.984183886178173,-0.3834004789516912,1.5961571865657531,-1.085331600469328,0.3859432000315803,-18.98066000096394,-4.379020426253722,-1.5405704023859623,2.025357011534457,-10.218316939647968,2.950235542195158
-1.144469490702393,0.22534338535045,4.99348938949539,-3.569990462810619,-2.5566421644693,2.6237094128928344,0.3702889793763741,-1.1635759256286105,-19.071096408644763,-4.950394948698268,-2.161806901381313,2.0566324542740038,-10.377691595399584,5.589020017514596
0.8616225846602826,1.631370011269475,5.788906173223909,-1.1734378584210798,-2.168526117342464,0.4886538012594735,0.4703439522080707,-0.2007041719147483,-16.49504709101172,-2.4880902829353087,-0.7539149284115731,2.0141331939986,-10.0933179471498,5.624456776893259
2.31380590736515,2.9750455636417623,6.5694899056306095,1.246707738555467,-0.6051699297353309,-0.5506084860695004,0.7790268980698548,0.302409390129751,-14.65713794730763,0.7759650695005086,0.5562699627832808,0.957099330955974,-10.22484581463343,1.6414233225279928
2.285710899197481,3.25821099343875,5.899133631105467,2.916269974533411,-0.1826424041418508,0.7874584835152298,0.8245853809575806,0.3962576706347754,-13.002423098599133,3.1285817349509677,0.5686748092282791,-2.7095472023123364,-10.992286425533084,-4.530609936055352
1.6065419271685886,2.766736820406674,3.8561978510138175,3.3959483758800384,0.1201773924659233,2.66638700238348,0.0576652732878711,0.1362810750102608,-11.463474945087734,3.418889654697846,-0.1543961632913975,-6.052779315164301,-12.137197081410196,-7.719035827651257
0.9918188696902148,1.5982509720057714,1.9543067319899483,1.949541410352409,-0.0006627555334465,4.035926324844812,0.0524675372409147,-1.9460287444905515,-10.632225280402636,1.5793369222726514,-1.4041047744331496,-6.313865992809877,-13.201042976458597,-6.305691995546634
1.9184473916676963,0.7856093210264358,1.726877571050741,1.36125646402942,-1.5870522779821066,4.216527005595263,0.8304399911940485,-2.4683481506055025,-8.863352134119282,-0.6220766744819037,-2.533087576575543,-4.318952743203832,-13.604824344202092,-3.1220703243418635
4.033672984164657,0.748853108055208,3.196169298044645,2.0961581258234663,-1.2181648442916493,2.8094349873991527,2.3024301077830907,-1.8780299441230637,-6.280641411328662,-2.1433376896339458,-2.64059568153036,0.5496579117866421,-12.78121696405127,-1.269331257987202
4.739651921916276,1.1506170736689572,4.658403429780671,2.298046966652204,0.0386833973480378,0.7948343620742935,3.356694655435416,-1.070337182751653,-4.337480846334157,-2.403496799998075,-1.7263460981183267,4.8347822036158,-10.560662315814872,-0.8685311647536507
2.863822594623846,1.2447214053434592,4.086174206603598,1.4516042278667691,0.081107619699602,-0.784898731502539,2.4974790110658995,-0.021313977927537,-2.819397712749416,-1.5884611852883603,-0.6200004842665361,4.375303309728462,-7.471331361478368,-0.9198599706077332
-0.5645397664963479,-0.0570774470751548,0.9413613803471774,-0.4797669774874205,1.7410248920773994,-1.489561660038575,0.2494273490278621,0.0086634716782751,-1.5885276827883696,-0.025743253524386,0.7847868167768315,1.7175129860256309,-4.453707742355683,-0.6536307728987308
-4.836238451437174,-2.404481856786459,-3.2592518849581342,-3.881589712164025,1.9955894342310256,-2.0456891405710653,-2.9204905064766526,0.6578347898762237,-0.9220709182603128,1.2604797186092305,2.2512489379135934,-1.2672923366353066,-2.093754271221581,2.739457003395554
-6.83802218899326,-4.1131289856711,-6.18341941664675,-5.600276656559585,0.3516354443788811,-1.8683259861243733,-4.781757121495072,1.1654696411303944,0.0091043501975622,1.4124495690553716,2.3211042203032197,-3.22097332889083,-0.1464444110359197,5.700458323751353
-4.940022418514444,-3.465324295616524,-6.628683939325311,-3.5114869210706807,-0.1326069031841881,-1.1552811817116388,-3.777692921627678,1.34115830979187,1.18081466341942,1.1463025359645782,1.7094697621274748,-1.6775241830658647,2.053905034078422,5.17077470761148
-3.000777288896426,-1.31184017409693,-5.426207859979279,-1.0011844948956912,-1.4639098754298632,-2.613254289216734,-1.9687017654685768,2.984480944169297,2.218675009872584,0.6432946307832498,1.8980224983562872,1.8311108718157745,4.644583518377456,5.296727701182414
-1.3659341272267385,0.9175397992131644,-4.541715165275733,2.08184936554246,-2.2147308985513794,-4.515312619052253,-0.008569791988483,3.8245316974240735,3.2903721983889875,0.8159389109021216,2.310613873141876,3.707813589126445,6.759368475170422,3.883460196763619
-0.0934156398102341,1.8715101282533064,-5.271698139472645,3.498716207736555,-1.175708292364256,-4.90979199950173,1.3011013481633935,3.2219930760328674,4.18019580507131,1.4753321911152075,2.686349562437171,3.3528692331291863,7.120765258824132,1.3839595481430944
-0.1364057157379095,0.9300943539217716,-7.19381416383589,1.2595344800470236,-0.1729379243566613,-3.1874624420530813,0.9850974896010614,1.6775421078331605,4.855364169403958,1.5648108475501288,2.481778861668203,1.2078114411824976,5.189408062336252,0.3262172101445422
0.899542570819929,-0.2676142540596223,-8.718162178279645,-0.0575771116456442,0.7340397638616656,1.2883444123872574,0.5921855328479609,-1.4634250343238504,5.100684490546492,0.7624540121065871,0.1497625752254549,-2.094062312354126,1.7610948907166757,-2.224656861547944
3.350499805811923,-0.1255303657079092,-8.570957393374941,-0.8535186213673095,1.355224669512964,6.736553209382939,1.0555193436582957,-4.871403893029889,4.822466240271429,-1.536786480334042,-3.357983186248929,-3.839274392040311,-1.5547935323635982,-5.083303138772868
4.340848656429803,0.9062830016620972,-6.793053797342537,-1.0004135956767095,1.1708308683561297,8.864760496837766,1.2771072356236504,-5.808234973918091,5.1495262796968655,-3.3049657250551285,-5.119211498600087,-2.945291982882596,-3.460841560491636,-5.275612845536405
3.5438072939603047,1.7408105254238078,-4.470739326404482,0.6384956526677174,0.518470638505898,5.920627468924243,1.1832352761697318,-3.681884434137376,6.082700402361277,-3.084121106389273,-4.321025351110526,-0.7679848953710458,-3.688439837274704,-3.63065823114809
2.901035297870844,2.0516710339416115,-2.676359956753247,0.9647079129462742,0.2089883180133762,1.3088539817722036,1.5867444663477377,-0.5877981818836506,7.0590681652055,-1.9377752308082057,-2.177735773115494,1.614334914339644,-2.8227362832965115,-2.1688049276966184
1.639301800714082,1.2674566548698694,-1.7259577167585525,1.2553483760741648,0.1838638085023692,-3.611596516103705,1.2256324281991795,3.1073851151789307,8.333753137184848,0.4994965835357079,0.2237870152384518,3.4773092425202696,-1.6449972546496676,-0.7572437679400204
0.7914608633401811,0.210954134127268,-1.344008583919431,1.8027956713274924,0.1336234625197934,-5.699413441866282,0.6318396007781414,4.837476994927604,8.892383399653944,2.61297595198705,1.3556995490114103,3.397117270386091,-0.7028764506974525,-0.2515636516926473
1.0094017420486894,-0.0168035380793089,-1.3282620240959613,1.1145339671968513,-0.0391362887860392,-3.2868809201686213,0.6409530363675802,3.51067750999956,8.618060255918126,2.5890451004096118,1.063148254034369,1.7537385150269869,-0.3243345716924262,-0.2729573848428066
-0.6572502449042732,-0.2845809798713457,-1.868915432203269,0.3843514011046938,-0.4139341337294898,-0.4043931359276393,-0.7880744662676484,0.8059431482614974,8.33457406142404,1.4799921764894544,0.5473213547067071,-0.0663718139549156,-0.6956067824221428,1.0480015546750192
-3.421861330810838,-1.1165576509995083,-3.1665704108944945,-2.1056686884407947,-1.098175945971967,1.7095784838475154,-2.2655745035390176,-2.461995492991367,7.787013160892445,-0.3522548957005223,1.2826751113317345,-2.358493748265767,-1.660406032929691,2.988849599855464
-5.03383966457414,-2.1041079922609063,-4.82657497068912,-4.6642802491020925,-1.400530298948627,2.0079419312092006,-2.33886473548251,-3.644426473123647,8.074607802778894,-2.2821023884967007,1.9146969508125251,-3.5501890735766635,-2.467701988939581,3.491952247669267
-5.237706129665972,-2.7793724700857534,-5.796104904987832,-4.2075618177929055,-0.7867237896098384,0.0090326019904729,-2.041728734647477,-2.4740073198362795,9.391008664196288,-2.636465500415976,0.888674200445351,-2.921340619945811,-2.014742665650026,1.8762473365707888
-3.8447452378256095,-2.494640336014334,-5.069738856351549,-2.155014612923951,-0.0433555511403469,-1.6908951919644553,-1.0880304617918608,-0.8413682676998158,11.002451068145664,-1.0952105913195975,-0.3026576002754892,-2.27181613249887,0.3191076795720118,0.0355350076872421
-1.6845379251096368,-0.9185042291382286,-2.577528712502596,2.4623895935030515,1.0114160332438868,-2.015135421671747,-0.5286398021811958,0.3552049459383064,13.240719820853569,0.5693764294820536,-3.1886960763440757,-1.2826091224972107,3.936014946605704,-1.3927496001008757
-0.3138808944628877,0.8006585085991658,0.5877696573937072,6.048148057970271,1.3369417307549587,-1.1890399019912627,-1.209084955920114,0.2568785353706283,14.627286938220427,1.4851700710989226,-5.15254688680498,-0.2569435576409464,7.223567283071525,-1.091311388403566
-0.3936856403105362,0.971725303024166,2.886546941836536,4.033980487685586,0.0396205923607144,0.0910366063048834,-2.0990988597116917,-1.0451017349876706,15.002107353683607,0.642476072844579,-3.94686272169055,-0.3647691705828867,8.724182351894498,0.3610956129789788
-0.6636365104007403,0.0250169051508837,3.427974081981235,0.1496635308567038,-0.9513871598393674,0.5361710000771645,-1.8039628452868823,-1.1993125862541747,15.56401179749398,-1.5116744405601092,-2.206786494383483,-0.1253488245237531,8.290359916430436,0.1852148044213188
0.2843190898076979,-0.9959567203378608,2.5493238338118225,-5.2401020205060655,-2.0917846850183786,-0.2892679094381764,-0.1667954944643281,-0.1228058744447961,15.945305646484355,-2.279805097450152,0.8963452910492705,0.5584469673993337,7.157571658803641,-1.5499391899577206
2.016529486400512,-1.1148403108308025,1.4486976201924442,-8.11245131509606,-2.1395577131999275,-1.1976124243473143,1.8974108284282647,0.8326307895519057,14.971804824392963,-1.2091706435433511,3.434691662416728,0.847933885562838,6.869080220966621,-3.38514139594126
4.400774918682257,0.7887399911034125,1.2354640822782388,-3.703647551427735,0.1690214515664357,-0.7550367106942629,3.6978078036899458,2.145188747685732,12.642132636080223,1.3099667104120765,4.2020189691076695,1.829563254935629,8.044746973792035,-2.789299798252754
7.478827529079365,3.762426306321325,2.1503947244030988,2.696107389604772,2.018368713573784,1.3662088248079458,4.669722449157367,3.3660111118802702,9.114006982294727,4.169483001521664,6.241808693974443,3.728673579282946,10.017908282969504,1.3123303520833771
10.058760306909535,6.035639862474344,3.439579252073287,10.039356468983618,4.555709394972784,4.830054499484871,5.980931619441657,4.8849922213170025,4.056327753396477,5.326473923504369,9.45147235600494,6.068103535378384,11.431990453158727,7.086444617958794
9.054998597955697,5.302605000501465,3.8249983752295353,12.859475277082682,5.470115535249096,6.400048560458716,5.811998663724345,5.42550857271105,0.1641644699694692,3.701136631634086,9.870698989571729,6.690570441007124,11.080972338445513,9.61103335347966
4.332631897759549,1.8078240485749668,2.217922179452054,6.974239895745368,2.739644261599528,4.201066614250655,2.9655263615841547,3.379752167307466,-2.42969899239668,1.046594456194217,6.592619246411227,4.272087799554053,8.379659140471059,6.590875021874562
-2.238464640410481,-2.459128385200568,-1.6399879153001145,-1.0508590458810951,-0.199201212872821,-0.4322307329178548,-0.9270054496842772,-0.2944879100049083,-5.8072873771061095,-2.1934314971853377,-0.6206409958942227,-0.7281494783981147,3.496487029684366,-0.1814641342832639
-11.582867633406204,-7.17538900201409,-6.8348850943621935,-10.915372788427993,-5.34181643236548,-7.036633504464696,-8.419198519642872,-6.232626636241782,-9.365804668337669,-6.1198477374190645,-12.332208378951886,-8.057787312175693,-2.5614231738978344,-7.76669823544314
-15.20026931818268,-7.486035115566452,-11.474996192801347,-14.770245932020964,-8.12556782986909,-9.688214177455697,-12.28447264929028,-9.402088268795588,-10.181869486172811,-6.344983935006612,-17.663575620702524,-11.162797877959685,-7.993378572196295,-9.962601816145243
-9.917508271319331,-3.0304245252448005,-13.547195175425408,-7.894385436549172,-4.802079079741563,-5.52053914510714,-7.618847104777713,-6.757846002172554,-8.189169459282414,-3.3390086491652022,-12.800601585347993,-7.498179246412482,-10.765835530687326,-6.264361167624635
-4.842656808231769,0.2931863442701852,-12.116519620995891,-0.5642096842756459,-1.2568970594033182,0.302115185206356,-1.87170400525784,-3.2961468282467266,-4.397545866114982,-0.737046348594294,-6.512260105867242,-2.736587640174225,-9.682069856410385,-2.457399922569089
3.3304610614873087,5.0683697854457765,-8.056119515615077,8.516556364476433,5.136856284862748,7.987385516228716,8.186031070252278,1.9579921380438337,1.9753023984225817,4.213885101366476,2.791118864125621,3.722616912098243,-5.234130998133225,-0.0690303711064465
8.656219244159049,7.047743997155951,-3.590334769207094,12.838828838538024,9.47320511953753,11.44664601035184,14.28806572378726,5.419791914418424,4.197049058176764,6.700910520021393,8.055814487288938,6.9947052866248,0.574323328428251,0.0335842478025141
4.7079281187882405,2.7319602654599557,-0.8021017655702063,6.16262668771956,5.697226548930454,6.278874059183893,8.196807102412569,3.1874526695093124,1.7404500227155808,2.922092691517702,3.237251304096074,3.216936910569987,5.420521197895136,-1.691162107715413
3.2185476922322755,1.1645799995466224,-0.2191362794090761,1.251371725403917,2.0947395111570217,0.9563895773912628,2.596139121811237,1.5596359065926169,-0.7406129885643903,0.8446932460152801,1.374047193900317,1.2161731995077765,7.942386954952552,-0.2742986958765718
1.205143143784654,-1.943791925048013,-0.6556180597183072,-4.052678349553043,-3.6067381831681327,-5.183313710891678,-5.175241185506867,-0.1768645732464012,-4.92183036606346,-3.450375001555244,0.7332989713208261,-0.1143897425852868,8.169888465358675,3.967236820991716
-2.071712857631535,-5.507447584668515,-0.4384003903378879,-8.059426362328304,-8.616759107140293,-9.058642999514957,-11.173280228051816,-2.138672994973553,-6.955511679509359,-7.663021415219253,-0.657082767975876,-1.780552593487133,7.035833440890769,5.968761316667887
-0.3810539950144524,-3.307922174576631,1.0852794161016757,-4.372846246233758,-5.956298581627989,-5.9375185068398535,-6.926950710386507,-0.7992853713814722,-6.119053665539767,-4.275427801256784,2.8604228434430112,-0.0950701498105209,5.641978118891551,5.1958237281033846
-0.0254087431894093,-2.6935324317896003,3.082669579817243,-2.7101454923075963,-2.85222079986561,-3.712868198095345,-3.978559921379489,0.959322881271098,-5.533915844477087,-0.451330727896352,5.116381069697173,0.3096698803772046,4.842491623793246,3.3463791107340137
-0.6164006067614778,-0.5358896695645102,4.1261078954884125,-1.4173315636462445,1.22751397287416,-2.2234686068433995,-1.246726544098012,2.6836046265357583,-4.106169063839108,6.31070015381205,6.581036995781581,-0.2127986771060789,5.077011684864133,0.7373709460304696
0.323960112917699,3.214128550112291,3.518393666251063,1.4899644434334016,5.215460726682347,-0.2180326809910496,2.351492599982519,4.196406012160722,-3.587010181178174,12.277853460100284,7.819058030489137,0.7666560739919244,6.137961991689513,-0.0486448183568637
-0.2232710848522777,2.620222299463016,1.8490670485397125,1.4948986142103966,3.8332818482969735,-0.4576983849818202,1.579311142164628,3.1267822557603937,-4.375853116719532,9.070705385848768,4.830901721170114,1.255099566663476,6.9741906589164495,1.0143036381321444
-0.5500646321126419,1.8089038264538992,0.4201519938190348,2.0364841675831897,1.163586638505345,0.5307850444875208,1.5249659777641584,0.0097438970347387,-5.243757247695214,2.29285832908592,-0.6868599008342429,0.687356258489007,6.042791987136779,-0.1078370201651025
0.2773398187329362,0.1816441414456006,0.2170853110450945,2.953171283364475,-1.2329461764664942,3.6958904868333904,2.873761252608121,-3.645420068353211,-6.733326994476081,-8.080671601444392,-8.726845812203534,-0.0715308834638096,2.379183596154532,-3.057540631675443
0.6343312471600073,-1.936391672434754,1.3415790111315058,1.633609886741557,-2.9192791820029727,5.189504076852902,2.654138771826166,-5.327580443474945,-7.0775606352207205,-14.72705220885894,-12.86828597145033,-1.0405364621961588,-3.326183638209791,-5.00937775864332
0.5552622344492527,-1.2737019816860633,3.197160965199741,0.0245087825412469,-1.837839920949856,4.669769960798784,2.0231671249729914,-3.831110478825444,-6.077409142502121,-10.242040885666436,-9.231960483038872,-1.957123655232804,-8.744974249190939,-4.993849833762494
-0.0992345827767498,-0.3243490054284625,5.0057892802084645,-0.4704524079820318,0.2994931489422908,3.874399183628313,1.7140615430858577,-1.0453745567752644,-5.225786916633896,-2.7059459474974004,-4.254334145284576,-1.548164865862277,-11.350348128874815,-2.860303817159106
-1.487254346620633,0.3373770997578933,6.1355500816226325,-1.4650055801181268,1.2182923403442425,1.3449450816728667,0.2177701772344996,1.5657917946961155,-4.091737479224638,6.300636446059658,2.930858616108792,-1.1914507268089345,-10.25563735819589,0.4974388578341729
-2.1108764449941777,0.8786785354470656,6.168049626185368,-1.5714624368467882,0.9829769602818704,-1.0622247732967212,-0.8374861010241961,2.424770521003129,-2.9086777456822666,10.9624381346848,7.168788707631292,-0.949444677714784,-6.864481344073773,2.2652193782257424
-1.1111170776489694,0.246316245393711,4.99387184055993,-0.6048177467440623,-0.3427984251639306,-1.4093714553051913,-0.5789369562861666,1.1601753156384007,-1.864802683063163,5.813658483168528,3.916799772343737,-0.0999313061742913,-3.686989035818602,1.5820848658975937
0.0889538216131269,-0.1610322055698505,3.060090479519653,-0.8538087853594973,-1.7617825111471084,-2.0094250039117245,-1.216923508518839,0.1092980707589655,-0.2202386403992821,0.4756877230138738,2.084089638333066,0.0903041504845351,-2.336468407501941,0.4949138088228237
0.9280139268928632,-0.4911515987960555,1.4569007935341831,0.104974720988477,-2.242933353915639,-2.6854236822328734,-1.63972895356774,0.1298505646914178,1.9481325200629165,-3.0214867727509978,0.8544951566103356,1.0477127840390614,-2.47951685686194,0.6679431862362368
0.8681015250363838,-1.3077316020785563,1.4291415226327775,1.327827362065709,-1.9402189800049343,-2.3171498118923077,-1.458914532871972,0.1295611256867187,1.163592627940632,-4.559818029569707,-1.0926132763221623,1.5519486865541523,-2.580439106768885,1.453038315655515
-0.2370244603709032,-1.3781327264787435,3.4001085798854795,1.0861175791412885,-0.3331758945003123,-1.6891847582592212,-1.3314433675517257,-0.010250622637443,-2.7765185762068,-1.7276378026022123,-0.3953486722318313,0.503624152458731,-1.5740243139932204,1.6633661659523702
-0.3429819142035635,-0.2815780198873481,6.262851278778136,1.484309836123867,2.6959463341939727,-1.172624707502641,-0.247248557467641,-0.1236023603622181,-7.140738250829715,-0.1560870292757459,-0.7529223918224826,0.8040149237191765,0.1753399609763715,0.9505409219112932
0.8284329401153571,2.461462226488019,7.769606563611228,0.4878352560528715,7.366002002925077,0.6762190178377596,1.3031328150405312,-1.104355969439208,-12.743071278065054,-1.4879961204143295,-2.605690638804761,0.8093597564551464,1.3908246618485478,-2.252506018066056
2.0136175716508222,5.38062520755014,6.044785419372101,-1.1493926416460585,10.125396398511416,2.2603040262051914,1.940755690882326,-1.4943636067109702,-14.286101218841226,-1.9895172642418768,-2.2546426900715635,0.6294979193684411,1.1248475000711051,-4.728299699974119
2.228709116626093,5.77328299636407,1.1559748782827928,-0.645666517788062,8.105957548637011,2.3826362546719424,1.4274815845979123,-0.7894375340394744,-10.931314921098142,-1.2878706738356738,-0.8010504110147272,1.1123947090081372,-0.5571107034810066,-3.4494123119920035
0.3426774304931501,2.244807150853792,-4.632396560616463,-0.8322941920285405,1.080409319688909,1.9420316094019496,0.0956840265685857,-0.7785201014871439,-8.211766258161417,0.0621235366947526,0.0367542005852895,-0.7042747281065782,-2.880552810034981,-1.139156700961613
-3.227061078032383,-4.055763477400715,-8.337712288137233,-0.5778672509663234,-10.613103446766669,-0.1669311607745744,-1.6676174181392105,0.0270067954886119,-4.769020748241162,2.891131756967899,1.435169261377152,-2.813190710610632,-5.004650927826528,2.16514674988301
-5.052889737203008,-8.360804480545388,-8.372754818286584,0.7645312744417332,-17.06124136974849,-2.2636677092259925,-2.327328015151439,1.408049349801919,-2.878073459272301,3.625634804035813,1.653657583002179,-2.948350842605458,-6.307918870862764,4.036082625285466
-2.9980137329156595,-7.386554460320193,-5.543149454902635,0.6111598343701499,-12.8998155330161,-2.3743162759107936,-1.1130060756011355,2.1656961030692243,-3.5130856660423246,1.387615185760967,0.9636839274560872,-1.46445737206938,-6.430251272746299,2.7209375466809345
1.7065627472138782,-2.053024649845777,-2.1191156080553304,0.7208798897392614,-3.960971962390943,-1.3401341810081246,0.8482950885645165,3.418373593016228,-3.147982659163587,1.2079252310444015,3.025933126241434,2.0883353684476,-5.569901954958677,2.84982249506616
8.014520457078977,4.256403318244956,0.0905263248117691,1.0606347768061313,8.038708572187556,0.433091122888373,2.966505065589877,3.806416712295782,-2.551600254277558,1.9729045362274884,6.00937408069742,5.666855335182784,-4.880117089673378,5.304061914074016
10.59187999048045,7.171457355537841,0.8728360830043247,0.611732965309299,13.682256392581806,1.7139878841749434,3.518073120452774,2.2667552788416523,-2.838220156443172,3.221780551159047,7.089627354040686,5.894789582191181,-6.093735318389705,7.159816009125974
6.50604454046066,4.750283089008949,1.057484445242844,0.3955378108092655,6.730144071035366,0.9871725420644436,1.768820992376867,0.6751336429695999,-3.615946830619026,4.91172455837381,5.996264342061651,3.181739168455193,-10.043603586157516,6.627400387459459
0.7014162544898882,0.4163254099867619,1.113927872525597,0.5175850662641841,-0.5533446227221628,-0.1312461163190595,-0.4766648062272046,-0.7906186789891723,-4.3613789203657465,1.4360442218206932,0.6484758881385841,-0.516198078826289,-15.28220134064167,1.995511843587661
-5.5486512495265785,-1.1746578646059342,0.5226060422974967,0.5761333724576809,-5.495215660955734,-0.3382293677404344,-2.764787743851873,-2.324686929579546,-5.1453158876688105,-4.086801211501461,-5.9758517704995,-3.922995984790252,-18.63430719684452,-5.808130501093181
-8.469781133081673,-0.6805663545011217,-1.4204260309916954,0.2407011954420526,-5.971598776146201,-0.196628523756528,-3.358049552463604,-2.5372039245474687,-5.309511653154564,-7.025620927136712,-8.352473574274171,-4.567185146939582,-17.944039683614704,-10.41876616951229
-5.869862245323798,0.231145559713904,-4.344523199731099,-0.5179683479772329,1.5838508420592072,0.5247672754875052,-1.682746771169851,-2.663954442331657,-4.661626694382057,-7.52151816606818,-7.460627910633226,-3.127303298641077,-14.728586609115752,-9.357909894258151
-4.450060223122804,0.2264344097843947,-6.597522184183408,-1.8589869637848069,6.526975505815732,1.097489114640045,-0.3713931660470089,-4.279323405122725,-4.882979781008673,-4.1483071943943575,-6.320063290427271,-2.87678490633108,-13.751693612484868,-7.314016649635932
-5.365146086749418,-5.361411147670382,-6.458921647105025,-4.045474908546238,6.611801172162085,0.1913084972220779,0.8221279281274279,-5.527648288655736,-5.855397758637652,-1.682570347998335,-7.836271033200659,-3.839955234445015,-19.025098154960126,-7.483973737820398
-5.528225401337126,-10.241728605765312,-3.5972955696947717,-4.696736975925097,3.398586579671738,-0.8679131370967849,1.3135989457597124,-4.752409839923105,-4.342622308583397,-1.5982981347335694,-9.655067156165424,-4.277929140950548,-29.38761543310867,-8.260045152184956
-4.146208984949498,-7.889299261416474,0.6841461280866197,-2.815958913631177,-2.064620071946467,-0.7630229722317259,0.3369882753928962,-2.3995439763226463,-0.4073006363345267,-1.4787301348253916,-7.749320652679261,-3.3650289999469942,-37.925924140101415,-7.037210677527578
0.9688676838679025,-2.306425753424993,4.617118534157635,0.3496265058768512,-3.030356017905806,-0.6864552035240231,0.2373274048816186,1.904708291733756,5.328985280550646,-1.288711799843575,-0.886805810751098,0.2828655747883609,-36.53010576649481,-0.9935302555555152
11.243568231285254,9.716694764339255,7.331424161494013,5.760524040482755,-0.5867969701647233,0.1738840649642288,0.303816972896394,6.973968475731712,13.680493701362227,3.731419524268277,12.808186759659938,6.356661455298871,-22.25686208718003,12.98952486505518
16.414728066171342,18.036754913240426,9.080082062734151,8.46270712800479,2.2813225049741157,1.3707787962640865,-0.0697043955449653,7.843372022158885,16.617128217903026,8.572091849376193,21.07900756091139,9.00674869484381,-0.1971049861635752,22.22999940298848
11.165131567486023,12.47465392682921,10.24689225043214,5.276462407455864,2.2599426687576023,0.9352013920508924,0.1254850952372337,5.031272263972628,13.599355543653042,7.865449511437014,16.536153191288,6.610778208003215,19.75685693870569,17.792750702932405
2.727564448793512,3.200204215059588,10.336095308285692,0.807784241004617,-5.226196220337623,0.128408944720884,0.0052102692058123,2.930409545955333,9.167043979317825,6.749110127192877,8.885435352924285,3.27304879033995,29.752950776154496,8.633413496827318
-10.841543314932345,-10.707779011954615,8.154015993757348,-6.041951070790154,-14.681027683663046,-0.9926496800488236,-0.0393148159909635,0.0729954064742659,1.2628985919543982,1.775681465669631,-2.866521785432661,-1.3783222475310395,28.961475134075084,-6.07055390755395
-18.46071187547648,-19.086879818731777,3.157120811381695,-9.720957381211951,-17.33353714187949,-2.023867644491201,0.2801660794071465,-1.3899711736323197,-2.104021102803626,-3.2446958554795438,-10.428493683752896,-3.7570731171434826,22.9642073311414,-15.353091355560354
-10.916460422072111,-10.921235909071893,-3.3174930566973515,-5.139188681714932,-10.665259396640767,-1.6406214568864537,0.0767302614589661,0.0668763578494923,-0.0329905045565489,-2.4799417724388144,-6.415771545699421,-1.5950730578086871,18.604715460137733,-9.609162930413506
-2.315054418020209,-1.4308327930019016,-8.288053769510373,-0.7138959306954552,2.952845630493681,-0.3216766584647801,-0.2668178705599591,-1.212055742706568,1.7288506272656516,-2.8936741309804543,-3.144485515952536,-0.8171084181380026,18.899330640525683,-3.117457049154332
8.725857711749471,8.758951997404044,-8.956950337394776,4.496515320471682,17.450553424873696,1.211729674471208,-0.675013431158973,-2.7868740240191574,5.257444688504025,-3.326192912054725,-1.4316875722336793,-1.0348110567097062,21.95237290581474,2.267129839121297
15.472978582357372,14.418753870089336,-4.800694651787335,7.736506047064582,21.260021359877666,1.7933239759191948,-0.7474099363212894,-2.433688014856776,6.026438505181119,-2.411167368555565,-0.2406488315876722,-1.0436953442945174,23.92298922586022,5.12029364760757
8.120236098419058,6.801116463068142,1.800417764195288,3.784664939004896,12.957997959862972,1.096280818939263,-0.0431665234261678,-2.9049011426239177,3.181913828475545,-3.1578802345025747,-2.8574460210867887,-2.1714706616543227,22.72059795037256,0.7413275392829061
0.7156396514629078,-0.1482451278215091,7.0281589547812295,0.8196323374321102,3.762134412793424,0.0364298063008037,0.4687771715183506,-2.5554162837120864,0.218588849136596,-2.7982559772958315,-4.461197129124559,-1.974895797445599,19.173264974965758,-2.5602913548401527
-6.515295114994731,-5.408896391102539,8.129379590880205,-1.629994321956208,-3.983168402510047,-0.8386487609264636,0.7329016432375239,-2.193153659070528,-4.166051835768284,-1.053694870157981,-2.976733917576853,-0.4602484660133061,15.364360263346704,-2.166461282256488
-10.773662454236932,-8.33287948334736,5.050300643966278,-3.554655235941796,-6.448133066811517,-1.0606052535380206,0.3669083434628838,-2.278900691027817,-3.324329849910033,-0.1016671401819734,-1.2514109773517577,0.4488061198691287,12.488071139826252,-1.2587047916187522
-5.355759774720061,-4.171887307997727,0.0518499190684202,-1.6608098500743125,-2.214337927070966,-0.7348593490044617,-0.4840783286075751,-0.7668941192706044,3.626953663402737,0.4539954066619376,0.6487367341573718,0.957520187163141,10.439230769532063,0.4674685826415172
-0.6534345005995854,-0.7973177007767054,-4.157055832293032,-0.7416610006323424,-0.9242511014956548,-0.505734229382379,-0.6559998239586622,1.1351969064084038,12.28552880745288,0.5247875344983728,2.0432575986900705,0.8893774218194883,9.01437464052633,1.5379754905124503
2.3681911472242385,1.2015944510442087,-6.130023476136628,-0.6478441878337968,-1.9888866457730376,-0.3274058151785394,-0.5864803240443006,3.476609428238807,24.50830391886418,0.4792573110359248,2.154870276748876,0.8276881235562881,8.816242778408885,0.5926868254080044
4.009674453704017,2.905463691577838,-6.014699517958213,-0.158555553104165,-1.6513754545750086,0.5592311930556968,0.1667856938521607,4.25128660351261,30.19857026771649,1.222800954059258,2.2397147617450623,1.0131356056963154,10.591078327701975,-0.1355141490533426
1.7420787398063653,2.591770435652107,-4.6784430224539015,-0.3263086523600264,-2.1212157334914994,1.872309039212015,1.288500060658868,2.4503558227548083,28.1808687324869,2.559171570356848,2.397264256242237,0.7863937907116241,13.83317364240906,-0.0557360488064307
1.6317436463815986,3.0040513834265234,-2.767387692679158,0.5203189040278461,-3.476942254082233,2.3773862147468665,1.1116176800597213,2.179146891302083,25.53699663836217,4.318380326481662,2.893988454518636,0.4967824818620012,16.529270288460726,-0.36788036576937
3.89747548491586,4.424430456871706,-0.556202214907259,2.1614951375792595,-5.498444427821743,2.239493002329524,0.9777023150492083,2.1836681448048103,19.576404792995948,5.571024273344736,3.3110466041378923,-1.0020561591388746,16.670279246030194,-0.4125425852467645
4.407615088104207,3.80344897816517,1.5810317672772705,2.4788407674689115,-7.768724383278301,0.7360824841413172,0.6019843093899266,2.098784220786142,15.041084410683649,4.407608749481563,2.3408407402171334,-2.519902252920142,14.071691860218152,-0.4625097174190317
2.8050928243748223,1.1850729471049166,2.8757352004004417,1.1317648256033226,-6.697321718868155,-1.1390569133557222,-0.3394335052778337,2.1836288382010625,12.818667026490116,1.232192231032598,0.2024292472107522,-2.2928767660761,10.524103326403868,-1.0643406090853826
-0.8484626015176961,-1.041013086185275,2.5179386497881886,-0.5678093034575403,0.3616192876221205,-0.5280711306785613,0.4344039107316351,-0.3289305500076538,10.757793472918443,-1.7404487501765822,-1.5131450173622023,-1.28859383589779,8.002798866240038,-0.8449150146469098
-6.43465550060426,-4.416910650474913,0.3495419501182084,-2.7871410874131697,10.758688542282488,0.7512295615871696,0.6737141379511226,-3.4928834023565574,10.350746160067894,-5.06887018689524,-3.6458505986823098,0.9135560185854954,6.752832095718677,-1.309509079523878
-7.983132019590135,-5.611413896693014,-2.7922948718609604,-3.521000425360437,16.023399528584953,1.6756125067622398,-0.1659736040277386,-5.221457954399554,9.444104548315128,-5.950216752580009,-4.533169936871317,2.6627868498796854,5.243402130538122,-1.947504489892836
-3.5778961770972333,-2.9427899465338543,-5.456310278781444,-1.4100937463251535,11.781769529439917,1.340364681490437,-0.7406108022427645,-5.253605345133131,8.104180102046437,-3.563822448867433,-2.7267230044209634,2.296921555667594,2.026933114370173,-0.4198300008040802
0.7939198630508265,-2.343496799340928,-6.436919499012099,0.7441902281213231,2.569154359280088,-2.74279717657838,-2.616363988293147,-3.330081223622013,3.675133311956049,-2.9405452650222186,-1.5089002506362266,1.6492670670676677,-2.473676831500377,2.3505448045797754
6.131432624126545,-0.69074592286658,-5.503786973560008,3.72033478421892,-7.499395928033675,-6.944155172853808,-3.4205305502339085,-1.2881961380525908,-4.614482043069341,-1.473911283596209,1.357980418948221,1.3895117860348816,-6.1634370041502216,8.264925859866992
8.141587067786416,1.3628158464020834,-3.5057407166349392,5.424126257886909,-10.588338838716396,-7.046945244123801,-1.6660203542879206,0.592876653891589,-9.523120089633144,0.7500763528233692,4.361496535180073,1.3439880659301429,-7.306532575523242,12.242971910845792
3.906774207728143,0.8911012120562635,-1.7978724627421343,3.5801134840001283,-4.255637312712992,-3.173924036643842,0.2656416773349435,2.2561181431019945,-11.487916912552205,1.463440903322282,4.136297099802859,1.5541233921508577,-6.330324749797832,9.067567638903348
1.2920810236376634,2.404626204034787,-1.3976642791371106,1.0399440891423366,1.9480033563390724,3.3897654706134435,2.666744991034798,1.7361496154420608,-13.225410086639464,3.5593226942921934,3.111449736802337,0.5903323718327471,-5.552032347320584,1.5885198888239629
-1.859361857651877,3.156159620755133,-2.4465724220246248,-2.96854136540728,4.4018257612181,9.434074120782943,4.316677857744396,1.83274290118395,-13.267058011572113,4.782762870167618,0.327248135864914,-2.245768907231104,-7.062786892537982,-10.890145055757806
-4.558243577946465,1.7131735989656949,-4.308642121710086,-5.755670127074648,1.7196296130788014,8.723424655564896,2.4224291171943904,1.6233890916168412,-15.891090741253018,2.7741057633393,-2.7946340926079065,-4.253309504684522,-10.827139404541777,-18.005664449824224
-3.5991096418197293,0.6710016283313203,-6.130076491061947,-4.524724431994242,-4.829730125484942,1.82955394891472,-0.6581423260044079,0.032243528486676,-21.48305182700475,-0.1433083939479853,-3.355129250650873,-3.892974668091431,-14.803431589807804,-12.68305241581661
-5.006366046629554,-1.2020679169508497,-7.34567243247079,-2.680902919413544,-7.388902166400472,-4.167695438922461,-1.980660145683659,1.8121288908967443,-24.151112254904078,-2.151504310146977,-3.03794093638332,-2.3566700634236577,-16.873679127956766,-4.377170774197677
-6.902581634347175,-2.8817661090925637,-7.76123081037149,0.0320484950385747,-5.549418028492712,-9.328186630319337,-3.0478664418047208,2.292262190212241,-24.64220325607084,-3.806093752914724,-3.349481802224045,0.210291884189901,-16.637579059239727,6.312050539996165
-5.681376674800318,-2.4202454238957323,-7.322662904861743,2.5563797826377046,-1.2441231088446345,-8.791745065121177,-1.767848284212816,0.9886938201493192,-23.56645774904414,-2.9304329212502447,-3.097103753005473,1.814476607701096,-15.375697750185177,11.690419178995883
-3.011071217155048,-0.7712686049834501,-5.977736838997363,2.60333208943964,3.273660161090856,-1.6998335705996193,1.884355348915895,0.6344962112872992,-19.776366957740223,-0.2453675711156463,-2.2325559501762706,0.976141088482458,-14.396460863555289,5.192896975298984
1.5993353495169988,0.6478104884794923,-3.835422001234484,1.7527174068649225,1.9740185069714444,1.144839566530499,1.2143480113740015,-2.448155449578528,-16.13920584917938,0.6367592589849067,-0.2866171796734244,0.3344089259990995,-13.594755610678696,0.1337093256684133
8.157874987287192,2.2447305197882184,-1.391943521519602,0.9645743811487076,-0.6430157648788029,3.8131794328769297,0.5484975649713433,-3.251649567878137,-12.501290043857834,2.9969793424809126,5.134657114600808,0.7011084226665995,-11.748833489112473,-2.3339249515300757
10.46482717303971,2.595059435997786,0.5441194204108109,-0.3056568732147466,-0.904509134316938,5.310501907495091,0.6085915659694331,-0.929312827375603,-10.455941241564242,4.050745262746151,8.228150738283858,1.0945753855322062,-8.220695953020797,-3.058332935739032
7.021311813964132,0.9080800582513616,1.2780988980898051,-1.2645571216212694,0.7132049653842158,2.3066638133407995,-1.6792277583255522,0.2658730674712184,-10.831671330005156,1.3068134566723877,5.495829976834429,1.5392493772265905,-4.217771013973518,1.0777473843087595
3.4431124048521573,-0.4679310201965026,0.6749355720704031,-0.6367965349516509,7.619085338193848,4.501445428815817,-0.1381083367842112,1.682797093517489,-12.621901446708886,-0.4269748240155657,1.5041494922159784,1.3250684017296848,-2.165939643148894,1.8031930441974144
-1.865454420016717,-2.3286262227778,-0.723061215136152,-0.685396404087081,13.299234969938263,6.032710841151056,0.2117703546201657,0.1729649436864396,-16.63578295805278,-5.320479528586681,-5.59996240213078,-0.3464568977486044,-3.648006858240796,-1.5888426746091229
-5.365796630899064,-3.39075049533646,-1.9436434090216248,-0.6939013672962664,11.095238313624522,3.6884089379111367,-1.3528684687842163,-3.000086237748125,-17.502642857024732,-8.859094204756751,-9.476665189762604,-1.624670511898764,-7.841818867387547,-3.895971136127038
-3.613371408709125,-2.230537206525866,-1.996777711284481,-0.312150509781282,3.2797608360562998,2.032528924684885,-0.3684524408536853,-2.6026873969655964,-14.88668476435812,-5.041846217465382,-4.829494876845098,-1.3583465535831445,-11.958519387555206,-4.407129522007448
-2.250824683281279,-0.4901543026579352,-0.2885585725029536,-0.9284331214493752,-5.6355519425013325,-3.034579987304695,-1.5872711869147942,-1.2661987820772362,-9.64976539110268,-1.6245309738062832,-1.052041627575574,-0.8723576250449654,-13.290603447994052,-2.1612004732674084
-0.5075781536568956,2.249697420718332,3.027074618225246,-0.0124233803785197,-12.745894739424282,-7.142013784293862,-0.6587014075525269,2.143285249519348,-0.2185639669708639,4.752472830086298,3.271216071276118,0.0593075810284951,-11.03849518354701,1.458164524658226
1.216213886059739,3.6705733104661538,6.901144427947159,0.8566478848966854,-12.221082130432556,-5.950434083919917,1.916445232869501,5.575515845592575,5.260534665298088,9.863904564500968,6.303229077971871,0.9421772201443912,-6.46418787093689,3.4985814725131807
0.3624898271160977,2.452590872847769,9.70563190032425,0.7563818533467187,-4.877469800178158,-3.319878475087898,1.6516030924025955,3.931199799813825,6.619820669039823,6.506812762252678,3.369473660340796,0.7505728507567321,-1.5873669895544928,3.51687339325836
-0.5536538212611976,1.105601309699135,10.073672597638945,2.098195464371173,-1.2368159654333029,-0.9278414249681411,3.136215116522306,0.9280892805813808,7.153295289902864,4.155699390813432,2.566220279514208,0.5778093863876261,2.1757025392006355,3.539914561959058
-0.7781956639212776,-0.7203350785767616,7.824612453524573,2.360811423884289,1.267531747848366,-0.2454008529302616,2.8296087987080325,-3.2080597227168512,4.889758486797521,0.7724214969501179,2.4057509232282217,0.7145111413903056,4.393037322315543,6.666941375819978
-0.8086182933773672,-1.6621866966897456,4.2383278923202425,1.7112204666084732,2.2131391902370923,-1.6075069695151083,0.4002121828129207,-6.197530080706908,4.562001915378112,-2.890776092448796,0.4497562144646015,0.5443810044039454,5.219117853059288,9.064909370317569
0.192892885569643,-0.4288307783554977,1.3105785424260858,1.7477231926611356,-0.1974483542030903,-2.1917814988870017,-0.3160193899306927,-4.425347857597752,6.449966690770284,-1.567256395947569,-0.3688050145191428,0.3463231026751611,5.045084673366404,6.902343930483497
1.152399154329967,-0.1159945675066699,0.4451249643040285,-0.6813187037664636,2.039245050302996,-0.1083894070327017,-2.093942160340837,-0.572756794351329,6.905703015533401,-1.5883078081407278,-1.4839509327758569,0.351467262250487,4.497034982612526,2.034087761007674
1.300355412834632,-0.2571737514947618,1.5660980671316125,-3.190564065591136,3.8751519142396895,4.253391744791929,-2.802024852127078,4.159248950210265,6.951368605502808,-2.1472190015559462,-2.0857482099479414,0.0787386683224137,4.323968954684887,-8.053711867963816
1.1400497154107667,-0.052681215805062,3.3322053077347107,-3.1760370898943857,1.9948764547472992,6.602845607321289,-1.6219946377375638,6.281081960907575,5.638445176159874,-1.324181429986319,-0.7412057058628858,-0.1649780684466701,4.831087393815068,-14.879502679045473
0.436244858377606,-0.5596647152529411,4.242068154025418,-2.44226494341009,0.350806778054002,4.546189937650161,-1.1308076007474035,3.8607530313373575,2.4410391064385397,-1.4738124341493266,0.4949936751883589,-0.2944473764029907,5.3539567068010285,-11.348267874706906
-0.2917728880461675,-0.3583731456149678,3.7314129762308426,-0.3543579257634596,-2.1681027279468497,0.9619746375965924,-0.3471399974287372,0.4541799246856025,-0.525862893797387,-1.0823637206699246,-0.8074395233467107,-1.0288239091944678,4.613587537037716,-6.19605732552259
-0.8127299526099241,0.2825194940539541,2.439519939837183,1.5954342155745431,-2.187429622720644,-3.4982032886705463,0.2142400545545365,-2.594993007972801,-3.563759918699903,-0.1410367481307329,-3.5936177640421985,-1.7387206937554038,1.9601498070109216,1.480157564773396
-0.8058752196004645,0.4718343516396032,1.5387282528437185,1.6278899430892904,1.3596787965819728,-4.975278211708424,0.3611238704437599,-2.93037134852971,-3.5638473024341724,0.2296678969574807,-4.927029866487361,-1.3587885621846056,-1.6465500974060632,7.347771976024105
0.1349183175640322,0.8899354919609955,1.7463742930160675,0.9916851356218892,3.509547047735132,-1.68106377311954,1.0054202146215367,0.2297606847017655,0.1914745318918382,0.8602003569831377,-2.708089599008159,0.0452340032914404,-4.09180906152902,5.236909367475785
0.8471050624483393,0.6947952010701447,2.819805755067861,0.2407654425224202,1.6478676180576792,0.0268848014372881,0.676936342898034,1.9560380736644931,3.087544853948185,1.3462847928437112,1.8746971171098987,1.5081432760727798,-3.797273276079849,3.6431082238072814
1.3635371774371403,0.0651270136841218,3.8821282665810974,0.1389152779746144,-3.848168756054724,0.3035945209739723,-0.5638673547941067,1.894297140919127,5.917523141764117,1.6249533254773567,6.713679260363758,2.7724711038266454,-1.1035855671980528,3.357914581887117
0.7660974328932829,-0.665478916811758,4.229183175606863,0.1027633078320857,-7.810769199335091,0.0269256672144056,-1.782113604956728,0.2785127356741839,5.952154970292411,0.9054688015888038,7.183961103232556,1.9963392465533525,1.9851385887829736,0.869524562039244
-1.3692689285102475,-1.7394697684751668,3.8829991854466286,-0.5842127613290258,-5.438618449578382,-1.2698914706214977,-2.074235464877198,-3.1229996197830245,2.1003899668309867,-1.362891411949659,1.6361468424512484,-0.98716426737021,3.4108235743771544,-1.5452128414859403
-2.706311230801574,-1.775523180359479,3.410160282957172,-0.8212638293469869,2.3815360317392646,0.6198480528576343,0.5104070990488734,-4.487430970478275,0.2252392319873221,-2.8703848716301645,-3.859441895695465,-2.9338145539465565,2.459047843748479,-3.9903101207268254
-3.921415661001684,-1.2198711232470365,3.2273002721310675,-1.5680872525830618,12.867038177688412,4.502061158494761,4.80163042361581,-5.392839089922598,-0.4217838279483209,-4.234192570914266,-8.617952166654016,-4.9821383401377535,-0.2179014148126228,-9.45029839666064
-3.498068187099371,-0.1233583943409857,3.135813812007044,-1.495254440197921,16.545357761341677,5.764020930946621,7.08663059511595,-5.183501864594438,-0.3197337058852388,-3.587892025964344,-8.859374524468908,-5.022375770727697,-3.5737713704636533,-10.649411256080615
-0.832067312681938,0.9726060438198628,2.614968243285368,0.0889175425484158,8.948612162784807,3.4027827316161106,5.086947518391038,-2.5310506851284984,1.650959804893956,-0.4739383157622992,-3.276888312419664,-2.051520257727792,-6.850926199510177,-5.234423377106063
0.4432555323759304,0.4150439114373409,1.5946142886936343,0.0829039468699948,-1.3662017527075885,-0.7330165754778105,-0.2924861885667704,-0.4190123018359321,3.028873661965061,0.2101261822571338,0.0800512540869599,-0.5326074343028698,-9.348131545840964,-2.1094829927822385
2.345058655709628,-0.40789897772221,0.8228965551533491,0.2559893072540077,-12.04492916477993,-5.333292390628036,-6.590384388561084,4.459732950019622,4.030259711843013,0.6876082490507186,3.437447813778559,2.2093258060710714,-9.969022146281064,3.765277937703874
3.390759816333175,-1.1813391257796515,1.2667054007586245,0.41266798562073,-15.525569923466636,-6.738363655043617,-9.022837905429263,8.363273068003009,6.184413957242136,1.0436506889201684,5.483835392033755,4.436484291234366,-7.586193092875597,8.5984085774837
2.1290842159550984,-1.041958316180397,3.015824043036055,-0.334764057332595,-8.11001265669802,-3.456285432034629,-5.4414303701214655,7.171992030700762,9.13257632205671,0.8834854042607647,4.114705629688704,3.879609210242212,-2.195521537881703,7.25330270074421
3.2749778441312367,1.9410790202343613,4.844871043605835,1.43976027457938,-2.7435845353932637,-0.4535914964838586,-0.1888397242859588,6.109612181542867,11.372592898982749,5.239387398437624,6.491799365140223,5.571068338615736,4.352155665726539,10.956705649221446
3.74879499994268,5.032041161300361,5.07582765337639,3.2425675618347496,0.3104233256469668,1.745967519955994,4.123756068946048,2.0602417681962097,12.984507246233312,10.366853199864854,9.071019227335196,6.494752964416345,9.11445330025024,14.85920765471055
2.359909752806933,5.646011359547821,3.068970021238133,3.145313897089213,1.2071866847026462,2.484785769927943,5.020147494017834,-2.615817888432121,11.779347422970774,10.61155876075253,7.586183509970677,4.571324233572248,9.94647714592602,12.385980069379112
1.2097810820052195,3.604385998041718,-0.1051926950900785,2.0548892420967557,-1.7357964607514602,0.9494742652947806,2.1311485923205917,-2.3111619953660782,7.1392399376527225,5.901547926356251,3.911410721843177,2.292115093408516,6.938408959651994,6.62051535692384
-2.117185453333376,-1.4622995439791215,-2.5819529157239955,-1.2816190232024691,0.2008197265567322,0.1205755647289385,-0.7306745412719422,-2.782999554089297,3.154191617561472,-2.6785599261601,-2.86427824612301,-2.553082322650384,2.1606968329748177,-4.624023166600181
-4.958931918761601,-6.57451567549532,-3.416964787422799,-4.343381879499796,5.349980464254688,-0.1497495098618896,-1.8306190766310624,-3.36991949313671,-0.7180406765109227,-12.231880451305896,-11.238858813586733,-8.442284130968304,-1.961434297667818,-19.818953881233213
-4.072074915553127,-7.063238619356371,-3.442027544018781,-4.10762064689162,7.240109057464703,-0.1693055298040541,-0.9140778791302996,-2.0113860932961365,-2.1291263379081244,-14.585565467390166,-13.456684781832507,-9.195137233402214,-4.142081048406666,-24.158741713478047
-1.5561976741715728,-3.379158942628408,-4.375732690764785,-1.514007732813708,5.8863357137585925,0.3713758046269364,0.8527592425415537,-2.068348559959774,-0.0268197215366471,-8.49411934337409,-8.650819634093734,-5.571092431596041,-4.4495983334305365,-14.540300551464863
0.3639575508499734,0.897209813991876,-7.003409797770556,1.4872720374590134,1.9703904652237083,0.6817650887880992,1.5982113821030035,-2.147178149499966,1.446668688281174,-2.434232155926478,-3.751185993471608,-2.0536713695813438,-3.482270386335779,-3.387015713118565
0.7024025000607151,4.187914159936593,-10.183175027074109,3.284035355189012,-2.3583223944999925,1.0628375634383915,0.9445745768861388,-0.5026497403089747,3.099421793525629,3.31418834891452,2.5786415096668804,2.222981763490053,-1.6453247439118297,11.551149306170451
-1.2017942199942118,3.692776338359344,-11.664498983271349,2.2005082042676243,-2.782374656081642,1.1878834402159044,-0.4128326714038945,0.5059895373654568,4.488465665712304,5.368725733192501,6.102801322077854,3.545282062003247,0.781907545106225,18.65393112843672
-2.953945197493719,0.0110791790997577,-9.98898990886975,-0.5032388271176779,0.1609212298255464,0.4709320053424977,-1.5006083640141017,0.5629676823022391,4.914618781282,1.82653811244498,3.336099254812118,0.5176460475285344,3.2198131079536623,9.701153236545377
-0.919020038515683,-1.1587379735924974,-5.760623160222825,-1.1312651278768164,0.8152918476537718,-0.2538184001630522,-0.9379285058483594,1.4592689412250135,6.038864575607482,0.9158644182032,2.2209326402906,0.5903960812842937,4.853981465102398,3.503132871680891
3.951810426387934,-0.1426475922844011,-1.2285135619266925,0.2870564785298344,-1.684059721477763,-1.1927160073899443,0.5307185796217593,1.7110140654994512,7.546217673305816,1.6621020730854623,1.2891514735800298,1.7278204152312346,5.304052108896302,-3.042269486442577
7.484767351097984,1.562409623601357,1.322950927692176,2.072955817905962,-4.186668770854003,-1.549920728670754,1.3440230525609809,1.2336509048858186,7.448497478692961,2.0168230279619253,-0.215723328759612,2.0897843221936068,5.078377413054572,-8.14893707967682
6.472314012442614,2.997010290530887,0.965841848210614,2.43627501871517,-4.348144979874825,-0.4714693650949225,1.2728477955781443,1.423927722716976,5.795545561692298,3.1079915626572734,1.0108763083714407,3.472034675093502,5.095258790089993,-3.672385497822317
0.5149104813550441,0.5115111505677192,-1.6408627037778665,-0.8630506183576523,-0.4723422059675995,0.3924278435670615,-0.2920543113821033,0.9758041876705384,2.724951308649385,2.064550024110399,1.5772283733935308,1.975065452965735,5.657626209931653,-2.664166864510826
-7.796524817817662,-4.052756710111879,-4.973301184996162,-6.2353802914467,6.404073822194677,1.3423417107849722,-2.2905429097065557,-0.3391074355985666,-2.293338823787962,-0.5237658688764879,1.0743820899827998,-0.7452023734624614,6.0597154983391945,-3.673161535372124
-11.597231162720837,-6.311240204187323,-7.50022217193767,-8.632227643802148,9.47499360827839,1.800454353656168,-2.854381665612675,-1.444899292823472,-5.0511419529828805,-1.9180491550374168,0.8737814811973054,-1.786546620736552,5.420741313818187,-1.7260446536000114
-7.490285364018328,-4.912567383601149,-8.20639816337183,-5.749080069239673,5.596104433995087,1.036464292074173,-1.6613286697470562,-1.9592329225201923,-5.376691642901437,-1.9881097684216524,-0.0284329078265913,-1.737949644272675,3.9114614893941,-0.9303867737928946
0.4416267992257064,0.2233249621607318,-6.8939389537196405,0.4396644872887561,0.445785691354476,0.7347446765831653,0.3299256379744865,-1.2016483340037754,-3.616748545992954,-0.7949443893426524,-0.9324638901325462,-0.142149512935292,2.913271885076369,1.7953068638416754
8.795178953295032,6.391919237642279,-4.38431832922106,7.749918964777541,-4.188224363697258,0.3226765584877661,2.1865585577073543,0.8921470632412452,1.447962374212913,0.9686934875316784,-0.9276805978816152,1.406413811238312,3.698533005292728,6.613942802127919
11.426320705973636,8.449680584144533,-2.317977912335671,10.459969251671536,-5.978694705895993,-0.6524976028129691,2.7409213380211326,2.579514147455761,2.967103459630444,1.6791552424872092,-0.5500977045282458,1.5642798105553175,5.912377424829703,6.594877111125252
5.993859213542608,5.107601746683914,-2.2261686228117483,6.308812441331762,-3.637171554249548,-1.714935572502472,1.4635992353735054,2.112685039584562,0.841505304863705,0.764326992640634,-0.5467616972599336,0.1503287715253803,7.566432200916008,1.806281106865144
-0.6038905544340007,-0.4257240843380835,-4.278412148528883,1.1535284926397202,-3.838754462461999,-3.3669728014353,-0.0120185254410225,-0.3785230568838535,-2.764516533512099,-1.3614276885655077,-1.315619254860925,-2.877041399367157,6.789727961421377,-2.390266689410102
-5.654772657287724,-5.4982534340347415,-6.811810140293439,-3.3014374611650217,-7.64171479315206,-5.117272610849732,-0.7923284756671368,-2.9381335885856155,-9.551791215103504,-3.22485318775742,-2.30407828243866,-5.192019956855644,3.687656311373353,-7.616684630957128
-6.346908016672409,-6.303036085871954,-7.376814400902624,-4.5182585545967,-9.10110675854531,-4.520105844472552,-0.7692354411691715,-3.157360281673132,-11.110955113645804,-3.14140496024766,-1.9649177097850496,-4.705505020834283,0.4033058556253017,-8.367037357709618
-1.7885717564523622,-2.070238641201368,-4.665608949032308,-1.3334995818048565,-5.8446945713024006,-1.778611903256039,-0.1467341097840844,-0.6973362098016049,-6.943420612497659,-1.08574851366419,-0.0206915904079929,-1.8845990578063172,-0.765170710125485,-2.337225536740136
1.462519274854888,1.8234974937548865,0.329413654991022,0.7223042243550167,0.6147021226146446,1.041925640099472,0.2478019864955629,2.2953871283225413,-3.885062642594462,1.5928511173607969,2.08207122179432,2.0889631144483527,0.6445818232672416,0.2189399086799571
2.4637929876751903,3.625401805584392,5.039235235188393,0.7601564373341558,10.753370507393656,4.482818013761213,-0.3591915248367324,3.318283988162478,-0.0725789084580462,3.5284398977300078,3.285779638821974,5.241575672359794,3.0995828019151226,2.9018171948509344
1.5575379704707963,2.180960362576943,7.323788703793383,-0.4245569780924796,15.643592484528543,5.336139584941128,-1.233313570440884,1.1013017672326546,-0.4893135808968704,2.780810393138796,1.623249740863315,4.52517347415513,4.7738576124121295,4.457189785688113
-1.461348104915551,-2.2513035612076147,6.967674831648971,-2.5479265453123072,10.538232099350983,3.2106205375786354,-1.0947315669561926,-2.123495493172508,-6.481644221150309,-0.0771262997930039,-1.6819989044793535,1.2305461345056772,5.229437406250547,1.5826298853915923
-2.7155901632142667,-4.372223099750278,5.41603941698558,-2.9788618242413323,5.477596490928077,3.2291206689636622,-0.0856404955724265,-2.587847007233486,-8.72527695711387,-1.826771396305077,-2.198198372983632,-0.4116478988825097,5.315749783985336,4.1117501890728025
-2.9018538560279628,-4.398818842074323,4.209024653741679,-1.8371173563431904,-0.8839134720158961,3.138682326824195,2.1001265596871144,-0.4222895144737564,-8.34162112461008,-2.595995654855177,-1.173232516272901,-0.692310486611027,5.552652223474208,7.143391674392275
-2.6235842771115605,-2.74742268790698,3.7044014258556857,-0.2565415346850512,-5.387461678759125,2.3807827808465847,3.7580723646284895,2.9337515540987105,-6.727027209336732,-1.555861907365095,1.1045276240018127,0.6245608093629436,5.011155963726875,6.226971774171254
-1.245383267971499,-0.0754779959904744,3.19047023799423,1.158194139410096,-3.0895314823855253,2.2570788123952545,3.1331451098146696,4.89650796336779,-2.109074111491811,0.9077202976622768,3.50582528378601,2.5485340277276007,2.2258822860895187,4.251304769140387
-0.7120413209586727,-0.2060503269248627,2.021302326324946,0.976268487693862,-2.5662855077101017,-1.4336584186911858,0.8822251183440355,1.8996878824113776,-0.8077416279626953,0.3336923843908588,0.6216705638436818,0.2429576694036648,-2.628714837985189,-2.8102054989821927
0.6590320079286205,-0.0340181623171532,0.4894337458228079,0.7940711221451464,-1.7704164700186629,-5.819595206727343,-2.806927125779678,-2.3435965236439493,-2.9062744768166904,-1.266018669395489,-2.883087909610772,-3.635426365787324,-6.761853855063436,-10.419863396849795
2.9228478927202435,1.9923922252063333,-0.4137373244051758,0.987652358773039,1.0998012396199153,-6.158959205703606,-5.380095815077128,-4.7471602428766815,-2.494307650791212,-1.874232671986012,-3.6132658531504775,-5.0659990944729065,-6.572967311599253,-10.678560865103098
4.382971467032773,4.751699466415201,-0.0156754439949544,0.942532499027488,0.7889114584257401,-4.182980720832116,-4.832061596073562,-5.002476621542787,-0.7036664785262269,-1.5383464176634951,-2.6266690574021005,-3.9336632761898582,-1.006581205561453,-5.423575372469127
5.946991369048781,9.293482122656108,1.2916258575950454,2.055703014697489,-2.008268153072451,-1.3904290469551632,-2.534519577802586,-1.3603676616758944,3.1550023063667685,2.422188640934615,2.4156227938172616,0.5868474603221518,6.731055120972442,0.7807705277440512
6.204258761552106,11.672790482078312,2.289367148201688,1.7432889922495702,-7.411012648533388,0.7884137985953681,0.8714250899179581,0.9079719801224152,10.162557213659612,7.075887283237446,5.632585237179557,5.341086152477612,11.17401388019994,5.40245680911635
3.2791303339711244,7.6314969187577155,1.9221834758511316,-0.250623688224865,-12.139719535880385,0.2210453584334977,3.424219149230933,0.5196034299971644,11.656295679169666,7.449722695941958,3.434680177422096,5.760663867073193,8.98412764064898,4.107783699776786
-0.5817531087924798,0.6459884388524498,0.1724227011786094,-1.3732444320158237,-9.856818779811102,-1.5594862436702492,2.836946536517512,-0.2552632732067152,7.502463925433507,3.2260159748209345,-0.910966216817998,2.114652654179324,1.8843507921881724,-1.400188735240241
-3.0946161234501006,-4.752427671951224,-1.8935795362204344,-2.5397027785104784,-0.4594577972954934,-0.5966082456739801,0.466231309666685,-2.3520654121100426,3.1079868081592297,-2.6044776377201853,-4.5931375129265,-1.807003594858355,-4.694534637865788,-2.4534761065130923
-5.244395822875106,-8.638865164647278,-2.9070765706099007,-1.8988509071815367,12.616738908492756,2.6865883198572966,-1.975027364341988,-1.0572742765031595,-3.4290850818631933,-8.125863422269415,-4.187752980603398,-4.219611329313847,-6.260434334954958,0.1902223920480301
-4.084068454736715,-6.961075315829899,-2.166471781497995,1.109231899380676,18.70556450862825,4.92909857171929,-3.0548344009600856,2.2578037048723374,-5.695342804914394,-8.695755154730332,0.0719707774517557,-3.6056209962405217,-3.08129765685846,3.5655509063985784
-0.9257361198419538,-2.8168707056401523,-0.0627824478871499,2.8809811696310863,12.092294941327092,4.750742513270302,-1.0001389446494084,3.748738006433265,-2.603626369188833,-3.216727237790981,4.064612166161851,-0.1950453609868934,0.3082826699870278,5.744131992319136
-2.626788174064237,-6.307866743291856,2.313582871422176,2.3409784496479,0.9594645956688564,2.1027875640360483,3.346762711245808,5.738682422518942,-1.99105431255734,1.2423540258319026,3.963799554703905,1.7300613518559762,-0.5244092732806891,1.9652389985756364
-4.741895998836575,-11.24626824762661,4.034755582698716,0.1710488158840498,-9.73100375247182,-1.8562195510291024,7.145409297631804,4.893417693022795,-2.331288367556263,4.9224152662611225,0.4203957125131192,2.1023085613436328,-5.698852278869879,-3.889881865191916
-5.634801172595221,-12.649998703306997,4.975791080899121,-3.008438681373613,-12.053716223012264,-3.628264205681657,7.2762489991705,1.1830654070413344,-3.44203544425581,5.604535118739373,-3.683081039022461,1.308677886236938,-10.865180034355376,-6.31266046455514
