AF3,F7,F3,FC5,T7,P7,O1,O2,P8,T8,FC6,F4,F8,AF4
-12.828397885562618,-7.096898041387027,-6.311079828545865,-1.748386054871686,10.03736553790516,10.018177741491126,-0.5168278213508649,-5.041552631239464,-4.418014913781696,-6.573284099016125,-0.4659090533453213,-5.124794431060259,-3.021710126021265,-6.663499403796194
-11.67605753090794,-6.940976010904031,-2.282223177618116,0.213999836715766,4.987610529434081,10.3768630389494,1.6647465417556422,-0.4209755955659656,0.73936923275903,-0.2549025858640075,0.4016290349469333,-0.4988769648409442,-1.6855243543122225,-3.917459675300341
-9.997532578357252,-6.203403067421874,2.982880119951812,3.1855064813844445,-2.944002809565566,10.166200357463971,3.1247377815818598,4.974441194274173,5.882172384780802,5.970821904486807,1.3341809006414391,4.508507603704329,-1.381630534416581,-2.6432043529110043
-7.653259986467034,-4.368132175409144,5.748573356979093,3.759728896452981,-9.108166453745826,10.47341992032888,2.2077282215954206,7.369514623936769,7.064160502185664,7.069626834875935,0.3610343049419945,5.232936981070727,-0.5780586192803315,-2.605000198482342
-4.589358794044927,-2.3421744866805625,2.96253924492697,1.8533792371634676,-6.301094354798743,11.772527620255858,0.4841520221381776,5.05699872402146,4.048005463515591,2.2534950601344086,-0.6557594661812951,1.8330223477786127,-0.3872771080732693,-3.701829722096678
-1.1086389317653411,-1.6390011216655012,0.8592044789958386,-0.8070404154410693,-3.214946173767624,13.671604416545534,-1.5646487774067197,-0.1621058026868022,-1.1133903713064215,-1.0475849193295084,-0.9051779947528704,-0.788180379734117,1.233887664431596,0.1374491139174939
2.1712549759994886,-2.730072938257365,-1.0468702247596342,-3.2160116381693857,0.1729818869228043,15.344373081540285,-2.7707949421665994,-4.171597943122534,-4.801449267201442,-1.981866566526377,-0.0036511456494075,-2.341538565094356,4.25828212066213,8.026410595828079
4.581805421538462,-4.20980308346671,-2.5315356288804782,-3.984821059894236,3.1359746435718083,16.34799555765332,-2.4751044279183225,-4.283267328405988,-4.21137659116494,-0.5350686022473627,1.397522964226542,-2.156393583610994,4.714606895890582,11.60399389273032
5.6931750686459,-3.738951855488864,-0.6920930358458222,-1.897698780724809,1.2602270517726857,17.074340468373236,-1.0058940374315737,-1.8646720567220647,-1.2572034098649678,2.7152000871779167,1.5883903818378435,0.1842207591721535,2.364939748631356,9.115142551047374
5.462618256935571,-0.0699720001804848,0.9689617214975876,0.4894922920975824,-0.6184002045360805,18.30341952356673,0.4329990323423912,0.2023401559392239,0.7392491978447425,2.3890708397044427,-0.3291940520366859,1.106047331367993,-0.0114298499120435,3.516203211844965
4.170612638245416,5.598699368789255,2.3503263304448896,2.6776189389108493,-0.444944228611692,20.239795828192825,1.6322967698906197,-1.245691575055449,0.0444060319234626,-0.2130693583877297,-3.619022268879416,1.331278986563022,-3.235377931473148,-4.261619656766168
2.2139209808093483,10.173880734387012,3.508136096074161,4.083129683914466,-0.087880485243285,22.10235958331253,2.1698712293986504,-4.2791834859958815,-2.351867494709044,-2.129499296457937,-5.126781557068978,1.4429702873847772,-3.702805884605232,-7.333452511667706
-0.0459535983484897,10.785638595796058,2.302452139861772,3.244377752772134,0.5815397834434487,22.88210445082973,1.6700326523118905,-4.862634116892199,-3.5367202746908504,-2.5591414492370115,-3.045211742571615,0.6047551806379966,0.1144132284532082,-3.0527459656087568
-2.2210621381970554,6.890142421777796,-0.0889552067532278,0.8610810867353986,1.0773885599165427,22.568436056364988,0.4852589997666786,-2.0687623567125746,-1.4425057768073133,0.476365065966554,0.0074666072329331,-0.3851609631334634,1.6517923071849767,-0.2672511913006669
-3.708133622660284,0.8110226880668847,-3.313994327256502,-2.5574453971809072,-0.3383077093730989,22.404028312618838,-1.0640653101596045,4.981495200273104,3.4278052205275493,4.031223874304801,2.5024519151701377,-2.562970741267618,2.850786986405,0.661556989178979
-3.689846979045512,-3.680225080443279,-5.329637016892019,-5.065125413224807,-1.3550265251861549,23.582286762200283,-1.8001671412632183,9.918169532316664,6.466276451714176,3.9099104371903457,2.980820192163846,-3.839079048389212,2.103783401583604,0.4738482072535681
-1.5570271174220809,-3.804114088596066,-3.933177502099337,-4.876538506785402,-0.1004671955350919,25.556966946063767,-1.4307972315802566,7.61886280102539,4.865280727230684,0.1105797017900735,1.2050234236476638,-2.1633834421660945,-2.747673104871472,-2.387515579675534
2.426146799887306,0.3829691012527974,-0.7557465202791886,-2.2541114893891443,1.069986286652438,25.89765141572002,-0.4754347808685454,2.1836322622596835,0.6046216291143524,-5.754332006307203,1.4736432368749313,0.986360669496216,-4.08083527581214,-2.568659656270814
6.77811909240063,6.013353125846948,3.8229895426730094,1.644316217589861,2.6902334690477,22.321985791855354,0.5975454267233045,-5.537875174247333,-4.593954108850283,-11.06220888389518,5.080273949224473,6.736883535892232,-5.381915201476707,-0.0295833697866996
9.290873702949623,9.392384169199431,6.55978283508238,4.3127704757117495,3.012545118018952,15.244719275768375,0.969484866227702,-9.834689426272536,-6.51644152123373,-10.333609689238411,7.818142824708852,9.7956028964329,-5.174283660573972,1.6802877164020944
8.30664703065645,8.649569317999408,4.606892102124804,3.5515063187132965,0.8072665231184588,8.255423762345572,0.3236858284686351,-6.373775041029796,-3.5642101180767143,-3.657607343512176,6.252815321372114,5.633855164273134,-0.5522006068401968,2.052489786782341
4.029215290289812,5.10789654592395,0.6793162025951082,0.0424587397127282,-0.0829278537853172,5.58915502501668,-0.1473376784411621,-1.5669205311530132,-0.0938442745660298,2.409097870794469,0.4418622650015307,0.3232086240905744,0.1914468607009021,0.807640338345875
-1.1577649062762705,2.186285787131282,-4.219654791535673,-3.5364967112894616,-0.4317052791088012,8.548602506100224,0.1994821321919348,2.825804382276682,2.088692812039953,8.07572027827677,-9.662928485065192,-7.199137086935956,2.7364122354147358,-1.4628136096823303
-3.8948993555304696,2.541503332927391,-6.860386178889982,-4.674209317033375,-0.5607199492653577,14.148298953593551,0.5551165965953768,5.153822673748942,2.257682537603874,9.273874586097678,-15.495616206908366,-11.784744304373522,5.193086931118596,-2.935433599650632
-2.0201455725925825,5.752814385456759,-4.513979280359306,-2.039334592547111,-0.4335704099076581,17.46510857549879,0.6455639808357125,3.4846133724809505,0.959011369061057,4.904314339161891,-10.699227040494568,-7.32000150325079,2.76828274708355,-2.164331734248432
3.755275103623944,8.622707765542714,-0.6808994767950607,2.9989844881073946,-3.4012819696013192,15.758456250948145,-0.0759572522962597,2.196341325949948,1.5142889660013938,4.506792399416124,-2.205852643859349,-2.6979484304439736,4.680298248704881,0.3292571674337402
10.041612460384044,7.998078398355915,2.7366579564446654,6.810727105327627,-7.562305274016714,10.638449428748174,-2.58450315287993,3.27763194653036,4.745165634576607,4.785213098834512,8.413181297380833,2.384717087648405,4.000994996232291,3.010883987391253
12.937392736483275,3.6875239774555553,3.717595372551477,6.266506935962508,-8.387017005852522,6.297369687368985,-4.533571570076127,3.5952582639960715,6.597042060418816,3.5135021930472607,13.287822745031464,5.65644896717277,0.0877771417873942,4.197442704852133
10.700154787875816,-1.2172063592452105,1.0612436374287322,1.9231608086319087,-4.996694988481852,5.545679791154043,-3.6559656978643655,2.408390414019167,4.789591450261801,2.685763058456334,6.709145583585562,2.732248130942523,-0.7637198350563659,2.710438481636982
4.923966400637482,-3.034434713063547,-1.6126492668696044,-3.2487742031285376,1.382344359875164,7.46387300092556,-1.5990146023474854,-0.1447623221314834,0.115892372900629,-2.886653252450646,-0.7505982035047516,0.3181219556399421,-4.745872356899469,-1.1208526172465827
-0.6706922510777531,-0.7974172080415656,-2.3860721486921235,-7.087690627873803,9.050150941617902,8.782294027580974,2.2648783560967174,-5.8621383734187305,-7.25608010475152,-9.56816343965328,-7.137343537101825,-1.131203426851494,-6.593806525421146,-5.49433690323717
-2.853160309440341,2.904566411374276,-0.7980922715668781,-5.903334885197135,11.53398312272119,7.31357876769539,5.895831019198107,-8.272563962968594,-10.519993094038329,-10.036500441188055,-8.417025990264541,-1.2603402781808204,-3.006306303818428,-6.519878859084929
-0.8923618643085547,4.375039513736283,2.4681254643306043,-0.724050157747264,7.062515339126306,3.779735856844013,5.652151218802576,-4.741641202685306,-6.798996598635878,-5.770154758065574,-1.5260791110845275,1.3518124014033734,0.4836519780784123,-2.7855681492904845
3.3933609662198023,2.2800833431210776,4.323552544339061,2.8018077729140543,2.2732174282504216,0.2600790035643285,3.794515632493222,-1.83448944398071,-2.5630188270952035,-0.6208718596770677,3.697980414034102,2.958609438564023,4.322345060301216,3.209420538267174
7.240089499966416,-1.1110254632276335,4.467032037223918,6.055120651502996,-2.71220350128926,-2.7807924784466422,1.4462275599449956,2.826505807292557,2.447181503145052,4.241592203178077,7.254576382050951,3.903772747958785,6.915247495779827,10.347826525740524
8.7498896231466,-2.0702960968401385,2.546286515283984,6.192840363440674,-4.971663787651185,-7.368072286355755,-1.2233288011070147,5.10281251885229,4.75770626283623,4.361987855990064,7.543503055566687,3.605559609874753,4.764669440414483,12.41392005272105
7.663075988540527,1.064195756396657,-0.4955751584359206,1.8399589064457136,-2.131563387560359,-15.606031569681363,-2.310417399205111,1.1364582345008452,1.5524297478648483,0.1324150638463172,2.213229095616532,0.9515621575435458,0.8316746494870386,6.5820327895140975
4.924353272434587,6.225397648358694,-1.288117849778848,0.3046726557586918,-1.0345581218089972,-26.50366802970916,-1.1323067950407046,0.7846137386963978,0.4173637737125802,-0.6637442738111946,-0.8031319854289396,-0.6002580814708911,-1.3404565045156172,-0.33759275796818
1.7494401357603238,9.28610973156526,-2.0648097841549253,-2.468382205563717,-0.935705238903134,-35.61058719343589,-1.1249066529463032,0.5654948501094896,0.1440053835157746,0.4690690607718299,-4.144161960447796,-2.928567056030172,-3.3623762964965564,-8.348660359271951
-1.0196374059522668,7.513645726576442,-2.2320124432327884,-5.266993476503815,-0.2189925543797025,-38.23270935116739,-1.6879471306890723,-0.8663951888108323,-0.5169586990473355,1.7748480020983022,-6.522459668207098,-4.695566259413289,-3.3458082274134897,-11.888411319092612
-2.973602159413929,1.797772470471557,-1.1079692097511011,-3.616878012231487,-0.9913366611364828,-33.28549089554019,-1.1753909413185877,0.8473417276558961,1.105391493249603,3.505872257017699,-3.935718360136746,-3.0179913140674093,-1.5984656703452564,-7.052274237410051
-3.832743081673016,-4.115798994957629,-2.9243451463059618,-4.122966804272664,-1.034366782933506,-24.136445476981866,-2.581667411318416,-0.3888105800988591,1.7614315489016668,1.4476610798590892,-3.199070601824407,-2.2681981380640748,-3.1529040497101306,-3.472910799493886
-3.228328398258327,-6.543915312181468,-4.015370087847526,-3.2495027525403537,-0.2595740995973983,-15.759006163037329,-1.7528573442021451,-1.1149615583131125,2.596820902244266,-1.7078668935037116,-1.1468741701912175,-0.6017592621945134,-4.893403766713582,-0.2728128983504392
-0.8877832956379734,-4.470410143234062,-3.022315048739518,-0.3560857754297215,-0.2946338617265716,-11.009638290791258,1.04560509390349,1.058384730375584,3.879710115581263,-2.6798369631209877,1.8840955785610392,1.3362916534092533,-4.785289442727772,2.230014403845513
2.8502097895845395,0.0770881899765072,-1.92655847025213,-0.1223339508169864,-0.3148350672150801,-9.329640922036674,2.223106119262846,2.0546427851992792,2.733183060549801,-2.218543569772278,1.3607362998985506,0.6826920367742619,-3.646179653637488,1.0058794824228177
6.68520577281538,3.8512462807252064,2.207851844807625,1.6418525447048218,0.5523245943311295,-8.463165846348005,3.328808803584108,2.6390285793906703,0.2230093714869679,0.1308531994361483,2.021589391457425,1.3988889622592062,0.967008469466662,2.269622984236541
8.720685004247457,4.784085447278102,6.531135041613585,3.775673965982507,1.2731513605370854,-6.9163397623729,1.97124151199616,0.83116941270002,-4.082780598268181,1.5445365210186623,2.549055660620949,2.9397818944199128,6.217002986207002,5.319428602032876
7.570345936012302,3.18661974243534,6.868774967987466,3.896090468848004,1.177114948820092,-4.729626325414841,-0.9555474122072511,-2.6856567961251017,-6.928162630797063,0.9691310221036052,1.7921096958987148,3.351131658667565,7.595326942322877,5.058512938119953
3.4569998766308743,1.089634055181392,4.255750233717025,3.7948026114409457,0.7790420444801506,-2.423430992585878,-2.265719813540386,-4.281181475394297,-5.081631166654233,0.0565579327980373,1.9881435192966463,2.724459559284912,5.702165589233267,2.1613902788308774
-1.681557089125647,0.4349918518590243,-0.3709941345047789,2.463293445405597,0.1455382250643506,0.0624733264748158,-2.512392517176914,-3.794523080665142,-1.8780055595756335,-1.263168628608736,0.9161236640609765,-0.4752398647164962,2.735855389292867,-1.7175571217361345
-5.363747882483153,1.5244968756292536,-6.023173286596863,-0.0381893547553243,-0.1973627059999263,3.035027082403545,-1.6657232923735377,-1.4140121376188166,2.5742962088070054,-0.6313072404990063,-1.5867580505149188,-5.989941667898146,0.4937242882652685,-7.310027963383923
-6.178723697911664,2.832147778784268,-8.002066993355344,-1.772659176170671,0.256549542991365,5.937496737556714,-0.2043888241200003,1.4681626122089309,5.1881897308278,1.1902119324395972,-3.303125019007509,-8.726497954367247,0.0881853239633186,-8.55092696089621
-4.558097785120701,2.2812662389926075,-4.852449750213687,-2.1599124456722536,0.7306947435180342,7.188362692899041,-0.0408960804366397,2.2143912023527133,3.2393719492023387,1.8085912167811384,-3.477960627762764,-6.040643447065182,0.6215137367196163,-3.587148870932984
-2.141621421920327,-0.971807127682442,-0.503840031213244,-1.2919475695277312,0.4264287996965884,5.589884548422988,0.0730256782221548,1.4320071751150598,0.9633653321308135,1.7364476761932848,-1.254650484299608,-0.3362181109854957,-0.2404806471269692,-0.2979094432086778
-0.4136951063618692,-5.628233981985712,4.873421147138124,-0.2861133096905452,-0.1349029890833921,1.9232547554161223,1.3843048483448128,1.5473558632887705,-1.1490161211321133,-0.1412361818226701,2.8002186024962605,7.414845643788866,-3.690249000076887,4.056654732022358
0.1558948290627597,-9.01910104893965,7.70896871995915,0.4022886433492113,-0.4598624317541714,-1.1812908555128343,2.017942680166859,1.3897994667054867,-2.336054999165547,-2.1568984347022657,5.267239613050486,11.059113501329886,-5.760664658510813,6.790512383792035
-0.128315405035913,-9.093029617679376,4.759996722659791,0.3446125605611057,-0.5587584053520845,-1.3260912695108544,2.091675457330122,0.8102139368450149,-1.177238487788471,-2.1258801224313237,3.99216933997976,7.038635067534711,-4.286131468120715,4.135628541933462
-0.9914749705785084,-6.089648619846628,0.5228185803709522,-1.4714752434089606,-0.4826308475858573,1.5316972113023866,1.8960841959035104,0.9388686578830452,-0.176855778098631,-1.4628806647974824,-0.2734556163349572,1.2455306855435748,-2.0093019460159955,4.320902922351261
-2.551369827230218,-2.4549941587312247,-4.188703466079245,-2.7656164467986097,-1.0516518784654745,5.063832424637539,-0.2566801148151614,-1.899385789403385,0.0494278151412125,-0.1647763519276026,-5.287051108032956,-5.211919341130609,2.252639470408837,3.786806604355671
-4.856367444566146,-0.9188090279747884,-6.728486218532008,-2.8446963681409376,-1.6308766630617746,6.7706830963035,-2.2579818753843903,-4.6442632421172245,0.1979642023721195,1.0404570243873223,-7.02562251921123,-8.23363147553132,4.62004407030799,0.7940318605281216
-7.22521831011008,-2.2646162331734274,-3.870484791480977,-1.9563975638843136,-0.9639158542202584,6.264900908394864,-1.935518819261336,-3.5130209556330443,-0.3361048934087242,0.7438878108649489,-3.836965810045085,-4.431006882593401,2.121315465805786,-0.5065426079580817
-8.329167635026607,-4.737302341956422,-0.241178469243508,0.6133261467635298,0.4562242933052393,5.404356832240836,-1.3918465654849714,-2.05676834782651,-0.3184438901814906,0.8182310162458903,1.1420230059771277,-0.0598760098116339,1.1880178974899138,-3.0341125999884064
-7.205344465637836,-5.688763820811687,2.7788318918000177,2.8646687033597207,3.245919455129541,6.209737196368337,0.5241311021160606,2.663596625921657,0.817375683319886,1.492062735209708,5.381800793500757,4.082111807421944,0.5233430862842178,-4.961365832982191
-4.313168211362324,-4.031258591091103,4.435666191007567,3.758968871459907,4.711718779478066,8.713485531883208,2.999387157202387,7.051681166098305,1.3389272895138524,1.0234023162869743,6.083038196042131,6.012525835289125,-0.5425040168268221,-3.475943434505285
-1.4788363395601891,-1.2316580872536065,2.784462731714032,3.2163915881902683,2.3701943350208925,10.88503754494468,2.4737321943969084,5.261537687193092,1.248521989714809,0.0613489031057012,2.666157444954503,2.6268018932113764,0.2065047515805947,-1.41611893211675
-0.5127188047258073,0.1394473554995841,0.8241830742891187,0.9681526667906616,-1.1485819554106529,10.620747225693949,0.2515905495346106,2.185242124303298,0.8126270297915112,-0.871152684233729,-0.8754541639377297,-1.6932628761638742,-1.3467324859572258,-0.9621301244010536
-1.6192240787468677,-1.019696110589024,-0.108329568534418,-1.3941894493809046,-6.398215395868587,7.727611737071498,-2.9438823704702486,-3.1548978462747224,-0.8517412204284248,-2.6525440721555125,-3.615945781756701,-6.182923446961341,-4.116185770311554,-1.1384012482550598
-3.116066934445428,-3.109049612853113,-1.0261665715144426,-2.9804194867859137,-8.921638281435014,3.936793836628027,-5.1743440771429245,-7.326110151614361,-2.143325745915861,-2.9842942063989546,-4.543842598543048,-8.244987587324356,-4.309299256334106,-1.922587880887572
-2.9012152655696184,-3.189226446426318,-1.5656533902862668,-3.502057863638121,-5.233989929111977,1.0422396802108835,-3.5008364281882223,-4.7279414527717005,-1.7037386447320382,-1.2605555768475023,-2.864636249783923,-4.790316599587088,-2.4523072073723804,-2.242434781007097
-0.4539853581436261,0.2588599304084766,-0.5434731842622292,-1.149941776768083,-0.199518709473756,-0.880966664150435,0.4553741291511493,-1.0645770761693074,-0.7627948660788617,-0.0805136733042605,-0.7039757283318583,0.1842289130926909,0.6044928933316382,0.3407797992053204
2.4854589072826343,5.7224697723007125,0.3014609957308799,1.5155802939580654,7.031343043762623,-3.3909422011339245,4.404201138296773,3.0197705683913325,1.4648458007264906,2.768988477144431,2.290363999001526,5.90983498101005,4.249818658459862,3.497129518016872
3.3092772238289285,9.683769564519167,0.7272578377577192,2.931931928093821,10.892396029144717,-7.854654429103874,5.329199378935257,5.520309392946615,3.584025563933063,5.106273634695024,4.8761980289616265,8.753843497796572,5.053381783477541,4.730323862500122
0.8582735360752736,9.365032983709398,1.286765122029124,3.622298901841657,6.765626211299139,-13.709826842385011,2.3062405527691534,2.719523084680597,2.881518356750669,3.7651991897247634,4.639192330600672,5.626044706273508,2.460040494785779,4.07970202158553
-3.4028585520727006,4.808740167861657,-0.6517911516303105,1.4706073966046782,1.8853928344820488,-18.506148649392543,-1.0283586473214017,-0.3436181052185923,0.5215062237974974,1.6503860742033103,2.105031972976445,1.7636153566913615,0.4912373112081859,1.7755360779723028
-6.440340067489302,-1.3398921661781742,-2.6433142641932528,0.2592495957333807,-4.863214100017144,-19.705977255951808,-2.996857948035492,-2.44173914590554,-3.1509302319964263,-3.576856224818102,-2.106680979645569,-2.08398332183695,-0.9517801173591328,-0.2276491432051394
-6.0509851199936975,-5.910261837115314,-2.695400850293146,0.6977251723305781,-8.963809640304463,-16.626551792324392,-2.448677240577005,-3.2025162387028905,-5.571680374715323,-8.157495563650007,-5.361594154833463,-3.9697915628742297,-1.140126802500275,-0.6710004204890869
-2.561986240882902,-7.306688732252212,-1.4625912437736488,0.940682789680246,-4.755240627860962,-10.872868360103098,-0.1000590876785235,-1.2936624533300076,-3.5927751363117277,-5.9083495830020585,-4.298431263601488,-1.7237038274964638,0.5571138562505007,0.0144672220663482
1.5457203600837488,-6.135211430783414,1.518172627836235,2.430125575740646,-0.9018394986286742,-5.037407672859359,0.9025007638015552,0.2219933770362396,0.0481680592061819,-1.6124854395994914,-0.2834517265478385,0.0954181485748634,0.0058940948675453,0.630639510332195
3.658215145964107,-4.2878237302522,3.805733208742653,1.5189325862779994,3.307429867980875,-0.9278727452874308,0.9232446747356152,0.5544050460610925,4.109649714790466,5.346953851230504,4.002797143034735,0.6195965552137329,-1.7777477872216798,-0.2258434761782499
2.9486851466632373,-3.4838000710781216,3.4722528850979906,-1.2242886491749214,6.233137996615668,1.2079488063239552,0.4431244247172093,0.5194344970245854,6.014451858953525,10.5042465772386,5.862820320179562,0.3777273026094884,-2.303008141174669,-1.3846524600608126
0.6998360050868513,-4.263204680282826,1.1248123374497063,-3.365959057121874,2.7012601821288973,2.103327735940397,-0.1966131893516319,0.3873693001653232,3.1534713920686794,6.865536870569441,3.117824275102521,-1.0910096048213775,-1.932667823541784,-2.036808231588064
-1.0296217053444536,-5.795661239426678,-1.8749691038049707,-7.002733083129888,-0.5009835994541647,2.4476089165892176,0.1533609367488223,1.1970890723595984,-0.741094297608855,0.6066526383918526,-2.1075975026862865,-1.7686508355850208,0.217978822074064,-2.799048297535447
-1.1143143770529065,-6.390775802181437,-4.031090565299584,-9.921359478612114,-3.3173067361633666,2.51353052250748,-0.2460957413615162,3.066020078281705,-4.455875781885643,-6.741328473751858,-6.32956366919926,-1.0989959895835624,2.846856572707159,-2.2062387285903915
-0.0057375622526194,-4.477687498160975,-3.7536075147328742,-8.830034751200476,-5.305758297732568,2.569109246535646,-1.4440678727036032,3.7237456033964422,-6.058196749252037,-10.819491137669058,-6.882182109004258,-0.0066377176403982,3.0902270718432643,-0.4211553251892032
1.0849910077439515,0.288294123254019,-1.3698339459502826,-4.5994349384911,-3.3022967351133823,3.202014178738807,-1.7121747560268192,2.117832206522883,-3.953550271234701,-6.86738114465612,-3.6120848882487886,1.0117987433558615,1.0559171109601455,0.9569688260375862
1.5612485301007697,6.404498891105533,0.7780220030224502,2.1462313509187,-0.5472399420105223,4.790938087179185,-1.4097203013298298,-0.0666747119694952,-0.4882062965561584,0.03176003222008,1.7724876096466078,1.458244747807748,-0.5158111411996054,2.922624903581293
2.0222203612852354,11.034541016451826,2.6395636417618307,11.325881280692863,2.641741026744911,6.522490370085563,0.6906531877875373,-3.1005143466038363,3.4076976825074854,7.374099824825418,6.8485396682841015,1.732395436650795,-1.1984901882468697,4.475719178186052
3.488098562593983,11.669385533182556,3.0462538763365017,14.6350887556146,4.6420170855399965,6.256677469179699,3.378182285123693,-4.620384093519267,5.288733041187654,9.865542587947065,7.4387233949495455,1.1637297889981797,-1.0155146203643086,2.274016386273344
6.0248425484517085,7.91898393131401,1.4290826091359004,9.522916878425304,3.589691699782248,1.99552920671276,3.4009861999702102,-3.013401477771255,4.045551890313785,5.126603978456981,3.600140067779136,-0.4307559083730084,0.0759711808642817,-1.989486541822703
8.16843432995784,1.9834216708357744,0.3169515104345339,3.799916189652816,1.771749631123364,-5.983705931125186,1.304721142360368,-1.7978585070801387,1.8504591784940487,-0.8378129367791589,-1.19168018879393,-1.7290571904540029,-0.1834159871110007,-4.769403360264783
7.872896544705725,-2.794847827557799,-1.1506859752967458,-4.244459484824112,-0.5707551175573935,-14.37386838666955,-2.239289492913854,-0.2779388558791297,-0.403850508203554,-6.409171695308819,-6.478636774144031,-4.249072260583216,-1.3628761805021796,-7.632123611526502
4.284274712243896,-4.287111590489353,-2.379117652866197,-8.672375423690827,-2.177664351187002,-18.637506867258548,-4.964601029749801,1.053278404593836,-1.6158219714098967,-7.513812391511529,-7.833205486981933,-5.371073505897714,-1.5076977525702056,-6.342399476004408
-1.2106172759099518,-2.934448246124884,-1.8895200487691628,-4.38656141697327,-1.2860741442600392,-16.239847356988854,-4.029013350376863,0.7316761510315866,-0.7776343063007018,-2.035142463778125,-3.166474251926115,-2.8883697285542684,-0.4115279765332645,-0.5042232361676827
-5.670858800247404,-0.9942763651634898,-1.2976779341081688,-1.8902535128369569,-0.4022717973994837,-8.644306371527051,-0.9550430885556476,0.7076756247050996,-0.3204718754380578,1.5408032415103845,0.6306873575070074,-0.803779571825066,0.8950367360744544,0.6236047792250526
-6.561484578369734,-0.439746632175708,-0.1190890298238228,0.5207507874170427,-0.1691853906915499,-0.2583902780438842,2.151856577916068,0.8117014785501941,-1.2993249159440627,3.482764352939639,4.566317690436976,3.188992695322836,2.4261227758491177,2.611014400623043
-3.458025833148476,-1.4491790258957575,1.4632203510748398,2.8173176233218915,0.3073226093035595,4.856329821135839,3.9331506418604505,0.5071551526506832,-1.502734452731879,3.92218704080006,6.724327755220548,6.548136972860621,2.826710907692651,4.795489965955252
1.7801844857711124,-2.7349758999888145,2.0308727581305885,0.2492859423252712,-0.0691575851732649,5.752139283025306,3.251115249577045,0.1766947673505217,-1.1844583077821145,0.3381876036201368,3.216339380334771,5.147486716034703,1.0116879521606903,3.2228268482379114
6.371337301741441,-3.109093628830145,2.171506122141456,-1.1108879190365666,-0.7973169941990469,4.652267665880874,1.2798553241926935,-0.2409896604622083,-1.1622919011813606,-0.8214770363696448,0.729158403765715,4.201798458580521,-0.7547802684127125,6.891497628569674
8.364847239017415,-2.562010179974884,2.565294042675171,-1.7336613366749245,-0.623078941859938,4.576358073664089,0.4492753631806438,-1.1772179381086616,0.0227069085316764,-0.9605586100059906,-1.834217244607616,2.0154346644998578,-3.253221134904124,8.433780383487369
7.524545146123494,-1.8668155826844317,2.1400061017231797,-2.8339582773215506,-0.5203701663904818,6.794708437844367,-0.0580365721048651,-2.009582229975277,0.2835928487617845,-1.71800997072255,-4.104084213021191,-1.1470394207105523,-4.8024562450499335,4.017524487711798
4.920960275206582,-1.422828598086774,0.8860887822950615,-1.511869278816817,-0.6165586491919505,10.142329272917353,-1.0255293502914706,-2.4500535010076496,-1.32551199827843,-1.1499598012790095,-2.6889792001315884,-1.6242496399626116,-3.43054833069164,-0.236833969013859
1.8213609220490736,-0.8137834941999103,-0.0364790180938716,0.1832483011424932,0.5362140826002009,12.331084825786938,-0.4058437123061804,-2.2099241411673693,-0.3244796120617436,-0.927710840962905,-0.8184406613520591,-1.952063322917877,-0.8084598305589963,-5.8645033726687865
-1.137202626338926,0.4359069518951557,-2.405008181907508,2.185480150128677,1.684313537466534,11.819255203481582,-1.1099574475427016,-1.5771474476408605,0.9283040486062062,0.21165772188707,1.8566880366304888,-2.709806884865269,3.310232974484225,-8.932607182140881
-3.9200732020738513,1.952188036140761,-4.230974550695706,3.6940247360110794,1.863535557741144,8.804355320680045,-2.0489273043265466,-0.4147458189117436,1.0923786583219195,1.449903683875733,3.5091674683227785,-2.720266650949642,5.131363585218666,-5.734059987080185
-6.447118515701213,2.715923946507836,-3.4678893750644835,2.782028291295371,1.4136594055736331,4.9699713633492735,-0.7808746552969501,2.121614939885837,2.0990978681165835,1.410855290905118,1.844835522747944,-2.597320361395406,2.762904816140777,-1.1079623584993044
-8.105637823152065,2.2557973158489872,-2.918258181814564,1.2345358383415346,-0.5580104465615296,2.4396598117127013,-1.2878052004340788,5.317067387607654,1.0767596441986542,1.1430877984735257,-0.6557767174786068,-2.5324491098430126,0.3139673729661094,0.5719035173714728
-8.038181843090449,1.3596486881325305,-0.6622201313747966,-0.8544476552417483,-3.236258733083041,2.4807626866612296,-0.0882689127819517,10.787502368813628,0.9780926034810038,-0.2293412926572044,-3.9318540504215953,-0.4570097956945257,-1.8031286049947544,1.3321624972919308
-6.052967332249367,1.2537852120422457,2.2105957334561204,-2.0698827195309675,-4.239114806781666,4.432503305399351,2.210762380525863,13.149823160857002,2.590201176616928,-1.30780425009538,-5.000898662805177,2.3802736167945464,-1.4633315895147394,1.2441789416238989
-3.28494548088554,2.04000646164738,2.6153692484962523,-0.8291037169447519,-2.93542075245352,5.544842323812418,2.0318684839179264,8.331421224115827,2.963304739505469,-0.4153693326096586,-1.584503413311043,3.6402225324756974,2.0756321733570817,1.2379542340209793
-1.7661989626408996,2.2926474271883137,2.260403225933633,0.1818527624031785,-0.1842403205326549,2.3892240410903582,2.186504505733349,0.554226510522882,1.828944518656367,-0.5380574190845288,1.1120951002709294,2.9229836791787767,1.1825475910752683,3.272835662998728
-2.9736829018380746,0.602688592591818,0.7646256531567156,0.4016510660948902,3.356337307846453,-6.494039908349919,-0.0753503485689565,-12.724739260472472,-2.967218869226503,-0.9626082056961572,3.328448929352025,-0.4563464069203118,-3.432010197880337,3.0544242289045034
-6.47732624954007,-2.441048403058403,-1.1622446501270844,-0.2891349620456219,5.1196003314038885,-18.54736969968508,-3.0444163679186014,-20.44823080586711,-7.2662258474367,-0.2993247538745085,3.7870455935315017,-3.94131981296637,-6.542293965782431,-0.0869101950973909
-9.99431086937284,-4.2001140248885775,-1.127853413299977,-2.064154939644812,3.5939993064985982,-27.932294348800298,-2.7245814075128654,-14.467685805395424,-6.75748250821265,-0.0787888171991774,0.4745840292378767,-4.106759804222365,-6.638178449192623,-3.137216691865621
-11.084505411408728,-2.406237847852168,0.5150152975656472,-2.255203942383764,0.9518831498800856,-29.364415092978746,-1.6732194255451365,-6.446632247963583,-3.4684637077194087,1.0381364617029794,-0.4549512463651726,-0.3362872898397742,-0.0088471515693276,-4.436093367796876
-9.209063068757914,2.170877935184436,2.191439043384365,-0.4163473089429079,-1.7138978290729163,-22.45387397415533,1.355352405879528,6.073562120369143,3.13495586911463,2.815565406488396,0.0341038271155776,5.410181400612703,10.85215064604383,-2.680745778905471
-6.308796029211209,5.711518086155877,2.7892990968618987,2.10646924773035,-2.848676644750108,-12.793024073069668,4.209782396024664,14.732726884038604,7.694833130854965,2.621060928177528,0.8582044311684082,8.822364953399212,15.636449729558413,1.3755542663998732
-5.165013158360395,4.482464793570216,1.6717155742973926,3.4821054386908146,-1.4330627046384312,-8.239275511430236,3.143670391585432,9.655416939879764,5.164824387410969,0.8699719015521047,2.674217218431223,6.880561863453115,10.14341369986428,3.742761666190536
-6.790382806529287,-1.5945994919907207,-0.5081947614842598,1.840112842958308,0.3104913363842096,-12.912110975715445,1.1819694770941378,4.108399691305269,1.1778903826327494,-0.4899737088599981,0.9648977028379636,0.6550741770361999,-0.5187970147538987,2.4580980844122275
-9.18558700601774,-8.364794321981996,-1.740317112091905,-1.4143988815950737,0.931411334028036,-23.732944457190968,-1.718742981808168,-2.1015656040241395,-3.147702432838874,-1.8713344766902196,-1.9925907241572756,-6.21728796086966,-12.862254534305706,0.9665421599659412
-8.806517256129553,-10.611823783374916,-1.735547872758873,-4.0729042897685215,0.4464268800395287,-32.53197604124782,-4.205829184137772,-7.211327518485219,-5.610914484484271,-1.893675134942957,-3.7682949038662894,-9.437449739301092,-17.583429886136052,-0.7880236970797927
-3.6819262562120585,-6.263772919199738,-1.4543200568459742,-3.982368104247823,-0.7311437671292217,-32.17210971953557,-3.313138585273375,-4.084926001680771,-2.517983144357455,-0.1698523837129083,-4.2302000214592335,-7.2448071934374205,-9.633197669435988,-2.1693874495422927
4.556687767627963,2.00954473843818,-1.5347047441642832,-0.1222432347299472,-1.532780750098264,-21.77611182348544,-1.510231230373579,-0.5999759828511413,1.1254107432518647,-0.0355415683191001,-1.1116168312402048,-2.2568418542105944,0.512883354247837,-0.6042409834811706
11.713925081871269,9.019517143058556,-3.1053483645028086,3.732665732081095,-1.1373006616387915,-6.960640163387957,0.2700836601263987,0.4365923377948633,3.1635924781239293,-0.4162808422060416,1.8005757985455926,1.479011735399164,9.47930145383415,-2.058363952588842
14.404334480847744,10.968948249980365,-4.098813746459093,4.885255977288773,-0.2046079486841585,4.785627647664249,1.5607655258542603,0.8531323822190946,3.2713423474762364,-0.7386862927344572,2.479325701149958,2.6125492771881147,11.932225958231095,-4.165757827848582
12.796468680766935,7.771392146346642,-2.9909585902795044,2.995645908776783,0.3655958527215615,9.563466800535188,0.7488707724404322,-1.269250612674397,0.4958789608251063,-1.6796309677852213,1.6723952406917837,1.0032320422302343,4.313665176509881,-2.9639886996686142
10.212164818513052,2.309078031211662,-0.3271751518972708,-1.559118128395069,0.6372140469274498,9.08478424071211,-0.5237794391750448,-2.481942848798041,-1.910861783650859,0.2211988856710813,-0.8996339812613554,-0.8548869634031127,-1.598761651543874,-2.348582457833801
9.923557317041968,-2.122851629849705,4.4051251538549066,-4.403747093267151,0.7575632041133794,8.220989855709306,-0.7805291841345211,0.391195719995952,-2.587710615380996,3.056172638600024,-1.0297171054098828,0.8179551978196107,-4.212827831933975,2.535652026080264
12.111252821438027,-3.8486258672158016,6.796929901653813,-3.542747293040191,0.6977461613293426,10.695954867200768,-0.3082649306348373,3.2597931695579385,-1.7347092070449297,3.20898848382116,0.4638357599973721,2.7338636557633462,-4.055628490654723,6.971968680681647
13.799421488332811,-3.099458081305329,4.987222336056453,-0.7742516066015814,0.5796903728657983,16.52559520158556,0.9938465487805946,3.846606006538628,0.0440117060984094,1.299046595318798,0.8682882429091567,2.9170539917487948,0.2974415596468129,5.018565444326763
11.77570420378624,-1.1091166848895213,2.870420637674433,2.399920836429056,0.4312374316282643,22.75268689679752,2.6337416861119767,2.730382441699617,0.6517156318514012,-2.8723895184681334,1.5572473447489112,3.2373516813872305,1.1759249829889502,3.8976570410929865
5.714833443248164,0.7713047529989616,-0.4941532952798779,3.096860148500031,-0.0833978626898042,26.177172612815877,3.5775371263352334,-1.1293070581658196,0.7663546729745689,-7.63646998557269,-0.91309003465106,0.022555302976294,-0.8322106801909983,0.6045321144131545
-1.381732979607687,1.4189462273802853,-2.708323999176228,0.977311154228019,-0.4144003312018254,25.605387065625976,3.0475510950596774,-4.032600720030244,0.7015940984580107,-8.028691633630732,-3.832520574246757,-3.339893468872311,-1.7295038100119473,-2.4919098779591744
-5.733941597935058,0.1027490062103382,-1.0773339708818832,-1.111113885972106,-0.1008166759017749,22.172657178887235,1.0669471638731878,-2.6878424316405947,0.2531472453972345,-3.505458322470158,-2.7677846481398536,-2.424094705494072,-1.2291270059129753,-0.0743110598505372
-5.893744691608525,-3.15295990382414,-1.097126942120366,-1.934834614243145,0.0168238216977603,18.1265446343845,-1.1266093873617196,-1.182888431831779,0.0343179181251726,0.502890060722526,-1.853849042019196,-2.820129681956319,0.6930529483156167,-1.013171002085905
-3.66160703111891,-7.265287572176462,-1.7195627467152663,-0.7720498531747887,0.0265245684768147,15.417979525632646,-3.8510191574919337,-0.504784676683841,-1.6781060055423194,4.115764351538441,1.2497963498644584,-1.5098389249706037,2.701775473404295,-2.7316825301380088
-2.224191829777773,-10.432964430380796,-0.863063019093744,1.6247047250201614,-0.1480208284426571,15.070465709280333,-4.90050569864332,0.3229266828630758,-3.0219802583184068,6.168564398672752,4.904346931427343,2.1835374066880044,2.782999344872945,-1.935546998729219
-3.3930227250158698,-11.18092780343638,-1.109685037557919,2.627735248598312,-0.7504423836946587,17.332407860454445,-2.756907290560217,0.4972814542857458,-1.5036936583569245,4.9362151615750784,4.302033462583329,2.970788818632902,0.3566403645411546,-2.3746177244881643
-6.349538463616938,-9.361698124580574,-0.7470028393159447,1.4385748319727902,-0.8179687614163013,22.01917422134718,-0.4757674889361529,2.341312870158959,1.6982379043834883,5.943265017057885,3.557352093664698,3.6822317409029233,-1.5977899287729311,-0.2256510780969075
-8.699058514567618,-6.220533653981136,0.3992429811313682,-0.8318823053038493,-0.4628620496432272,28.573590439560327,3.0638559393493874,7.3562648960929,7.812971270957796,8.196575827406477,1.4951935494358612,3.697682815753719,-2.164156226477612,2.3123084081763423
-8.61576420998771,-3.406941943236996,0.3325615447013312,-2.7092421981808816,0.0646568416056708,35.89184109319154,5.389444168104405,9.49626673710991,11.188586232058302,6.883594795109243,-1.7846811110153422,0.9828178149308434,-1.4176728114803543,1.7995374486074998
-6.199678591613939,-1.761203730063004,0.1696548115874382,-2.5622131034647717,0.5553277965269823,42.3364293182711,3.8550628150086057,5.819213770664848,6.9383562411227295,2.591515223983665,-2.1607928070557065,-0.9213288345529114,0.0460437249444812,0.8110733754037562
-3.1323920941759225,-0.8796101255574191,0.6309407558655518,0.0024235576313496,0.3442153857056713,46.25415162875238,1.5493526751298026,0.6694062693170448,0.7961583685661828,-2.380460753066982,-1.229434871105406,-0.7733888402508997,0.5395340156380178,-0.2209022674609671
-1.1823433590786898,0.2803384561386064,0.7765620428165588,2.770745816382072,0.0164443820247457,46.80590770714621,-1.9869373638331675,-7.00722803110915,-7.716859833698305,-8.89042811642381,0.5921940788482385,-0.7382181340011804,0.3825757254527649,0.2446613867407487
-0.8363197279812091,2.396392569410013,0.53556128314275,3.4788386267741425,-0.2754823186711979,44.45962470712743,-4.366765862028067,-11.154663093505183,-12.63214704549803,-10.953353162689483,2.576173403960853,-0.4567524252911296,-0.2822418049525116,1.6188438657221629
-1.0004440296116428,5.240012209547309,0.1099464189663773,1.549474725876328,-0.3488327602283723,40.60813127106815,-3.3751701257263567,-7.442657669522624,-8.422240432396713,-6.480411379163799,1.5702110487881025,-0.6765948896451383,-0.4548328694405456,1.2744237310659992
0.143632726124494,7.913052570707473,-0.5259124246593432,-2.2676451034959184,0.4463097349919858,36.481312804925565,-2.224454819335007,-5.207337126677053,-4.526699712657926,-4.7862922083708535,-2.481423292353346,-3.827534632644341,0.7808776616837225,-0.590296923328833
3.757986071759003,9.503534362600329,-1.01597563350855,-5.704191836790892,0.8735844476698437,32.21840491283033,-1.3332234549104385,-3.71391160823844,-1.006466747185932,-2.588624979816293,-7.545299362204906,-6.7202526462528045,1.6773701615519288,-5.084449142330933
9.336190126314593,9.612732992683206,-0.9490101911728378,-5.910490255877292,0.6025220522345388,26.90878446444422,-0.6904450883708074,-2.177128846347762,1.5166519949237316,-0.2937106068700023,-9.439657923039436,-6.54510786782743,1.3136461453276729,-8.14544576634626
14.751811962994209,8.502654987349501,-1.0928626877232452,-2.96626451225688,0.1803516449072065,19.56326915383828,-1.05250038725823,-2.526045742708918,0.0516274177042944,-1.1046470034506064,-5.795839936304111,-4.144401741736723,-0.180258294068051,-6.353420870668163
17.467533179275968,6.940290554796878,-0.495364422289664,0.896812884372296,-0.7160298064543656,10.144641870391997,-0.3666600895994675,0.9989688890966324,0.8583426193138608,2.502685440294845,1.3834834806281924,1.475150455768589,-2.181547785643083,-1.580097110210144
16.22347547846234,5.870404403253481,0.9145178507021828,4.472340555261236,-0.9333863578694058,-0.2078423787406116,1.9591675873198644,7.787423463963086,4.490086846478526,7.119048496392725,9.848168493124152,8.121721893590834,-3.382751385801908,6.411954270709463
12.012727265798244,5.9720352644178085,1.5020201622350884,5.246979959398423,-0.1696259745460277,-9.833147648213398,3.161119808487301,10.709962422719611,6.275631283123444,7.524195025636082,12.257636009495158,9.629510660442875,-2.47383948158253,10.878739151581934
7.453999760210301,7.219390150289545,1.7166525581888217,3.17898032891088,0.4747878678837168,-17.439929667727924,2.634252240787235,8.184491521924352,5.366600549445018,5.599693542618934,6.214603745598655,6.036488835934934,-0.0613485665337158,7.849884379931479
4.822668485821019,8.73924652602473,1.3330460264482222,1.631757389765448,0.9281774420599008,-22.61956190021245,1.7825977780477351,3.204688242283252,2.616249674974352,1.233977877650141,-0.9798359106996254,1.3181756088178698,1.8231730320231427,3.112513465342275
4.213926093872686,9.215588762705025,0.4560522161286039,0.4128067282269131,0.987676210989628,-25.89057605477204,0.2444556404938798,-3.689356275595056,-2.4255915969150097,-3.8358453947282407,-8.60910535251638,-4.050499369111458,3.961715186554543,-2.694039216607792
3.4515753342946027,7.693548418819642,0.4097060367304353,-0.4092055935440615,0.5867605310932194,-28.49199312428708,-0.7046702113202612,-6.967838154056758,-5.338861099326027,-5.083244788994978,-10.792403935247528,-5.671499050883358,4.415933413819236,-5.4268457393987495
0.0371139345985831,4.210402919658133,1.4777794140105662,-0.0716894034294683,0.350831331587574,-31.98103213474636,-0.5691052084541836,-3.983828950139554,-3.631609168777272,-2.480962625364186,-4.3364661091078,-1.733411273333348,2.384597149573636,-1.5711938294473164
-6.382822754020506,-0.2746418428543435,1.0422713725935069,-1.0031153562217825,0.3440971505367509,-37.5241920298204,-1.4834458335071257,-1.4890102145494326,-1.8182430651443444,-0.3398184056707121,-0.2289297220615649,-0.3343749900204167,-0.350313992322108,0.0344876293315363
-13.20856909507174,-4.591565086620957,-0.9631507063496934,-2.802255093054715,0.2118463308023004,-45.042852836668274,-3.3158072846000426,-0.0913713112260541,-0.0153768679553714,0.8573032605424208,2.9944815469473296,-0.8502526005167164,-5.562001462203289,-1.0411294858785338
-16.627313093478328,-8.048537480385274,-2.464141651774792,-2.6160918821323587,-0.2150420979271296,-52.82216775797305,-3.3995904459278288,0.803399993244946,1.6588206169863655,1.3579124932486348,5.567673782818857,-0.5911258932227312,-7.5740393036984,-1.312860460596317
-14.561379523503431,-10.461237281730254,-3.467155734153975,-1.0970566217808042,-0.949982644453346,-58.12765443065198,-0.897719884491242,0.0801259284590773,1.709116334862233,0.5744027719574102,3.942332750245624,-1.209743548279206,-3.136389444531981,-2.4015383438335327
-8.332481162895562,-11.579515446067628,-2.685790941205993,0.3759560390980674,-1.920447515163355,-58.62544026368496,2.774313590401886,0.6316362567393095,2.214373159242246,0.5010452226995109,5.309363565868631,1.0982249151788237,2.154141095283328,-0.9851545600660144
-1.6212049327914535,-10.657656667737845,-0.6687952278390217,2.6715904076476065,-3.237980538220331,-53.64817024724777,7.906511554369839,3.3236435781568225,3.804392059609919,1.6782326392556244,7.486125326956285,5.858872832266762,10.011288528384329,3.0278703322572373
2.3392736389646984,-6.856154494265667,0.4006406991953866,3.052752850437452,-3.499078647885475,-44.40968624466079,9.171325123257558,4.235395627345535,3.381989696078614,1.7125203483850335,5.228531004738125,6.727720593078175,12.699704313584904,4.102161027046762
2.9207176359127445,-0.3252493348377498,-0.002286424006945,0.6997599369112729,-2.04087135082117,-33.147825497416335,4.343164990039571,2.418015948942864,0.914036393750384,0.4256400373997897,1.1310407115443744,2.865167089002988,4.9485481845187165,1.5518934209510835
1.937850861427528,7.020347546410708,-0.2447627847240357,0.1921910286822839,-0.0040779645071959,-22.01668083693396,-0.2609244989545561,0.6809422047762705,-0.4737279423164234,0.2333367923667235,-2.4848393092210146,-0.8420529938503125,-0.4192477284902967,-0.1213920164388258
1.6553218934839116,12.007071357504618,1.1142987108918785,-0.5959671225142595,3.433777045180858,-12.548913827767333,-6.323263739604234,-2.4165665061235586,-2.566373989442809,-0.1099381663172291,-5.910450820020977,-5.049855779260751,-6.089328565855432,-1.5756869732272063
2.9345524916083345,11.977316984960392,2.387791149711425,-1.7349665814482294,5.476159564020749,-5.761501043449336,-9.303803287729542,-4.412710342656104,-3.4836678708047075,-0.7038898196987944,-6.002921415238945,-6.798471913915464,-9.1660825280362,-2.416518511715928
5.002736980288425,6.674082288709329,2.7666426331873515,-1.1663960556545514,3.954613447512961,-2.3316103538638444,-5.594012316457632,-3.099638385296244,-2.1196139156636877,-0.9903715020646476,-3.558874187569404,-3.435923562559752,-4.3039261072484205,-1.0005048762082358
6.581274103826978,-1.232996284917224,2.113495994902146,-2.49272670917373,1.9907770469293011,-2.3924057899512725,-3.907037958058365,-3.0419714381058487,-3.574638773611542,-3.6434958958333823,-5.553140420676479,-2.1641276626118238,-5.093048825201496,-1.5403906132565723
6.962682595285402,-7.583484061470158,-1.03599611356349,-3.371087223536425,-1.2118214525652091,-5.169729231157927,-1.1852127746890446,-2.5766544197880155,-4.391335757270662,-6.904634887038898,-8.21827775779662,-1.3059313403811632,-7.279000617764625,-2.878926774458903
6.084018310894784,-9.299018142189336,-3.6375058460816616,-1.7051183091851114,-3.5680454496985847,-9.069276064457146,2.1961897653187616,-0.7677067055443838,-2.4944273238994734,-6.755043018502155,-7.428808157639486,0.3624132526973478,-5.707278833851975,-2.190207001428556
3.965384158574378,-6.349330150315896,-3.069996750036285,0.0862184158357091,-2.343471842662195,-12.42130442647037,1.838128697579944,0.2614365463306409,-0.1746086485073471,-3.235552030940454,-3.865849955256404,0.2155964448214173,-3.8455076285502514,-0.869389683600414
0.5174100065058242,-1.6829578780427452,-1.98101064735384,1.9001550115766397,-1.2054744537706332,-14.318293652904975,3.144200045157302,2.0511480719624564,3.2947178944391933,1.4238775884000532,3.400022484472535,1.2629679928352102,3.16291208475558,0.6085807263945502
-3.945562593342541,0.9080785409487566,-0.456257348904588,2.3191251889650517,-0.2229011945456402,-14.761650581031954,4.01832033016716,4.034945486390057,4.780385034649625,5.985399298019868,10.618126576532502,1.9427967906702737,11.182574526867318,1.5306480269575309
-8.21349046094343,-0.5070977039197047,1.1047444801996311,0.4269483860936947,0.7863375290938649,-14.03168321430079,1.8293516346345104,3.5819604653397064,1.893490146691788,6.600849125825933,10.873086780436106,0.9095737567322626,11.837610095906028,0.9047822167612666
-10.599156317324436,-4.727516591076454,1.1136377120488483,-0.8847959197738486,0.3381814387734384,-12.094131690965115,-0.0151651418393947,1.4740001359183146,-1.5699761577981652,3.401202285826542,5.35999388997467,0.5291587589184259,6.746857540677751,0.2281879527762446
-10.179286422829511,-8.566117551697683,1.8225478136139135,0.9510009445068776,0.2984492403804831,-8.86411563463654,-1.2787477767161288,0.0652223967907147,-1.3181897700268037,2.9700603803333423,1.6492928427643858,1.3634972521070794,1.2943832157615245,2.033464872621687
-7.746459959144401,-9.50717307509252,4.893911817378588,5.185681450933502,1.461387914964663,-5.092048834401713,-2.6435069469047923,-1.8623216428308624,2.295437370576537,4.731399920112958,-0.0910180930574672,3.616657414158769,-2.7307398740737243,5.910109309259915
-5.453955859905449,-7.708035273796485,6.586971187768266,8.178449093241184,1.9867023083099196,-2.6399949258865343,-1.99752182954228,-2.5328467673478263,6.353659965293301,5.951736658272154,0.7173609660268121,5.153600107900992,-2.253416792389443,8.005794809968313
-5.314645304367664,-5.683071263221272,4.883737986500646,6.858780013533625,1.461493666582654,-3.2977910806072,-0.5026972282194455,-1.029442932688701,6.248359706676606,5.043591605877037,2.7331222971904987,3.65415353945038,1.380686274498729,6.00787693146754
-7.7891022146663795,-5.977566911659832,0.8519948958775954,0.4287603210936195,0.5667535702261349,-6.910581070590158,-0.4025854940011445,-0.6922797553254791,0.0559797914191038,-0.8642373253227849,-0.9343424203730682,-0.535777933676568,0.8855407761138947,-0.2728881282246429
-11.59358618366794,-8.891277572935056,-7.042761127274804,-8.053885538256985,-1.3770412797344358,-10.767309103555604,0.7439337342019967,0.6300053263642393,-7.999824168471934,-9.75945081721787,-7.4865743216096945,-6.36170429696034,-2.8948520098237016,-9.442800330949876
-14.72493673109727,-12.241207434483703,-11.7272868888121,-11.414048872824315,-2.495356128206041,-11.387075054487449,1.6683546214829317,2.0611850783591064,-11.103116571359251,-13.367238014627365,-9.868049097368974,-8.359512129083571,-6.24179788619384,-13.20642978391136
-15.706745241278234,-13.284523821332902,-8.127488926142826,-7.768636885821812,-1.55204031668908,-7.516429133201687,1.35253492205199,1.2419605389594108,-6.142601759270082,-8.731583972087362,-6.440439883442165,-4.521961398583124,-7.32964734027132,-8.350500011052066
-14.11884764337028,-10.990598682179847,-2.4569019969726256,-2.013971339811392,-0.9006033375210845,-1.6022457765172549,2.316318823634022,0.7452727948617874,2.703693231728081,-1.3359613596916051,1.2177541787793231,0.0887849153997611,-4.057784663347798,-1.072479839151566
-10.35202147009148,-6.651322623153381,5.810707716305693,2.5393121366176974,-0.1996346232372692,1.954726485982252,2.2890229605568044,-1.1621181779475682,10.281583453800822,6.997375241043251,10.156562291921349,5.022910514954466,1.1912644547209377,7.584455261018668
-5.201058647533539,-2.474313180130806,10.56138494705724,2.759447495988899,0.3602556094380192,0.5549062517968286,1.463726773183729,-3.184344199401133,10.847664312539273,9.914116428786668,12.25127485507226,6.336702832059878,4.276839938635938,10.95203121708762
0.264186882316122,0.3407463447467247,5.94613267709197,-1.0841400198742446,0.0833369930830958,-4.0881341355361975,2.121189583744334,-2.053954547789317,4.526656297768215,4.728862765043191,5.92825201811849,2.0575509702499626,3.821164279609496,5.171661941641515
4.744133232121042,2.243099275035724,1.2390763248520242,-1.7357547938829658,0.7138359609988572,-7.040116125039477,0.3726395533062561,-0.6373748590562108,-2.052192592897722,0.2946371326432128,-0.7045712637803738,0.1817666193502622,0.5443564279647858,0.5194891385247145
7.090969683021497,4.302685557400495,-3.463876682013441,2.268190935433731,2.110060414328786,-4.0726082326264486,-2.318953134216768,1.5903368856919082,-6.406594863863254,-2.689618684061828,-6.488321543126761,-0.7499779662984791,-2.3347684964768134,-3.245269888243383
6.977744435278688,6.762882459285766,-6.529427965785462,5.944267165355833,2.5070578689625376,4.866168864028712,-3.5636045335066013,3.189073912153267,-6.0768077874647535,-3.477709669093599,-7.708809897600503,-1.8514346337412704,-2.859345991387362,-5.594623008360861
5.249428685689469,8.698945704518863,-3.364747413963186,6.81611946066874,1.4328899463914864,15.558824179935977,-4.995721371450887,1.429069332944379,-2.5925733445481693,-0.745433685267684,-3.312325773437903,-0.8195638471108546,-0.7429192502682389,-2.754216989322137
3.45633802512152,9.069445785356985,-0.7726615288645695,3.5394964365647064,-0.829690303002378,22.828616981588848,-4.180088729552206,-0.1102616862824363,-1.815801595380301,-0.1985909069371172,-2.011287183846356,-2.315413156475911,4.1906733345597695,-1.473708299349833
2.820986369602789,7.9931717370541,0.6241916968971304,-3.28548240569293,-4.524910263945194,24.439614686263816,-2.385454056234512,-1.1712161392071097,-2.7131178383911294,-1.4409474517865166,-2.9658783604731047,-4.416743874886867,8.45973905926586,-1.4616055884503942
3.480283507458568,6.844211871617775,1.949194531712851,-7.152567134468175,-6.427443514685653,22.416992208252204,-1.027462208137056,-1.405834026888966,-3.32529274722607,-1.6626107655414504,-3.617927581673469,-3.4670410887323504,8.601221507534543,-0.1469570979466274
4.618266078600119,6.945122655251678,0.8863194551028732,-4.815285424313028,-4.624274247782819,20.914375893928018,-0.0415044830302288,0.0934432320640117,-3.4373324228163824,-1.337325728404934,-4.246124881029328,-1.2734431803737485,4.423863589415464,0.0883039606419366
5.28567725665793,8.096198494550114,-0.0425104123935139,-1.010958994412208,-0.8022172868558555,22.642576404960185,0.2306398183091953,0.2160736721997541,-0.1619030566968796,0.1699574562671268,-0.2294982018471267,1.3562192956331731,-2.401620188539458,0.5867446655158468
5.130064787103637,8.477946648010327,0.2815885952086507,2.2373553450370256,5.370234512852819,26.89767218527628,2.2490050407848363,-0.6164611545199604,4.828572589652282,2.2770060690744023,6.761505682565685,4.299966635353904,-9.429345910608063,2.356886037348071
4.460898804275612,6.233207431494743,0.4500876599802829,3.346999052913432,8.983930133492953,30.634980657072404,3.597063548361322,-1.0095698888896518,6.838469383350605,2.3368860132390354,9.738612675796253,4.813863577466004,-11.23210990158901,2.850129162969491
3.746856909273919,1.3674696296886033,0.6203731125143843,1.0053123366656096,6.548425050578477,31.33085541269901,3.606393217280078,-0.7875553843791794,6.021054226032019,0.7270590716325306,7.641749533043778,2.7177882294807354,-6.538953903275166,1.928403576406312
3.083703328291268,-3.875236654547976,0.890015829723281,-0.5846876482126163,2.013179310349916,28.975125545526865,5.08366461916461,1.0594050202167469,3.743778607498829,-0.1218259700028358,2.6419077715315997,1.2997632240730237,-0.9955259765215608,1.3274808332598316
2.0632276824067404,-6.709724013092477,0.1317689870747107,0.8574552884335005,-4.239459671477506,25.59904333367637,4.10404619453949,2.982958140585788,0.3136304092904482,-0.7107802691425709,-3.694750392934534,-0.945259285181534,4.823122860605356,-0.7386866389405328
0.0774298033707534,-6.165834676246191,-0.6881141334045533,2.7343991867726167,-7.672068476384842,23.14820296359856,1.4724657073894667,2.6338381614757846,-2.1383677583002965,-0.7728407116057348,-6.176283240779588,-2.738200059711926,7.301491014825668,-2.383686562374018
-3.1827260151195347,-3.94268327623422,-0.3747281206595248,3.4600025260250304,-4.150822134945049,21.922231641088523,0.0968543513421712,0.2525148185257573,-2.303031353127437,-0.2039968858188125,-2.8287934916874438,-1.6802213284427183,4.147505545264407,-1.0635939939433765
-7.320819467988004,-2.890444830521526,-0.5616755083093594,1.955736357495358,-0.2112201273617374,20.942239039868443,-3.163562538717007,-1.7509784074950607,-2.242869877184728,-1.2586630465041662,-0.1190345418140884,-1.213375501802447,0.8015715794765315,-0.6910135068103642
-11.156439157011556,-4.429995714316261,-0.4859944666495586,-2.859903214091712,2.889599620558915,19.501982187906293,-5.552256764648959,-2.3795575928723207,-2.970715429542655,-2.543245301221813,0.4277495226604359,-0.3444159272047993,-3.0906959317581104,0.1998208503052266
-13.104004890443,-7.221424583614764,0.1892328185705111,-6.549965780829848,4.129218992102653,18.044521593091545,-4.171797713292135,-1.0808680450227257,-2.1508651594652584,-1.8533802993173256,0.0603190753330049,1.0055357506444689,-5.700888501850709,1.6068310235388552
-11.92133362582701,-8.254886120633184,0.1338871688100152,-5.880705929495559,0.8874767109703057,17.47542367470416,-2.1107151822461656,1.0897669306842617,-0.4864955469654272,0.170830340353978,-1.7116299687005956,0.3638000827592667,-3.949310963871904,0.3610263545607902
-7.455790496061969,-5.366275069850953,0.502309865496875,-2.80196963636158,-1.590287378549568,17.886365235564423,-0.4406128792066379,0.6482093347953228,0.0653081463038157,3.075639837680725,-1.485832870998636,-0.0154121337752535,-0.680336246401605,-0.4373827045902557
-0.905061803050586,0.9853850402904928,1.1735451344362324,2.474463494570917,-1.9003335139021265,18.28829989708537,1.2735254518226868,-1.35610770498426,3.146671102863754,6.567724738948336,2.2371783228024977,0.4408749146140994,4.003104825906873,-1.2886654034149636
5.647574768785945,8.04748231426349,1.1437187574219978,6.316750536920441,-1.301211296204183,17.678181040617517,1.2874999375873244,-2.7440781913882124,5.037174930531683,6.788112156163925,4.811154034036581,0.8116639643786313,7.346941890937047,-2.26357822026413
10.205604145311266,12.744722540615088,0.5853307675198793,4.662214951996434,0.1976338457800595,16.105941578055877,0.5847931529478263,-2.2270684915289767,2.633213008200453,2.9355562827789763,3.61308316948112,1.1560802559107377,5.087517693827247,-1.5101979002195418
11.79317760036119,13.645641338763006,0.2569129954203428,1.4048478766843824,0.7716301527259104,14.34991999168187,1.136225072555917,0.5700984599147615,1.921056345631832,-0.8986547973758415,1.4077599600274835,1.033159543087536,-0.081082893709577,0.0850818915951749
10.833178310718504,11.577228057269792,-0.312908413123557,-2.377301494977935,-0.0490362679266422,12.49180730389629,1.1120678378135045,3.168549687011485,-1.5037553179324132,-6.5091684082330366,-2.589463689693809,-0.3492645701626908,-6.898578423667942,2.2517559517460337
8.77384420562753,8.738657662900268,-1.264586448478618,-5.79153234540631,-1.0323564615195422,9.175373597569624,0.3679790271667485,3.6900427950900574,-5.277608880829567,-9.242756053234457,-5.707227695232874,-2.1595060624879,-10.54985627813966,2.842185195909386
7.177099354150111,7.156279478173673,-1.553237563220029,-4.751136285778461,-0.827451653144471,2.791966037994267,-0.1777376487094882,1.9148097461834976,-3.559456125698249,-5.209300004535368,-4.02274840925108,-2.48726577182536,-5.9172212013641445,1.43401823535619
6.799820272876938,7.515996761931749,-1.6737638906796817,-0.822979390562272,0.6860285447908523,-6.332959780093257,-0.7967175184835142,-0.443730040833466,-3.2407640064926726,-1.5149294034958365,-1.8735933184037217,-1.4277893360951337,2.429814277204738,0.244197445049047
7.268032316033366,8.972774478251466,-1.653040279590545,3.249123305072533,2.702333588426634,-15.12519351883365,-0.6838858562945169,-1.2026921527408378,-1.9186027922260591,4.24168224748388,0.0110862658203229,0.2473460583040313,11.987815859328368,-1.0472693539124047
7.611921280535179,9.900303657028257,-0.6514995529601993,6.220270658840597,3.3621263934886505,-19.64319153654702,0.2090069444981255,-0.4074908080161379,0.5606093758058849,8.078521070233196,1.564039323048353,1.816403871255145,15.448822041231388,-1.026045193250726
7.274456166280244,9.03196598053976,0.5290184618238982,5.568425471080145,1.593673429180448,-18.27845728786436,0.4252396266069478,0.670508356820511,0.2477805169901352,4.59457139008287,0.9932916241199514,2.0157636234927008,8.300545417246495,0.6023107905327401
6.705773858361258,6.255272210121805,0.7070200905407735,-0.0443027809799989,-0.894019812942308,-13.2938233452011,0.1730268061806342,1.4389757810408657,1.3478724065238878,1.6598881593823265,-0.0241733983262292,0.5303971292225779,-1.283082058072784,0.3841294796031719
6.89350512752611,2.573797941734978,1.257740047976179,-5.983514784099381,-3.1425102329712638,-9.02334879020896,-0.080812420599931,1.3031958814760842,3.620327849587036,-2.0773656955020035,0.524262248717764,-0.4913548443437934,-10.799284916774113,-0.0041411207433078
8.151583217432297,-0.6544491402024213,1.573796552331172,-7.769173701438675,-3.2070951403714827,-8.187218939065396,-0.5105599372768993,0.3077138019072575,4.688325851821202,-4.771154368227293,2.0700502837119386,-0.6920854153895023,-13.145683137477144,0.0779374764686334
9.359026297357891,-2.572625991221848,0.8911714999832105,-4.858441396460818,-0.6877065146785063,-9.684228803830516,-0.3227979312127633,-0.7458740981627288,4.150941462045122,-2.416896019658573,3.0183485524267826,-0.6902569471780738,-5.608526386625598,-0.7806661907732804
8.627086470726546,-3.143556579896393,1.1296462332583292,2.302966014613385,0.9295077862140314,-9.94655414627012,0.2862019319719091,-2.4070791294653096,0.9778514578052973,-1.6615628939349254,3.0737877752958416,0.3446019861669724,-0.2160764924847941,-0.7159117455396113
5.05357117184254,-2.8358273140866133,0.1828148615035895,8.724673629065679,1.6777410250212617,-6.610617111880293,0.37306335473873,-5.445119453565357,-4.35473785892967,-1.828493493685979,0.7731680141146285,0.1376940600932138,2.597289004027913,-1.897617629340445
-0.0184729798668901,-2.143916656244158,-1.432546937356162,9.021681245988724,1.1081372777926202,-1.0518711759935218,0.161505293664713,-6.897769688126539,-7.523109897054609,-1.365686189755834,-2.694628543475439,-0.8729938668425279,2.058302015064165,-3.660604990767342
-3.651634091772358,-1.440470524986022,-1.2731612898350266,3.8894834226816863,-0.583099690796149,2.6102998624522606,-0.131177084517311,-5.017183689700462,-6.216689544038705,-2.1058787610425047,-4.109537498708135,-0.8462956522334495,-2.425191712812585,-2.774640615896999
-3.633166120323862,-1.158929847422488,-1.401080868458266,-2.577198869330648,-0.1800869219888008,1.1263048776454632,-0.4603129471560074,-0.1870926145570961,-0.5562338447631378,0.1289480155110352,-2.1757156043588304,-1.02960321395975,-0.2601116014461346,-1.1744621537933555
-0.5337261066116195,-1.8504234719947317,-0.2445843106758836,-6.952645010280243,1.1103362602537112,-4.967081467284821,-0.0257447474258831,8.437158451104123,7.125536035957618,4.294176280221426,2.097312481788352,0.552585323052595,6.150636192988588,2.883482595608102
2.459558197788537,-3.797599704127258,1.872160755279872,-6.173433608202662,1.9225686067074452,-11.724509960298182,0.9405988491046192,13.313887185069834,9.81668167640465,5.615429650211664,5.1848247909204535,2.6944239773481904,9.097807853110224,6.845879001891972
2.0600832785031207,-6.4888017117799,1.874059865397502,-1.5208343909286843,1.6650291928956569,-15.013076654706955,1.4173467431385092,9.606057110991552,5.729024470067239,4.47966599786093,4.242346387964623,2.6255175318742507,7.236633550638908,5.9318081848008815
-2.281621657796069,-8.642481152631385,1.117147904380841,1.566799675487483,-1.2897281122333055,-13.6679156953385,1.0975415036600364,2.457490124303691,-1.4409132492925605,1.5010453543263975,-1.0433042091317275,1.7814574342133,-1.361128214750802,3.114427477197985
-7.711482005203018,-9.061352670550397,-0.4220063138523031,2.535542381205384,-4.823412480318093,-9.97263245622334,-0.3267316571193643,-8.424645779013709,-9.459651742938352,-2.4778045148581254,-7.498627067656741,-1.1926018527234226,-12.911324246609151,-2.121660972658603
-10.185891640198443,-7.683287507144877,-1.9894178420859376,1.7735672261892537,-5.563301112075686,-7.387365114133292,-1.943678809738444,-14.522218217671336,-11.56470947382702,-3.881158458988036,-9.541262613088216,-4.15613644986256,-16.27119381829089,-6.806846336919628
-7.763635002335141,-5.76312892449319,-1.4353286462227934,0.1041266094256717,-2.87403623384199,-7.725459304998572,-1.9243827354377112,-8.482183497832821,-5.099154671974355,-1.8702268556562764,-5.023235250915024,-3.192501345973508,-8.64104757369805,-6.040768812553109
-2.186658909585853,-4.813138533354285,0.1746656207293748,0.6004030968098439,1.458902292554456,-10.080471244431072,-0.532719626695461,-0.8772050667379118,1.4606208070375502,0.0556731675367143,2.029601503627479,-0.9472590146919296,1.98743261244476,-2.0714098873150046
2.56776071230661,-5.209336370293631,1.6328281322321476,1.7240020894852677,5.512563504974355,-12.016076005015002,1.583061467584847,7.764154155374934,7.871095496233224,1.841230413958185,8.448167580832301,2.4747222133514404,13.070789657462276,3.417819001816921
3.454843722110642,-5.891541019905656,1.7770053850856284,1.119958115175689,5.8725216269689575,-11.709551905364275,2.7650422669294565,12.439419140336591,10.633598968145051,2.8480107733947,9.638481549271582,4.820228454455769,16.416924350271753,6.928256477966503
0.5307503517836167,-5.595894747861857,0.143397453855489,-0.7562430149198266,2.1537816118842823,-9.347595814246532,1.089156679609809,5.739693245537613,5.080301911044293,0.9292536988448896,4.081697573118334,2.4783709642215777,8.203964797592455,5.03613577080783
-3.5613404155513173,-4.412719588539487,-1.607411163965074,-3.211944542977537,-1.047812412731465,-6.99012306679608,-2.112867842489123,-1.7377715749743818,-0.1950038828820398,-2.1072753779674898,-1.3654706939031778,-0.9365829848877598,0.2119543079073212,-0.189997936608933
-6.037612258922984,-3.92410043983749,-2.624607254810634,-5.345320563059366,-3.313915243948571,-7.229698296224708,-5.146634038998325,-8.467856755602115,-5.636543015034402,-6.103638845910705,-5.217924840375574,-3.9153952561569874,-7.653982187267388,-5.345140314752198
-6.056431109042535,-5.53035974828332,-2.0935647402018924,-4.468897470460835,-3.36119619417288,-11.498942076412511,-5.5235518702870205,-11.477620357757251,-8.832941408014637,-8.569292167038025,-5.598319878152936,-4.72300688469693,-11.509040173479814,-7.061070607424299
-4.791240461643035,-8.56765824177755,-0.47497467740051,-1.2722728571245925,-1.0326290841917685,-18.8930043079115,-2.7406429993128945,-6.110176999555312,-4.860217592397377,-6.066514113647364,-1.8372043672622709,-2.295880110246828,-6.3762716463671,-3.9204391337092632
-3.850737373469075,-10.302387922283426,0.6031051596277329,1.0644884935651835,-0.0757628987220942,-26.202152024379,0.7066054391053995,-0.1345773777370509,-0.6131260199390074,-0.5969981145140385,0.5352396553089982,0.5822504378876541,-1.1637331850040462,1.3171288730881932
-3.761180947937437,-8.141939463723011,1.5865805471630918,4.008092456876423,0.6301153686922101,-29.429074970796684,3.4120896190049685,5.024234653141003,3.849297774666468,6.921866075356559,1.863852027752908,2.6107361762551724,5.336176317678566,5.2397098934940605
-3.812694015768823,-2.1025581997115097,1.5970803747863858,4.87715631026804,1.0542903489324065,-26.1983149873904,3.578844670454355,7.037666016538137,6.256928883357367,11.244722411728304,1.7062591987099365,2.20000277659205,9.780009566752913,5.452595985388565
-3.091080891057974,4.863980025292392,0.5539220994559924,2.5954285683063394,0.5659023422700047,-17.548215855245957,2.3586142621770465,4.111794754449273,3.187447728872441,8.365628273664367,-0.3896851300922076,0.3293451814061788,5.850193590170117,1.944413187902817
-1.5245381009237562,9.102508937445492,0.3953495603605185,2.1374717261493976,1.2083848134523565,-7.594535873924695,3.3391825041327245,2.675078929368268,0.6644021925033969,3.2918767714452755,-0.7314152724487761,-0.0369714702357363,-0.2471565230927431,-2.1125495339000366
-0.0323895500598752,9.038704589115843,-0.1718837588070496,0.4392895439304503,1.4556733772911563,-0.9426656010274908,6.223202773826241,2.943746486987308,-1.2136006167980191,-2.3214918523955896,-0.8127502362227158,0.6244429192908724,-8.254128434727917,-4.417075549394589
0.1942996354862654,6.072746272239598,-0.7044515069278332,-1.5010315879900455,0.7930969052100758,0.3967415882196867,7.7572295790355374,2.865076606383948,-2.1362850721105167,-5.477064591947963,-0.8926573518866023,1.7202210810424163,-12.80456325061632,-3.622599042209852
-1.3775630029966024,3.0346688908273016,-0.1069477309046976,-0.5428082615388221,0.6523056295688707,-1.7962146137872743,6.055542282347007,2.4556184886997325,-0.4146018527548336,-3.61026955119522,0.1488085369717091,2.612756680113268,-7.503567624145002,-0.3980451302964437
-4.104114542714452,1.8628283827078531,-0.8696063749177291,-1.7507124285431364,-0.489488405714528,-3.5943308677954526,0.1026129716503253,-1.1711876937427004,-0.0677845013493891,-0.8864313789657091,-0.7394461850111358,-0.1201718906212814,-0.0933738682583051,1.5466414434777944
-6.33004991168319,2.5484280321333106,-1.7229966197381297,-2.419638998668341,-1.9632213527831324,-2.008171343788294,-8.782601041934065,-7.701894200361763,-0.8218468512555157,0.3079079210333513,-1.6994034073920423,-4.470399209671648,7.498773899474656,1.6558705166417906
-6.2075160475930335,3.8593478306824256,-1.1365615982090975,-0.7628665236619108,-2.0954537788176104,3.010928029757407,-12.771921336453987,-9.599926060049658,-0.9624570158156732,0.5693405644772089,-0.7193330267138212,-5.451965600569004,10.83890202364941,0.7252641954299364
-2.84120717833781,4.717685503095745,-0.1515520645449602,-0.1289839715310043,-1.6693860501426674,9.050348185753167,-9.543915828563554,-5.065271847405765,-0.9319981936657696,-0.0164646993277643,0.8556305685151224,-3.0092903826124644,5.828399943538051,-0.3696756772569537
2.901399038159454,4.913827332259251,2.0429279026561136,1.3409875736458514,-0.2487936852767842,13.39353503123428,-4.7770003822906775,0.8374067355778414,0.2240564927999596,-1.249030021956775,3.9219718928926346,2.1046023426992138,1.4505456017013365,0.7757439300465695
8.624886163635047,4.8782086307795645,4.802439972220212,2.5153364286452167,2.591391101107753,14.86125790467324,0.6549214798768684,8.69065059959748,1.919643938857632,-0.59936896885565,7.227664654423717,8.280921462978476,-0.793038845837206,2.98749248338569
11.800963132008352,5.1197810921723415,4.850209422485347,1.2613526913178104,4.368873641073888,14.08162202164002,3.1417936504884367,11.046133527190833,2.145199764257734,0.6517430891768534,6.802243625278012,9.303060868885884,-1.4656696602561794,3.466101381249011
11.451265987059434,5.866776747627556,1.8898344713192257,-0.6084076171400511,3.288112608154653,12.534238806550947,0.6282184358092483,4.512659927262577,1.0112799422222762,1.2732970700443909,3.0781036635850496,3.934806352950791,0.5561086583417918,1.674065445866046
8.775347181355965,6.9082738557505685,-0.9371731645552348,-0.7466731616391284,1.1490213333503474,11.504417014062811,0.6168277947461511,0.2537362236041027,-0.0739061896048899,2.327075151973064,-0.9617615797753136,-0.8528311109262137,-0.1456455114870448,-0.9197180711554738
6.0846065167456125,7.5111756328581585,-4.043086038834704,0.4577458083556626,-2.4441957856207708,11.592768850641605,3.642961090775874,-3.9624463957227,-0.6370183162419001,2.149485786971113,-5.605853271731447,-5.388150771880319,-3.503128216096969,-3.073099540146673
4.842733829980332,6.609262848471619,-5.048116495221057,1.717946809818908,-5.907551872681503,12.624036408144113,5.225344897228505,-6.067720990608675,-0.2629678513641136,1.1940801016888114,-7.068006109229093,-7.351812060036999,-4.659193870048823,-3.265403262078012
4.483914110996203,3.5080070302427053,-2.4212947919021124,2.042840002261533,-5.553383930473384,13.701502989388349,5.384463848887806,-2.3435141170121865,0.408242062528127,-0.0641858564981915,-4.395700990144686,-4.025113870466425,-3.203217966278693,-1.6069329449715817
3.0688734197730856,-1.233247864618935,-1.3212592174919997,-0.7576922615661904,-3.047727261855771,13.575468914685375,3.4228695120681314,-3.000330743629853,-0.340390017450157,-2.608445561000119,-3.66358537279586,-2.885155865811853,-0.52951869343367,-1.2130494502761122
-0.7822886704406784,-5.63710215172825,-0.4633892450434063,-5.709528417144406,0.1481616662190519,11.510290724964314,-1.4083910500288337,-4.480879105717087,-2.21644332109978,-5.554052338736392,-3.120478318652256,-2.5416172836382867,3.195593265485001,-1.9636834548383877
-6.409078302658749,-7.393591808131321,0.4386106696742995,-7.953597796515942,3.143402557771023,8.151125707157586,-3.981449396236179,-2.96171744206981,-3.103566072667306,-6.342101701010366,-2.035984101215867,-0.8235766605048149,4.1540784181598776,-2.180006199443088
-11.417758177052187,-5.548506030051099,-0.0392043186068149,-4.951744148399794,3.5918257853288256,5.396615664497652,-2.173904798791621,-1.5163755894797823,-1.8663465000999868,-4.4045637308409535,-1.906947599744538,0.0683775576845656,1.2347557748454965,-1.2649832233450704
-13.511297520470247,-1.3559461340304253,1.046218907197023,0.4958796549606615,0.2706285169168132,4.920215556962685,-1.1553667881321408,3.2306462636605,0.903402973652518,0.5303125176632836,1.8128850402566077,2.152092238151153,0.1921601816148501,0.7782164645130679
-12.232771050705082,2.5546527118550166,2.418617764433392,7.57153279820232,-3.0055657095584287,6.411397298061392,-0.4636215018564346,8.241533033903341,4.334610968044015,7.868406461942188,7.48457835878827,5.044870540780027,-0.2974547103900762,3.183229501506084
-9.150933892233514,4.01538126234828,2.43894023292974,11.081944896063415,-3.4198338937807367,7.301370457229439,0.1381845789189174,7.102844011070525,4.72136535643893,10.306613624680832,8.686625118752819,5.090501612598651,-1.0570619327024824,3.611862305901549
-6.4638040315009455,2.5570614460014944,1.6794930771158518,6.570954044856306,-1.2235752567272398,4.645133012199221,-1.16733894179401,1.7098812643573815,0.9431057969353538,5.767726459190711,5.403577256062478,2.3516421910836853,-0.2617356022357999,1.631503396104773
-5.373930389050564,-0.8856439574586421,0.0556568741264809,0.1312600383814665,4.638915814821873,-2.241231226951814,-0.9119351233155056,-3.4070574591387537,-2.8723824253207524,-0.7793355017523493,0.0316364950427138,0.1146787873204598,-1.3787445468391193,0.5671249729294832
-5.626891535324681,-5.169550288373205,-1.6282726141796873,-7.239058233881446,10.347474257095037,-10.791806933586106,1.1745716164439388,-8.017607726953253,-6.6203375103338375,-9.587895741683978,-7.334414204484382,-2.8006262951290166,-2.683682738873411,0.6217215296727643
-6.3535938774018845,-9.631633836849742,-1.9301974132162265,-10.904143288086612,10.513902932004225,-16.960085591183628,2.3090947966565545,-7.273926943772364,-6.782514872231301,-12.924680469716307,-9.842630664480314,-3.793947097653205,-1.5606979566595631,1.5266345310212863
-7.107022748114732,-13.680786047619858,-0.9611140147069208,-6.442789559512496,5.22978955291029,-18.315036292947976,2.031057057701504,-1.3820595848165935,-2.245508851225797,-6.416531220823583,-4.897613431566665,-1.240434737569688,0.3148456118533748,2.580645067881171
-7.971420006317906,-16.136962692033975,0.2596394856102766,-0.3033847331926017,-2.202487527404972,-15.696498664986295,1.0185841481547688,1.2434730010252617,0.5677260774150154,-0.6986013271893723,-0.4580288783801816,-0.3972923483682182,1.582939532297666,0.6603400553759613
-8.782337357404748,-15.53904000547756,1.2998325071935402,6.220424782247519,-10.439493116512052,-11.966842738356398,-0.9723220910498817,3.764836094422082,3.5999734682401394,5.756868623089735,4.569171227974072,0.918412426595645,2.28686862250974,-3.2458498706499905
-8.559451372620725,-11.477935007461612,1.225827392892711,9.074495758232072,-13.55672913189802,-9.174267313472772,-2.688572289248381,4.542324333006418,5.274729704128916,10.29626024129576,7.328082809535364,2.031557529926552,1.945344529333625,-5.783933232585978
-6.069745662915464,-5.597183048424334,0.0950058339812176,5.092516194743569,-8.653554088232426,-6.957083986768822,-2.304988877331736,1.672677832200343,3.7135673898116286,7.242326857398327,3.98275440871617,0.4815196847127454,0.7597129633358084,-5.173255199743581
-1.1755216629289258,-0.9105166919474854,-0.8393788792324438,0.7536296996994892,-2.540732411489472,-3.6908752639634272,-1.1460459090174189,3.240589139157666,5.059709501671137,5.675925558824845,2.079294108561053,0.392246400158767,0.6779309440448062,-1.3772379295868675
4.390486720992769,0.3205863468153112,-1.5184491972234984,-2.896228849654204,5.083641824665845,1.002027085575392,-0.2018041362680268,3.962001424398239,5.6419463342960245,3.971686381740526,0.3937708287770093,-0.8506827206888614,-0.1655465900245954,3.175261005264726
7.842008663315514,-1.6636362525915835,-1.3747028481172634,-4.18656987199305,9.83054834934291,5.222593114264164,0.6138538891260478,2.0002823518198545,3.1844555261957805,-0.2668276180964134,-1.7177509652000391,-3.0258912170247023,-2.068581333208808,4.864763865199975
7.31684719581739,-4.404678716611024,-0.3599198125157315,-1.3802632662592773,6.640682033313502,6.530375229363482,0.6502544215444102,1.4789379281970083,1.043719580684695,-2.0855275623927425,-0.8202422904418671,-2.715567587719016,-2.896080738225562,2.500506688463349
3.395476995750112,-5.361780826374067,0.3276673716908975,0.6884696618612851,1.943804066457676,4.701235986533511,-0.2625708421591351,-2.3455464494402785,-2.8511212041117875,-2.864326438780381,-0.769148621825967,-1.7852568975678151,-2.3490579534593525,-0.6474234706298014
-1.2222546489837658,-3.9824697457291016,1.2201903218098031,1.3321656845519572,-3.4609751124595083,2.4685242393290263,-0.1246107625754895,-4.574262154806754,-5.887425064423874,-3.269349350687597,-0.9050289372012776,1.6137267617700812,1.0018978767242974,-1.6171280529448564
-3.749358333048981,-1.873137348341663,1.638633857769472,0.642017556615937,-6.952219144345476,3.152349039336116,0.8164709691311749,-2.2477579512090387,-4.416710978848743,-1.1820687970014596,0.1621781561237879,5.43943857532431,4.862294688727395,-0.3422349526399082
-3.4394337349611472,-1.0429879813605505,0.8762836247011833,-1.8412537601382808,-4.349060067211553,7.348341969693876,1.153543770927972,-0.9341978515518526,-2.3816282595100704,0.2139323449572718,-0.2284924714865198,5.364494074415406,4.951467688720928,1.963778328398127
-2.0510941922926875,-1.9555609227683508,0.1589433326778142,-3.2701726642328097,0.0524931556508944,12.016632927230628,1.8049579191522007,-0.6443304784360131,-3.0658905993270955,-3.5500413917439864,-1.703870417082149,3.098452044824436,0.8995556918424874,2.565341871679917
-2.24047846469192,-3.183349196035417,-1.4780635753716107,-3.642892430568277,3.774042379403653,13.05514783992244,1.333759161765548,-3.517488205881961,-5.300709069476375,-8.38038174556758,-3.78143855744016,-1.266142459833774,-5.961017207334145,-0.4640617658767341
-5.20347818633244,-2.86666068438066,-2.816411928055893,-2.5456427773334616,5.312134550840641,9.002364296060403,-0.1661882212138565,-7.55159172719563,-6.977437540391931,-10.16669717647414,-4.92586650657944,-4.796686682336994,-10.311693034482424,-3.8183752057174822
-9.541920451976807,-0.511771058264614,-1.9088434223298547,0.2760806574082965,2.7208428071731583,2.39238401766635,-0.9059409328295168,-6.894382635610365,-5.603397511788295,-7.333509810482849,-3.160235333719208,-3.445777110994848,-7.894459428986738,-3.573595294912004
-12.319146417943411,2.555043188249948,-0.7732696793610685,1.1805182913830718,-1.1511921667352052,-2.4181884573735246,-1.3190287267639504,-1.4762357605289211,0.8993277714667819,2.1307770311658603,0.9797022701890312,-0.1908999295340085,-1.039628298300785,-1.077767594515377
-11.412811823172554,4.4534244047262135,1.219392940382167,1.695512886138577,-3.9283742888567295,-2.799227261314634,-1.3006484373170748,8.013684557915484,9.058838377873288,12.78269658498282,6.099240846309869,3.0671615070136853,6.225052880825438,3.715305030083629
-7.151593263525589,4.539472622441657,3.092684890249427,1.9762633231473312,-4.613624230943489,0.4448970012948035,-0.7234866073351248,13.613881030996192,11.401497362191886,15.386296276371157,7.308657622440872,4.1974533696147205,9.06733025651238,6.966883655556872
-1.84459725394228,4.081273248154458,2.472777012924781,1.1254672298532953,-2.2367880723456786,4.388751591963922,-0.2536130578566573,9.831322899642966,7.442720295499265,9.162836634547258,3.4282092916591824,0.8124822882810582,6.1009235162849365,3.854664865295241
2.324897884611176,5.171809012320285,1.5311941134973472,3.1838015551798406,1.6627367556905803,6.642496395170898,-0.1915746585223451,2.475454779803145,2.502927919634509,0.1467053167318388,-0.4615310839220509,-3.956881646831009,2.0767792867074726,-1.7923153337649909
5.119114864710487,8.771186982644714,0.5810130112871817,5.406276117867448,5.696078963695144,6.8195065591026935,0.0460506647079421,-6.6086508652699045,-1.5742694330819027,-8.046780803158667,-3.683870583945537,-7.890303487313343,1.3229177411333408,-8.391481467902361
8.13661466406424,13.569668279490262,-0.5253618127362328,4.894351744272774,7.470982510303293,5.919687391775813,0.2620635690170037,-10.691501400697012,-2.043860828768437,-9.30773645842027,-3.265907627983414,-8.116131235841614,2.698856937010785,-11.206634967317532
12.905729737726126,16.756606435879476,-0.8724878839417073,2.4616523210283066,5.203727125170548,4.852212597624021,0.3351790136072459,-5.537552183058668,0.516283490895213,-3.1529632676560637,0.9011536393304298,-3.821886216628719,3.585349086706304,-6.812501754614291
18.963862014719247,16.218320207884492,-0.3170472975633323,-1.7749332178588104,0.4423083422558969,3.77401465154998,0.4455796267974219,-0.4271834502870817,-0.4365959647184491,0.9186190717905368,1.4677108621476578,1.528576523164367,1.741236904113736,0.2791781334285017
23.72849753609397,12.407284226134507,0.0289111185445191,-5.680168589730748,-5.694961445048475,2.58968280638838,0.013380938963876,3.0181465118653708,-4.348779059354053,2.0933510201236087,0.1074578008745228,7.267877079937551,-5.666056296603459,8.278005033836143
24.35657796865929,8.233398617211245,-0.1267918856327488,-6.239019849570568,-9.125034105455578,1.5731871690882322,-0.1836917222516597,4.498730604248844,-6.014436566694172,1.5894934685419655,-1.6007994577934213,9.000067950107189,-11.128576954299982,10.95045889221121
20.020719130555275,6.874017095273104,-0.1871760860459604,-3.6990394687286927,-6.980057258263748,1.123579805667406,0.4067989148311748,2.1434355617078835,-4.32467047692614,-0.6356138210995529,-3.4812480363189184,5.58543980556984,-8.866183089136085,6.226977517432626
12.68566353230486,9.190932904774336,-1.3389591168457913,-1.752209211505979,-2.334650554719438,0.9125326104283786,1.3819616167569204,1.414407392357854,-0.1345184892927239,0.2180294730304094,-0.9367188295163874,2.866693942784737,-3.8592855925424487,1.4711820430752258
5.785674776554503,12.920877556710447,-2.6217544362906007,-1.038276078448923,3.028570690873643,-0.405690111937858,3.304318300722834,3.18398235024468,5.7922758519475925,3.340013149632238,1.8373807250986869,-0.5626140013886886,5.019480097081203,-2.938403461563732
1.9613712574442808,14.42562307205701,-2.453717849027101,-0.9040723588281154,5.994330282073013,-4.224255870685159,4.356957709567239,3.436961793710519,7.424607920835701,4.21626851366254,2.12579258681886,-2.684242934626957,10.657574947174176,-4.144339734936237
1.6706740446851658,11.625887034283036,-0.8084529892344339,-0.5746820395844452,4.027971349521222,-10.42669101390359,3.158353601648143,2.2568635448690726,3.61535365005786,2.7580306962706187,1.9794645782257525,-0.4516432926013063,6.640345917552562,-0.1235007892589617
3.567455877692886,5.683902080928327,1.1626954533606786,1.0921142839251627,0.3931792590101598,-16.73614632994121,1.2711631685886304,0.462346344773794,0.1855265461829827,0.1766196909615442,-1.0835513610677951,-0.9625652877393392,2.350893591754234,0.1796932116083777
5.980141661660312,0.0335986179730625,3.3631578710494527,4.333700686060379,-2.1864247918061306,-19.83689796823731,-1.731925197726094,-2.5399939743630098,-3.055188973547498,-2.739812601602691,-1.9607775065124349,-2.1792462210730728,-1.7643034510740023,-2.320410382103689
8.04858366017881,-2.380727772892211,4.30245600061946,5.907420340312931,-3.010593228876882,-17.602727107809628,-4.5106660696896,-3.669060181197701,-3.6615289711688312,-3.3735422537323387,0.8384990269765735,-1.1134455970841444,-4.501801374759021,-3.2798071353286296
9.696617885042338,-1.30288416007102,2.338806097590113,3.6809867210520304,-1.3479598716085563,-10.722061858187717,-5.360175128441497,-2.958287845688082,-1.1023513065823325,-2.1131139440998385,2.171161827670394,-1.5118724267966317,-2.219495627146843,-3.6600263842217937
10.894679523087724,0.9770225423412562,-0.0378306278443699,0.6858425948755609,1.515185275914357,-2.398345621762097,-6.263799177130102,-4.902624538163114,-1.5921043602706826,-2.512294335531357,3.0925527061489437,-1.29056732834502,-1.7815678895629297,-0.004816633420215
11.289441694645337,1.808487079839452,-3.1370078832771817,-3.871469467793174,2.3602837360448974,3.7124621629037655,-7.702397607460472,-8.15144034530744,-3.899446507558113,-4.339299874942429,0.4763553575648092,-1.1922174556098362,-4.58010889932702,6.7218119466570405
10.665434631061885,0.4123666005041251,-5.2517916560359845,-6.591792528270998,1.3287532032936284,5.82351214009185,-6.89307228546196,-9.296933211282468,-5.581690815998021,-5.3676309411347845,-4.434498799060195,-3.129939180872354,-5.992145394766126,9.12689687790904
9.579862563725886,-1.722111108326846,-4.0965543232246,-4.288002384648232,-0.071117917189688,4.934452637284878,-3.9644015451742094,-7.518749991827322,-6.4995163453687725,-4.696193500472011,-6.124249388040696,-4.740955566691062,-5.331003198994664,5.253959946916303
9.16462167749368,-2.445533511264678,-1.338641251780568,-1.3590315523255,-2.418527790385076,3.757233912473744,0.2720146134713491,-0.0521959678592081,-1.625953954422457,-0.3658317611815063,-3.2270625737568714,-1.8399128452444329,-1.2566348036499917,-0.0293166083039555
9.980351716922945,-1.0077660426538737,2.9208355755769224,3.1652211302025077,-2.8639080422738914,4.52350895692538,8.006253639104937,11.160335866555975,6.655825950836497,6.753967961073685,3.712314642779143,4.368577935045857,7.304262468585371,-5.953285121426685
11.01736051899993,1.2571796893130625,5.43677151080926,6.172406791457934,-0.4046389426252252,7.333456608797107,12.30610230916866,16.107335049277808,10.742080592931236,9.965067610173776,8.359608210239497,8.232122176794999,12.142720488685532,-8.69677739141855
10.092653004685952,2.1442116021115574,3.826704917876776,3.878348426513148,1.990202449545568,10.282219174094685,9.859159406623643,12.557664026612809,9.51214408932574,7.393750796950445,6.568912703919102,7.8581065567431665,9.073837206132213,-5.130932405251317
5.646137009427768,0.5439340077019601,0.4861184181602087,0.7152881321267892,3.5872279600951016,11.242063280545183,7.457903284359781,5.8320576006159,3.53598426329743,2.5703002480641977,-0.1326365352677918,2.3331428022275564,3.1344186467770987,-2.3833107622082985
-1.5479785016683607,-2.582686340287637,-3.783241324679996,-3.634982927726766,3.5176577689300403,9.83637772878194,2.0089343799160604,-2.7047089209570903,-3.861778744915908,-3.904970120475113,-9.120225337329424,-5.904846835411931,-6.023685040259823,-1.5317191628803466
-8.427118297068262,-5.043472685083486,-5.775583976754291,-6.368595151467249,0.7623698971421075,7.868998708372231,-3.1406201573355377,-6.873166025247999,-6.779675080682723,-6.946801758010279,-12.558407106429954,-9.432406852944643,-11.433661422336654,-1.051455626108978
-11.672253762209271,-5.287311928071812,-3.051340175721455,-3.590362175852699,-2.071413491925676,7.664317859553133,-2.2041522290535447,-3.1333792125000293,-3.725820933811935,-3.4852643960701557,-6.523575306501021,-5.330029173536716,-6.7508333455594025,-1.4028291512557525
-10.15699782918274,-3.650669078522064,-0.4524904846059066,-0.4226044077198139,-1.917463906053992,9.64355435174656,-3.523010544466874,-1.2231208465553096,-0.1503950973867305,-1.1273222762269848,0.6177718337439438,-0.2868321137554535,-1.663512735600149,-0.4553735256818438
-5.769726499470188,-1.916833521685373,0.7779345151744548,2.7226324521502074,-0.9255028801467832,11.408489004717705,-5.972494821572146,-2.514392585347001,-0.2053611674730341,-0.3762438484776678,6.678552632997426,2.678465724977794,3.50601209894521,2.979441962506712
-1.890788780123387,-1.6498357990444212,1.712267558214252,4.9140936350797535,0.4204883790152837,9.526848505001306,-4.9188662829088,-2.808260406020222,-1.363090717451161,0.9023298104834804,9.41238855382627,3.804827404504193,7.84612873376464,6.032192540347042
-0.7702820846017779,-2.834719473638025,1.5455889155069695,3.2937139965545184,1.5161789606942613,2.7780647906892426,-3.885907593734968,-3.884951145879348,-2.1358030280420146,0.7141104370483103,5.485899874945448,1.786133080053547,5.397185345237258,6.307391945630535
-1.9549918046382544,-4.008263702878425,3.1791955792178985,1.9362195277632197,-1.0553248086322375,-6.013859179169508,-1.8140553251800584,-3.4196129527780195,-1.1103498190069718,2.1816520576894995,2.837811209213116,1.4100102066282632,2.366848547869609,5.857054166414397
-3.0140304641829285,-3.656208597745952,8.120136497682816,1.745743946344413,-3.194253428955596,-11.512936109665128,3.5400688002250664,1.3597993614654649,6.081387775181619,6.615365949368064,2.982526110759595,6.051418891712586,0.7708263593922376,4.508236492253713
-1.904202825629044,-1.5366924374613422,9.94831022644918,1.1675954102653534,-3.1180964538166687,-9.804704401245584,6.112404728650333,4.311944778249776,11.36367541075107,7.543096398020376,2.277776504068908,8.724166665762079,-1.510322706945301,1.9219581935103367
1.016653232883991,1.206961957505822,5.624533313577877,0.5534872797712997,-2.5115440685272308,-1.4800224439656515,3.733204796565358,2.888084360036025,8.270138608363062,3.5370231264277896,1.284717137181743,5.783156172221505,-2.0514390467333445,-0.2210032388636142
3.019387012578335,3.047108201613481,0.1533575945444331,0.4360533898506312,1.5558764960813598,8.784500725283499,2.2577617927902622,2.324064474853033,2.9597842796675464,0.0888255142178932,-0.5362412756995262,1.4936252129746,0.2422618330769795,-1.564713139726379
1.1039417014531931,3.1024286196240887,-8.36644300484836,-0.564937875846435,4.980807651443814,15.75340481256538,-1.296946046422374,-0.1810863028959424,-7.391933424386724,-5.166348376645631,-5.01087285325126,-7.155662107329306,1.4016028400025866,-3.787744207302176
-5.485562021659289,1.3173895514248315,-13.35802804976931,-2.137990479609338,4.472901130057397,17.20407924287726,-5.096883387813416,-3.190356866735803,-14.977171600397147,-8.20728372247432,-7.394415067759047,-13.22419686650717,0.5864803890526897,-4.874353505440663
-14.346110166034814,-2.050080590236865,-8.934170474620236,-2.879166052742524,2.5624485908849093,14.675849535182929,-3.690853861621586,-1.8558290254207,-11.059478377264885,-5.335218765785515,-5.3024436331671465,-9.603198035305066,-1.1297359634956412,-4.092569158641184
-21.36532710894797,-6.7748554954373175,-5.505055355807278,-4.959715171472969,-1.1680626110756536,11.256866542305922,-2.205309087610737,-0.7187506840029374,-5.855007257875379,-5.403694134464415,-4.184696421069915,-6.039430259318424,-6.132662435959397,-5.794282013303643
-23.443334518595705,-12.354931217001548,-1.1762516173217603,-7.6223351569698,-4.19039078972815,8.80145147844891,0.0109659550315197,0.9578019289300772,1.2483290272946523,-5.551281881167686,-1.6263184864948144,-0.7003339536180567,-10.48314450940079,-7.202901141245054
-20.42926132515765,-17.505765388137142,3.0266817944133275,-7.0382491115955474,-3.654206183177557,6.98593014000871,3.151965779952515,3.150445067112005,7.006213591230804,-3.5424251258876165,1.126797709316941,4.470078605541811,-9.210531678061626,-6.104212286656534
-14.902536190323469,-20.327518902456887,2.1077769381759945,-2.795835834262344,-0.8714349811741017,4.455525135636281,3.065990702408285,2.0050383054202388,4.14335345231047,-2.525708077777051,0.4873506614468237,3.0932555423541768,-3.892734523503823,-3.4324293877230225
-10.151830695365131,-19.387388396698046,2.8935313632255784,1.9578896270490689,1.4332340257288996,0.3802458186682642,1.1804722656068125,0.1945452183639369,1.4813626834153637,1.886404375269032,2.070744685162616,2.586691772562588,2.8789500522831086,2.2998739081635367
-8.019140741572789,-14.929975836469186,4.65540635783345,8.460048269464036,2.6586791314979914,-5.140824907067385,-0.8047144155799448,-1.596648821350966,-0.0751488790416292,7.600885763499751,3.851899091966958,2.80724648523132,9.76025334617301,9.216791696201112
-8.16169259175318,-9.08348606575416,3.753153233071731,11.485146013376712,2.4614015746128595,-11.729347082228005,-2.2356089753342747,-2.971160335881426,-1.9656777592239625,8.70187019821244,2.9667318494760666,1.063234792282408,11.22583140266159,11.248676979102516
-8.98589613799836,-4.681142485724735,2.1163032989741986,7.009993112357452,0.3822527285114828,-19.169911030367043,-1.6971685816715452,-1.9543512279720168,0.23978111699646,6.442554904493117,2.349358554967077,0.6765864337840293,6.909371994433209,7.456440309935006
-9.214319285237842,-3.49699750768826,0.4566095546505131,3.220377788909705,-1.3612388814341974,-26.92912359367908,0.8113808895628716,-0.4959302349422503,3.822671883715186,3.780767156292287,1.1807910039516258,1.059358127279697,4.104117443899488,2.962870950275029
-8.78741213780566,-5.225360823486714,-2.199717168487573,-2.131838292473243,-2.9374507561284813,-33.46619087447641,2.7953413368201407,0.6348548388784105,6.643760694448245,1.0681064411109722,-0.4137367076508752,0.4925238874827462,1.0395496623543,-2.0218513915744016
-8.58379254868651,-7.949608973662436,-2.7658847919426037,-5.989927725513288,-3.788820718593809,-36.56951790267638,2.966268006561567,1.2248964664153363,7.764846443234459,0.0857076697420959,-0.6123979084186774,0.6181180975194289,-1.492226860391289,-4.33387639118301
-9.435741219833112,-9.66568465237632,-1.00847195604593,-3.2274567203463502,-2.460678238373985,-34.883506392774564,1.6288032122614613,0.5633482192759853,4.8513970549815735,0.6935383227818771,-0.285710583489644,0.6801972605914296,-0.8889417865692169,-2.228610847593866
-11.315611890171809,-9.637595921861518,-0.9505350288556532,-1.5429092683510652,-0.1824378985950328,-29.280257453044825,-0.7380325426538523,-0.3568823076125211,-1.3877513582264385,-0.9816654925787912,-0.9627223420042568,-1.7615261653255383,-2.453173960533494,-1.4861639127340476
-13.248121719304416,-8.585056506357049,-0.5338411651973796,0.3890961509501714,3.064204374611691,-22.5342736314864,-1.803933207344112,-0.7314301779969218,-8.485622085061475,-4.597860982212235,-1.2407216528874052,-4.020421794444496,-4.077019820653605,-1.8239493197630052
-13.91556359365994,-7.703038585418625,0.2702067303517177,1.798110271886568,4.942169482967174,-17.26905190510834,-1.0936833290486043,-0.0463758128994093,-10.768155849651675,-5.949876374638839,0.1236269465419945,-3.49999444578541,-2.5690151824410243,-1.2410490402029613
-12.51866167999428,-7.446232241171927,0.468413913381728,-0.6261480401557402,3.64778072506373,-13.922190424945128,-0.1784204954964151,1.4714121110969698,-6.67789085305525,-4.396250006167411,1.5473751028864653,-0.5127126998690812,-1.2473668076368591,-0.4504544253363052
-9.364133957106093,-7.136085345380529,2.551190341347968,-1.7732418153605984,1.5356878992323078,-10.664018178687009,-0.0508098700161345,2.5667574066287493,-1.466873283959697,-1.9371019941885643,1.546516463374638,4.168648864918206,-1.326200985513348,1.0728913452517903
-5.791112026300333,-5.688219561960146,4.27416053907643,-2.3498275030649207,-1.1566368827941518,-5.455489651235425,-2.383773254857165,2.508110176800392,3.5009721512833485,1.9011711131542692,-0.2526507407225991,8.506705413076167,-2.2104423274023475,3.5636500174031203
-3.385785955058047,-2.776407655908372,3.3469685262754885,-2.263879294269378,-2.7409310278001797,1.6507601667610956,-4.897196824063024,0.6934613316563125,4.710683526260313,3.588869101552847,-3.306497852891252,7.723309599423558,-3.829204156644416,3.680049280253817
-2.917914681334693,0.6325814012301336,1.300900341276661,0.1610300749600282,-1.7933982502816763,8.209348946014153,-4.34146078124436,-1.4267039599238074,1.3301001503194598,1.667738531084419,-4.424831023339068,2.3923580529281026,-3.667611486299911,1.3005127483631107
-3.7712833393286047,2.896305548126726,-1.025820827026075,1.1487076596564452,-0.3973774577065209,11.473997312763338,-1.0653808393983573,-1.5812185858181644,0.0911034668649786,1.397051361962902,-0.590543104127082,-1.7071981299098664,0.9109406405543632,0.6974698967844993
-4.433905750465243,2.988127120038825,-2.542857567595953,2.440683785692187,0.7780120916524644,10.935556743205083,5.455984441405017,-0.44170796213588,1.0206911470034448,1.6354344102684084,5.623515236480381,-5.008308978284988,7.137206632753079,0.597816615823459
-3.797741501267481,1.3854925021771862,-2.0585055283308265,3.2372452887854486,1.0506321864175014,8.832687175930289,9.75367937904968,1.395566880919827,2.0188615029951302,0.7678389336696065,8.606205346585234,-5.107347197865697,9.519355264683986,0.3121314725168405
-2.208735103877345,-0.2056947480966897,-1.4895507037792686,1.2737085473633645,-0.1320816779250079,8.072752654992115,7.090060899546213,1.925344153391616,2.64151669095868,-0.1449659939431674,5.1884839958102935,-2.32065820494774,6.292011989397869,-0.5830196537115941
-1.2433805380584886,-0.0906417038044509,-3.1844803916511704,0.3463301083044515,-1.6860813386198754,9.55372851079376,1.3528264124639433,-1.4338666461385232,0.4515318892070178,-2.9705357233893706,-3.597804721520692,-4.16407448213981,-0.3183451935281134,-5.630221934568271
-2.2465150063358124,2.2027133262162693,-6.233355245880571,-2.420193015373629,-2.88078966423555,11.524423265632052,-6.702720098760529,-5.536804670033271,-3.773912196617186,-6.984496919460482,-13.273472583197927,-7.11211067252401,-7.90423189658666,-12.56936130764536
-4.869358783802781,5.690058906955528,-7.049442466773762,-4.968726878294874,-2.7542490578295498,11.621379995273005,-10.956140827155782,-6.826966080837625,-5.541501965416879,-7.1837616084051215,-15.0263232901028,-6.994943770674492,-10.222920041799616,-13.732392076002052
-6.9949340872851735,8.802844797645903,-3.7911276285626183,-3.153080555470523,-0.9379547961975704,9.50652509711307,-6.5161905545248935,-4.448154657188303,-3.569395299940509,-3.136887200276687,-6.796744070451944,-4.203296744708055,-5.213356270406326,-7.159855474144945
-6.247738448485592,10.59495017719246,1.6177321182076434,-1.4865368400175332,0.7843817118245276,7.370172292980783,-0.2306690118440406,1.6193272785310862,-0.1731176171010712,0.6404690150779476,3.399880989246794,2.878279983328721,0.6556224547031764,2.34679710861543
-1.8214327456068844,11.28449092231697,8.027424054556986,2.43452559017383,2.3456161825519417,7.714111332190427,6.367051006256276,7.394407796552901,3.8660874540787113,4.92991802386611,12.785994493239537,10.406452957495066,6.5175586487238935,13.47432484541466
4.956129668641097,11.75390732438082,9.886378279934142,5.909852279876166,3.022606316498878,10.65765978587232,9.156446299535885,7.912839134312581,5.421821894223318,6.759174692562423,14.29055754118606,11.091766861088656,8.60850143292358,16.82406363541152
11.727624374884163,12.554002051368464,5.555054966687098,4.021280243584899,2.025950944726997,13.58412985403396,4.571567916834521,3.8647268696688655,3.0979504516913545,4.55502965352837,6.288356635213664,5.7230534770888175,4.025767568358973,9.129148291020446
16.778061031302443,13.372394957948146,2.4569449494316493,2.121543639621028,1.7074997092802937,13.587087311279204,-0.129702673357272,-0.7287747394423484,0.7464441248016125,5.219326645589606,0.8290546095189393,0.8141871593557034,-0.5191199186775526,3.517133337624322
19.80554994043183,13.460605979643816,-0.2177916713644895,-0.8251236560022517,1.7233361742095905,10.265132055635668,-3.620342770477201,-3.831392811636953,-1.3433660190143015,6.587274296173592,-3.448569624918985,-2.8730657642881514,-5.054347674152575,-1.3630382333545297
21.380720137555542,12.569220663810192,-1.371142889815698,-3.212304121621955,1.389399151944858,5.983623999064292,-4.583066226556747,-3.4244152250130586,-2.347252714138373,5.503642867588058,-5.021808136828943,-2.948974503132304,-7.412510250821415,-3.442280256785073
21.990664603135286,11.404783880735437,0.2098297882007578,-1.3255767189357648,1.1922047384080383,3.292604420640771,-1.2707668822087586,-0.6076038733644945,-1.0745338030085811,3.0627778725215573,-1.241763786643891,-0.1199655424067902,-4.618361536785222,-0.0210242897434299
21.7557948416001,11.047419674098016,-0.8785825719791329,-0.0331994000168346,0.0198987876976225,2.156404144275257,1.0924933271324893,0.5103497976693798,0.0669642272015372,-1.816585209813268,-0.6507666392110264,-0.4304305507726261,-0.7467181655053912,-1.4986743560912417
20.90936472982834,11.814766236015975,-2.4932421856345184,1.035065103865679,-1.969834495970318,-0.0704246258314214,2.179481112131965,0.2338734796560712,0.7690796854004951,-7.579769731845333,0.3893346236197465,-1.8835089366959208,3.840447590022861,-4.987913667891809
20.15698960866608,12.720217504146312,-2.627780871521856,1.641629438083644,-3.263255455587196,-5.749703568296837,1.9891943290067169,-0.2955272107106584,0.9365648366245491,-9.011294197530562,2.198582824184132,-2.2719340946077367,6.153784613101381,-5.731274810567627
20.216037857109367,12.216829113731478,-2.4994885782607827,-0.3794497651134914,-3.4710465083234374,-14.007587561089911,-0.3902895948973537,-0.702062614476313,-0.0767985385066455,-6.1079023682181806,0.1767583120809499,-1.7490885293440424,3.962480077535088,-4.828881272427029
20.93698798635137,9.678890060398489,-1.7164711150014549,-1.814045563647935,-3.2029875457125674,-20.784420730585985,-1.987875670807802,0.1430939175188043,-1.1171396967621352,-4.556520041842448,-1.870131725006637,0.3679029325390979,1.128861378832152,-0.681226040588075
21.11183149510568,6.231400977662457,-2.318432603454194,-3.38876868462536,-2.7024277199390907,-22.063779701121383,-3.7032089615246058,1.2469124298652052,-1.6545695852351805,-4.1099741313416605,-6.717549897456189,1.613363800997505,-1.665247538473123,3.818435821351154
19.476461259732535,4.005027610256306,-3.6741190381539033,-4.025834228462096,-1.6968031073304983,-17.332119373475276,-4.443097591470717,1.1264601601364717,-1.2288069057034678,-3.887920697724351,-10.53482277414092,0.4364905601585795,-2.816916901033308,4.165068710063771
16.07966112237279,4.333294696431444,-2.682675025591821,-1.5896763772820806,-0.4804114657560201,-10.036900746688548,-2.1608183273580077,0.3913396940662286,0.2864714553055202,-3.1698822178493646,-6.585782951360383,-0.8121035227962993,-0.7163222683507279,1.672423178472592
12.585464909630884,6.480230726436772,-0.2117718902452443,0.647077384042909,0.7333665846057188,-4.632813919779167,-0.1391815665931005,-0.5201167261097229,1.1536452684261522,1.2295590783597734,-0.7676782337240022,-1.0696063046929272,-0.1433105330467678,-0.6129512781165145
10.971518488257106,8.109893835123183,5.115376196123041,4.266424213057835,2.98267599116776,-2.9674824998944764,3.3996914250134758,-1.3316560572549587,1.5072993425990575,8.592401632638332,8.273454459491916,0.8208532591337223,-1.4113569617093915,-0.7391493854866095
11.690170843160624,7.185029771023519,9.16725848484804,6.357161040818532,3.9279051043365776,-3.2415325933310086,6.293057753955843,-1.077512729277614,0.8526974171692954,12.017442428181722,14.02655699702508,3.651008857239423,-1.7129772996808197,1.1704559398106726
13.046886007805366,3.697042913356416,6.529230498860585,3.348378679993094,2.651292281786032,-2.2414869874189662,4.545008237808076,-0.4006894976309544,-1.1242518620666369,8.447226575213708,8.834475467843669,3.204474678854785,-1.7011725555358683,2.041794549336285
12.538296156181246,-0.2380039345657394,1.609855568808288,0.2022490505984205,2.335258862207054,1.4654108836204855,2.278251782835458,-0.231427995477857,-1.9634621176335283,2.4589158846269847,2.7848911131195644,-0.620985180265818,-0.2488522293771388,-0.0705969573733549
9.062247747893387,-2.0017564071471554,-5.583161480495943,-5.181884331685727,1.185301679077638,6.335047180377138,-1.8683910136874715,0.0968660398716245,-2.8441482755371115,-5.718550865297421,-4.710359423027554,-6.622127240700671,2.9502469050838003,-5.077496159798343
4.0111511319962005,-0.5063854374105006,-9.850804416404628,-8.796632862146796,-0.0162295144221922,9.48778879110543,-5.673563983233802,0.1483439466188809,-2.898344541615521,-9.97886221565677,-9.557388045713116,-10.112668741056964,3.653568704320208,-8.139087611837986
0.1976804817010631,2.92367896238369,-5.979364983577452,-5.557420246235665,0.399501082268026,9.373701615323554,-4.683567398881658,-0.4532099329843914,-1.3090620492274083,-6.421230098961179,-5.658840332711796,-7.243606087421424,0.8456312657971511,-5.493152658085242
-0.4817947777134463,5.440556125879468,-0.8204168439923887,-1.6514879256072614,-1.358679125650699,6.97220525408801,-2.1013954354840787,-0.3320060673385236,-0.7588734881138013,-2.076144670520209,-2.3355758909750524,-0.7448953723985495,-1.2304021609410885,-0.4874023039791082
1.422347482697333,4.665446517329144,4.452217107298939,4.626101894779267,-3.5941031921026374,4.709122555229499,1.5863458472862857,-0.5213688603635565,0.4218358610086244,2.445501823308012,0.1488597249164734,6.682258795827895,-3.5429855354856814,5.45229924037859
3.527540747622183,0.4111811041012032,6.594877164151065,9.254699740544304,-3.556800252252948,4.419349551007343,4.291020275117105,-0.8050910122394574,1.6082331236246503,5.11469901992212,2.324106494317077,9.80131076306632,-3.8705309184647705,7.992393200883423
3.755486947262952,-5.0296185294587445,2.88415139055093,6.646953791795225,-2.220696790925573,6.257090486003818,3.22855250621718,0.2372067483972478,2.062592353645623,3.7150425738880894,1.7438287139972224,6.80706167409919,0.0494011795020801,4.759469060844582
1.9962000155069148,-8.3031331903301,0.270314474054697,3.4941586345606765,0.7961031029973565,9.20900935145599,1.014870254337235,1.3943676872371589,4.83983211073836,2.860031122951475,3.16918675084276,3.4379067834872234,2.305205785621146,2.325565366331406
-0.1879647093790168,-7.310666127162861,-0.4699943496564961,-0.852690681848103,4.727787338160394,12.307309973853506,-0.2346232416786657,3.713796569115172,8.193375649957234,3.7533224990239,7.653107123178206,2.1139337724752645,4.851891311799516,1.6454343732851182
-1.4148506138700156,-2.9045901872813005,-0.0766770448319728,-4.372972038743426,5.828426597491,15.259879550740536,-0.2264298338739758,5.388913852744173,8.543238019352536,3.96989639781605,9.538240947242686,2.3612155982311784,6.10937820036806,1.696466982260466
-2.011550108695218,1.378901464312321,1.7332934459249765,-2.3327979426434555,3.4220496456352274,18.08955623864381,1.035094923235795,3.9564911084269374,5.552109454206343,3.569644983213794,7.11942764528815,3.175247274914672,3.4175167862586027,2.4354340763060858
-3.694497552745872,1.6857612325521243,0.9251728618489804,-0.371182038227238,0.7432878399564062,20.412807272780583,1.4545314904249405,1.1241050639160977,-0.7747316358365787,1.811287843908488,1.7542728855764247,1.190293105176501,1.1082571966000692,0.3725975126654141
-7.702983628434708,-3.1808558999138654,-1.950545481855093,0.995441428769832,-2.488380685420164,21.231173550850485,-0.8955029409437083,-4.045557218427182,-9.38083790590135,-2.698529769240438,-7.559890108553393,-5.13688531753745,-3.4782034988976385,-4.368176869172796
-13.228577750884597,-10.468727131719277,-3.55657672162568,1.9436077495113997,-4.823869534857669,19.537445304364496,-3.455646693197072,-7.624567012900771,-12.837048413063323,-5.864306294713512,-12.755020663666144,-9.397928174781068,-6.54790606475114,-6.735990108864298
-17.739781162059813,-15.199493460290398,-3.180797495527316,-0.4065505513256753,-4.200022006261655,15.287373204708388,-3.9893177623899416,-5.896038303586439,-8.943582259812299,-6.413250535076233,-9.549007801196044,-7.907698421535775,-4.515096908198718,-5.02562068420615
-19.01177881817523,-13.92534805171374,-0.8813730213185078,-3.2158358086715384,-3.3471566770985524,9.918226128529454,-2.9498552309356465,-2.6684064371398404,-3.8524097342681904,-7.389899881585975,-5.6322691780954806,-4.307589769111308,-2.985288017344979,-1.8162513200539665
-17.03981652030177,-7.651255788985878,1.9304823775535007,-5.3989425359756185,-2.1480663190775173,5.798197859333499,-0.0875981596392236,2.175301677187527,2.496353808144073,-7.468043731399381,-0.8187937586341545,1.9369937843662783,0.7204224977759627,2.339652805482132
-14.08498664361565,-1.3689275217658403,2.933171356653638,-5.642455684588401,0.4035618468885425,4.69857705425045,2.0872385152482544,5.543781519818309,6.088970925943985,-5.040276557512334,2.51493565948294,6.115152990481542,4.013291373105559,4.298378786954247
-12.791971222032402,-0.2561333025258818,1.956031732613226,-2.489399889524453,2.2599787513911656,6.259495644999333,1.3181644837868982,3.783691975461851,3.843656553026844,-1.13464016751898,1.2833995992264056,4.315238904635148,2.391971913648261,2.533865341307341
-14.045446790279016,-5.475155711278859,0.4554064549450535,1.7579527925746976,2.1408689812586448,7.800047732030123,0.2343822726253512,1.6835720706301038,2.413161576132268,3.850943467874823,2.4092546555279424,2.9494743552032534,2.7075549972378563,1.836409384413482
-16.42440214440728,-13.10344339585859,-0.2151854556237634,6.923426431522617,1.9808468628076337,6.083430473596422,-0.0391036355240648,0.5439777365010863,2.1577143034937856,10.790998347771565,7.1025884903517325,2.8987977425157627,3.6619207805426015,2.570174648024095
-17.643412933151353,-17.26694488946083,-0.6018408838202498,8.40104032912932,0.6464483413420061,0.0104849366771588,0.2274928776301686,-0.7315836652361831,0.914694252824536,12.013068806959568,8.427131968460214,1.5099663677817563,2.0887637492613136,1.8641774878252768
-16.621151051719266,-14.960801388100606,-1.53839380420496,4.105631271841512,-1.4534385851415186,-7.98428224229977,1.398993233286067,-1.1538157853257518,0.0165118550406763,5.601472673964193,4.594545743921709,-0.6474711566113184,0.2789575440792247,-0.4797954949458287
-14.348669171600392,-8.482045562195339,-2.4519308460095006,-0.3296226036601558,0.0266613951819547,-13.404712917272974,1.9952280033172007,-2.381505025371577,-1.4305459098223992,0.5676255056408774,-2.2113222505131223,-4.550726800805717,-4.244169509929771,-4.467335456400201
-12.876412396226726,-3.3789469308622984,-4.3610984097054,-6.486817958787489,0.7292294653760856,-13.226881612672344,1.057869951042861,-6.634248349433207,-5.482881141027636,-7.753876058432278,-14.37885480357582,-12.273032553156158,-12.20092875686637,-10.822422052677098
-13.395999797254348,-3.697606764450228,-4.459114792414525,-9.29299838105111,0.3578523814028005,-8.605687609960654,-0.0739629592684074,-8.462991879066193,-7.101386830737441,-12.33522913048812,-20.075644817798064,-14.658090173251988,-14.816329886331353,-12.000024081289396
-15.089800376069888,-8.63640254103035,-1.6394848620299554,-4.625235024147568,0.7235312066855708,-4.22539709300267,-0.3203742587758805,-5.039614729534086,-4.377821019865223,-6.798329897487491,-12.467708553251075,-7.829414379392576,-9.295171828952578,-5.529594877878624
-15.6666181912164,-13.3974455696318,0.1706266609064571,-1.0360956993471298,-2.362565613138272,-4.58040117609778,-0.576321874356364,-0.946064678069541,-1.693816561413142,-3.587893274468127,-3.045367848140775,-0.4300741697392578,-0.7843775335081757,0.6341093244349516
-13.08623805645614,-13.296576109111612,2.725471207988585,3.7930865396081455,-3.8844834576052216,-10.280760242921048,-1.0087955155878314,6.263965577714739,4.040924694888707,3.334890786293259,10.84105506572706,10.576073104576915,12.304872504084605,9.147227980344054
-7.130149057868152,-7.477727983438683,3.922199426329889,7.145655851298354,-2.024607020060931,-17.5824770787182,-1.0652653360984092,10.790331854492123,8.360953527034598,10.100787218711888,19.682209787982178,16.14888526008945,19.19922950504736,12.96284491413464
0.2526434564547486,0.7759118336526143,2.665753893540408,4.040918451434773,0.160876705102159,-21.52287972700394,-1.0826652386807016,7.499931885809898,6.760150014114587,7.411465411715649,14.64652378493962,10.054358094349526,13.014900509647212,7.288216851236918
5.96036527034191,6.974407156805995,4.718774411737396,2.6946566827580254,4.587058109303581,-19.880340829070505,-0.451775372020301,5.325867223468665,5.741882801488433,5.789647296911796,10.816760920068772,7.652728598321416,6.05182583477082,5.00354702607019
7.442849761196442,8.793069287203025,6.721770819640344,1.2092036409105855,7.676970439664996,-14.585652499505642,1.6239589178945637,2.166935950582124,2.72043291458208,1.4465513841320643,6.290479998406232,4.739098644838867,-2.939201906841576,1.248497415244885
4.152933934442039,7.1744067615205225,5.83523624680178,-1.038028363897172,5.946232192828612,-9.631439083083867,3.162534389033134,-1.0878050863971414,-1.5395187247807374,-4.712866299929496,0.2605547858251253,0.9414335271668104,-8.832857523558857,-3.13895547605885
-2.0306452113182374,4.766288468344534,3.485335406856082,-0.1563583769747169,1.902467977113948,-7.607647518124125,2.6416746908021,0.0221692856747528,-1.9655998362563536,-4.099358853678064,-0.5550089833650158,1.7830618051319251,-4.721992007471757,-1.945376430355087
-7.730912311105568,3.477941581267189,-2.192677408555409,-1.0459221359291824,-2.7604223561161807,-7.935297180383399,1.5018317550439693,-1.6145048082132194,-2.723840528533328,-3.017335882018401,-3.886572395369449,-3.4824849347211098,-2.3577954406349915,-4.713425760043654
-9.973040808447138,3.2224283500373097,-8.065877521979042,-2.3098396847560974,-7.033876991663576,-8.05309609891123,-0.2881008405732155,-5.165555805522147,-3.6790342728491736,-1.5365967937505989,-10.76730926151283,-10.82981631510934,-2.011920518772607,-7.230520547875133
-7.94757451360287,2.5486011818619367,-8.462876681927657,-1.248776500743752,-6.749256298256169,-6.126931585844346,-2.00500724542806,-6.086629316856165,-2.3589015100416137,1.513603082656298,-11.66335861009498,-10.967082780299572,-0.7634875777631189,-4.150942125541217
-3.3609978072398192,0.3242333710511147,-4.85301786631952,-0.4823147028764654,-2.5176127185974795,-2.7396154565598394,-2.114235670694817,-5.544873082486115,-1.5768255978279204,1.4971858398594593,-7.728810690231758,-6.953033377550971,-1.5403168157690068,-0.5097192487542104
1.0294146728827371,-2.9518730591565685,-1.8234417425043543,0.0514404073057688,0.164524329372362,-0.2128004072532832,-2.325615755826568,-2.7280991947682702,-2.034698240477622,0.1068983105576031,-4.97149832707495,-1.106279096902488,-0.4969505745292734,3.94858271831328
3.6233516423012446,-5.181998406088226,0.0719178243663848,-0.1179871747769019,2.81471181918971,-0.3815495845751542,-4.018178406543424,2.7856647348580896,-1.0030962341180012,0.1906740470305812,1.5252765876722378,5.068500670521638,3.984030889070073,8.589259180800783
5.066775922928997,-4.062230743437738,-0.02327408933187,-1.4718180169879154,3.3505634359460226,-2.8447466687818235,-4.626632536767023,6.2416857148787255,0.1645181650853323,0.4639101085859708,5.646584597041684,5.337039960690844,6.125937653539262,7.132445499277231
7.219394484530426,1.079172040577589,-1.031019487574838,-2.0206280918592645,0.310043191165988,-5.133478266195766,-2.9687329356879206,5.158131478633501,0.6300458335427206,1.1329517577309327,2.916569651720672,0.7522065059131013,4.568209638698993,1.0948894762665775
10.925000979446622,8.348350951849397,1.6470090875598171,0.587695787702563,0.4674755764559126,-4.605502926898026,-0.0407662807932023,2.841852884682388,2.487586251247395,2.576088776513357,4.646835004108505,0.5052512361633514,2.4156109553225678,-1.622734845182707
14.717611125798784,14.145931132870714,6.6139721652842685,5.074964017010923,0.8565743030463164,-0.57665423965625,5.902721437255202,-0.5788662825069617,2.829746670794217,1.9302354813123184,5.3191503271709255,3.024530864131739,-1.4959241200795084,-4.265257932751758
15.80353016219624,15.419454838013737,7.819261215980563,6.25804166976962,0.0231595803304918,4.89434782277408,9.045442859730704,-4.2271038780636845,0.8286128605540286,-0.6661505465849673,2.030428974343136,4.344092640441969,-4.319575271113964,-4.494844603153296
12.512138204440587,11.683482097253716,4.127464398880323,2.5614270459895594,0.5078047404921017,8.146971733185694,5.315741738573704,-4.6234300889511815,-0.7227785585432559,-3.276880113612318,0.659123729032319,3.863707234309958,-3.949362478842654,-0.5294158262466842
5.9687413016121695,5.189530888696822,-1.677613537172586,-3.666797340623418,-1.5117228831382603,6.249331727249171,0.7973675216692724,-2.8503788040974207,-1.7184708628706848,-5.814842292717053,-3.384451982395627,-1.6263838697062465,-5.0957681469338985,-1.9857660346656407
-0.5654080046921877,-0.8977365919942599,-9.088348295886655,-10.954793184081298,-3.159957547771052,-0.9961070773589428,-5.664729120011716,-1.61105504548108,-1.7272819981797531,-7.557842452428139,-8.041094988409043,-9.506210637273544,-7.781729952432352,-3.3636680366627014
-4.0884255246890575,-4.739994541181034,-10.66180314763248,-11.586623970597357,-1.659293325431367,-10.677133913774242,-8.709608113637591,0.4609255333063743,-0.1386642405311973,-5.886265465896932,-6.892857846380687,-10.902541942640308,-7.9154305848550095,-2.1202050616403145
-3.861671095638485,-6.579052605239951,-3.912522767437216,-3.48087005857606,0.6545406134367622,-18.289356367172783,-3.7492338633266735,2.3353651093674346,0.9367399686838748,-1.8368228644220417,-2.267439512883812,-4.499597783997144,-4.716491573318965,-1.3577427171251737
-1.4109040446222707,-7.557193275225927,1.1711531208828885,2.706358788514707,2.447233162270179,-20.1986749751145,-0.5882478867517809,0.6769458876513597,0.5321054288475386,1.6687497862246776,1.7423830880981324,2.655894122465934,0.9721368591868697,3.3672150624319475
1.1485056396247728,-7.997293849082894,7.058539779576971,8.699017990437927,2.357918676101769,-15.529589488616011,1.9151770519734792,0.8962181659740562,0.3969757533074827,6.712908646473994,6.949614352345659,9.940846100113964,10.202559457471995,6.925052415037074
2.7143030697064887,-6.956225334924397,9.629012949242002,10.527248546605549,0.1659967585803293,-6.41427342291172,3.316536593639099,1.8744347792469216,0.2741839216265836,8.716888083274952,8.632959218861567,11.135657806691082,14.365314664023774,5.294413946347413
3.369803235799054,-3.476838388656688,3.7972045355168222,4.126446847950828,-2.1153148891255635,3.3416200641290743,0.7986619709744184,0.7478259649413972,0.2493906921920667,5.887395010448997,4.15931404911245,3.5310094885637278,9.158930596270658,1.4459179998515252
3.4015115670935074,1.8090462689631293,0.3893545323698439,1.9674680286108144,-1.62793418766898,10.18633574293176,2.275710579071877,2.915369291264283,1.2997932354130144,5.226208081486428,1.03326394106748,-1.626056817223284,3.524241849883045,-3.557576444859212
2.5781871023793883,6.464357830150561,-4.98896561123628,-1.1224320063719446,0.9007035213892536,12.238706170425983,5.800287195398312,2.3724623100649254,1.2341279021939784,2.714449917936957,-3.806578097770312,-6.932043010003554,-4.374819514039508,-7.064357037395656
0.6340421190079724,7.811714767657691,-9.65010268388892,-5.110723487419834,3.173691208332844,9.706870750587314,6.336403930220282,-0.1675223321740822,0.5087689133861311,-0.3635132089096292,-7.08853980255547,-9.148857987540058,-8.855222384798978,-5.752674484394942
-1.6175027709555252,4.955925012090461,-6.090236611860477,-3.5881238704389915,3.0149486157450545,4.497858659175563,4.436242844804859,0.7242678898820222,0.8916116188648258,0.2859768700669092,-3.515377403743668,-3.535596596281707,-4.229070663195902,-1.6907153523620564
-2.0249485198706907,-0.4948778591641485,-2.797655023582569,-3.915648465350016,0.5543052637820743,-0.5895599257205504,-1.1016652257744803,-1.0801838975773022,0.3675464185620865,-2.0521817622353105,-0.651271137249504,-0.3785692388827214,-1.835761935647374,1.869624021066785
1.5302220921316805,-5.572458593051806,3.453558987108068,-1.229512935737708,-1.9204415584945864,-2.878350581650011,-8.13269169033704,-1.244110821119945,0.3785013969963915,-3.963953842009284,3.63828040209171,4.524455824026716,-0.0005678716466583,5.171357295732003
9.055241786974191,-7.903557118070921,9.093475435194833,3.908386428221704,-3.538594176725,-0.9050606252981196,-10.065780692533798,-0.2934460316640324,0.2922505915809863,-3.0373962865027724,6.00270339921066,8.0834361925428,1.8003646666792568,5.15581529897899
17.578921323276745,-6.897160505349916,6.572419296046329,3.972221065782284,-3.056123606066509,4.780772913607791,-6.0667942656436695,-3.1690825202581747,-2.091271117142287,-3.876590509107472,1.2730749562301942,3.8124698373148993,-0.5669012034947191,1.9238755420340312
22.61744147962787,-3.4957371641993973,3.981346846864228,2.399630021719375,-1.0875691516206465,11.704334863747365,-1.1681793867390378,-3.306486962335609,-3.750553103633073,-4.483346979760482,-2.4580714416930647,1.4749630113662462,-0.245748122326731,0.2146471813874725
21.12686386594362,0.8623597875805444,0.6816962987480862,-2.196903429305763,-0.7809390088549507,16.71800296295703,3.600257017610028,-3.9652861310426655,-5.72245004490748,-5.897272906754333,-6.823322118799972,-2.6292634928526946,1.8529785364851863,-2.2921479433783127
13.722580448203416,4.993022280662217,-2.1815371858987023,-7.113936982227389,-0.7755466351189295,17.85932048795189,5.068626738905267,-3.864646580520199,-5.516841170376543,-6.818074066990628,-8.325671802291899,-5.9094809075104,2.120446880651628,-3.664659722560113
