AF3,F7,F3,FC5,T7,P7,O1,O2,P8,T8,FC6,F4,F8,AF4
4.583139600999603,0.4162345832470731,1.7750099063774187,-3.464354710762061,-5.468367976101081,-2.117776132699499,2.0033800367199355,1.7904637120639126,5.264557270331338,7.306645887189655,2.005089750989853,1.2106677123346294,-1.3885566485564964,7.944736843646164
0.7760399385031773,-2.5655087384883988,-0.3982839264350241,-5.6808682203622745,-5.553528086103689,-2.0158954500433395,-1.277585082117497,1.9409819233871344,4.164274111573984,5.685994921541749,-0.3931734953645364,2.005744678113768,-0.828819407765253,3.3719149486302946
-6.154066637443338,-5.805467684437852,-2.83642010242608,-5.6942089691914894,-3.189490216963275,-1.8769533404490888,-3.35796780572457,1.8287553062646964,3.141203751777676,3.4540362548241923,-3.006779776624308,1.7264756228376417,1.16838040319196,-3.0150311416146867
-7.606323406009207,-7.493339517749597,-3.6139756118442095,-3.9045729708072585,-1.4106182712650663,-1.4638140307007272,-3.458179844205617,1.436879578561138,2.2500881130939603,1.9086592302291816,-4.258531911375789,0.4932082955637629,2.6498795135028184,-5.386136890248923
-3.1720396764627896,-6.767477840835976,-1.855866209986448,-1.3335342358039526,-1.0604169851322465,0.4351217108126058,-2.0543930825454098,0.7986839826952128,2.326813329277443,1.868078951968343,-1.987369504846151,-0.8999502477216694,2.374229226785427,-3.100834248178379
2.1705013738596723,-4.248930961619983,0.2918282933256874,1.0486058679942758,1.5098795270077112,2.677065316071079,-0.4614948544031598,0.0274075247828946,2.5520514037606583,3.063930351458879,0.1150251850656468,-1.5628253216715038,1.7697584183458857,-0.7311385815742222
10.498860648917566,-1.2888475296742428,2.1300356431497005,2.608835366570436,3.649206333688794,5.143183925633135,0.1794767918179651,-0.57965858748614,2.874582090521808,4.4260680452921655,2.039248123022081,-1.1211997368985749,-0.0825731900364458,3.2232703900293247
12.95841079057966,1.201212175638112,2.712397378685537,2.9907339918827525,4.8148084012455445,7.34469817082756,-0.2823655313501945,-0.5816952517302454,2.485276127484655,4.984469175629659,2.8574620131559656,0.0852454488638585,-2.248196401645326,5.151387497903756
8.443852629752973,3.1539504955078854,1.3921392810688984,2.0920660292357383,6.166803023117742,7.418508983334943,-1.02288480501948,0.2823719415657137,0.8253309518344314,4.571657320272969,0.8945264562408741,1.3181088799314151,-3.0295659677174114,4.2831481875078765
4.813363281492515,4.714665034335837,0.5330959097296601,0.2882030635234756,6.390258156970736,6.928365968621816,-1.0588643186110185,1.6864019303105096,-0.9366725760700804,3.7330253793072856,-0.2855754867138459,1.973960309464189,-3.2880915088297287,2.6762670875845087
-0.1448316855145379,5.471957684285293,0.5031532852746554,-1.353451814521307,6.172994067347159,6.481900111709558,-0.1842807444638481,2.667376718469825,-3.305252959411773,3.0339108609398515,-1.0380866226100935,1.9197204764731095,-3.3942654363200617,-0.8413676368312687
-1.9159828123068647,4.614523343621535,0.6205434300696596,-1.3457942473257989,5.987517190150225,5.164471424555166,0.7640733513446101,2.1769931177171777,-4.873716743044546,2.5093226591543925,-1.5621100816925677,1.4338673840599192,-2.410631828847736,-2.8456850020393825
0.8583968263072856,1.9988010231733424,0.8205988489618832,1.3043422819339128,5.055488565547786,3.9294966328141454,0.5669874020194783,-0.0814392155719474,-4.853987786676777,1.779361798722494,-0.8458498339884793,0.8899817594119348,-0.9738053894498178,-3.110483945658492
1.677589622698581,-1.069047849125269,0.1872941225511057,6.062019630515618,3.416835885791789,2.558372363264323,-1.3079596379709493,-3.245796420985041,-5.006729214518914,0.6131448363287788,-0.9050088949513916,0.4837549245316772,-0.0696302657995128,-0.6192504108169736
1.8129652873448543,-2.4617229814175587,-1.3477046120757696,10.648435020213585,1.1364241473224992,-0.1505722002897832,-4.121194047912535,-5.777813582574982,-4.432559667871975,-0.7318489996107189,-1.0672143907727318,0.2024534885384952,2.127666939681821,5.768997649295195
1.5420378153471874,-0.988556033077458,-2.181496639124162,12.1985699486373,-0.227722927099136,-1.5060953466433848,-6.293775620818323,-6.523201527516537,-3.4431670115498663,-1.7540490919225815,-0.0850113595880833,-0.0096486304955618,3.919871407877114,7.994915809855243
-0.1440150889127638,2.3255180856808657,-1.6700236915149436,9.248587731975556,-0.4860896024354688,-0.4206811546082825,-6.5533869353903285,-5.45677944908655,-2.5465390278080764,-2.20220244164074,1.5531124948979356,-0.0982991432564404,4.146663200669964,6.1754602536533
-0.932117350773306,4.8212969423720935,-0.8275388169941218,3.0696398404507192,-0.6712927842093157,0.5732398079227053,-4.868146664717443,-3.470174654871432,-0.6629731007775052,-2.221379951581124,3.755588482689136,0.0719338325002425,5.477916778940674,1.874294771467276
-1.0231540912199757,4.3245742802763765,0.1457490683827058,-2.9173149368246065,0.0764575523412363,2.8806623841448182,-2.4006254496641404,-1.463977945472628,1.6887911945981064,-2.0215709747817883,6.381514023982779,0.5404682944214692,5.599300226426227,-6.890984758115493
-1.6477489353975374,0.9591862099149822,0.5467511724426575,-5.450972389126704,0.0975067097143125,4.234123042977695,-0.5453361161555499,0.3299300636010649,2.541656859821029,-1.5722212956639687,6.320259216667725,1.1244356457199984,3.2042076067478886,-10.328022168183717
-2.4441867020516685,-2.981954950618441,0.0212202161446986,-3.738399059151402,-0.1157226317176586,2.4314489438411107,0.1062560849491234,2.1463772254437536,1.3487201210388582,-0.8229749347498796,2.9994267523039597,1.504467936565014,0.364400523883431,-8.115150291266566
-2.4257034160952964,-4.974742310779639,0.2452147394131841,0.100840563307436,0.813910387780824,1.054211556245699,0.0013844278616588,3.917320380903835,-0.4862473994577449,-0.2543059601222808,-0.3737902451463428,1.4566538196389196,-2.990881803760704,-5.974696717901763
-1.639152300826456,-4.261792993820457,1.3410720499098832,2.7982442766029223,1.0094691147455912,-0.9706074785309966,-0.0519678219623358,4.875290564493866,-3.492133242176015,-0.9745700477897224,-5.023870132188728,0.989786592721238,-6.175236609858654,-1.65434109136991
-2.029249953969937,-2.2098871763091203,1.8315250222388164,2.40087133770027,1.3475968327285397,-2.4886383655411364,0.2393233476552581,4.078316642671954,-5.452547456830532,-3.900793148269681,-7.47093868835331,0.2370791794240183,-5.691017924690776,-1.2919187554266978
-3.529232329527787,-0.8947657591235725,1.2612746946641078,-0.559181027121447,1.2650763463869876,-1.668474881695274,0.4223321282276053,1.385910500585922,-4.926502073719672,-8.583830204910008,-5.659594834308898,-0.7502083052154447,-2.9171918915303525,-5.826297088656583
-7.116777960935755,-1.316505229931412,-0.2479756248236161,-3.9252469357710496,-0.2063299203048227,-1.402830336668499,-0.1204993772869542,-2.138572711687349,-4.917546433211936,-12.890285472037004,-5.517503080736711,-2.010427624249555,-2.7831252879778625,-8.66925953513698
-13.402549139815513,-2.7896325412134786,-2.522725760668123,-5.793315826098162,-0.9987598910982446,-0.6616060214557193,-1.4081384180455745,-4.896134344110386,-4.406600825195498,-14.194357550050828,-5.027638463214803,-3.417470991894966,-3.0022299699128965,-11.297639158958908
-15.333467223337736,-3.839232295307984,-3.0270321267696256,-5.752101824440409,-1.6989897524959832,-0.4060003408764072,-2.6943058210356963,-5.918065402332932,-3.6915604637776736,-11.33844421954758,-3.1123355335675984,-4.493678743299689,-3.1805247982816165,-11.420593230031113
-12.803227050914163,-3.605813205765365,-0.7533186467983933,-4.686038793371919,-2.6382484010910723,-2.009185116244669,-3.062339295760207,-5.454492379358356,-4.3429444700496855,-5.727914887670291,-1.664450834259961,-4.65905121670237,-3.240938997020997,-7.838250609066724
-8.900177423227898,-2.4786485599395114,0.8624435821257908,-3.678736568805748,-2.763534932933674,-2.988549857962377,-2.202785845753322,-4.486060555465054,-4.208526622866545,-0.4900679747413328,1.962486672416993,-3.808618075693495,0.8995558482475404,-6.342909062541894
-1.9296187138160368,-1.5342126294837932,1.9872678185605788,-3.1408118228315107,-3.411855890095929,-4.58640728912601,-0.6473201551817507,-3.701673640884856,-3.68226760441024,1.7517387935210866,6.907134674042492,-2.5950268781206987,5.411137022542592,-6.2712660484244696
1.3829576537693111,-1.4584933620030451,1.8286691746402444,-2.8068896716171388,-4.358418874417911,-5.53505837772234,0.7188002855232885,-2.9365547035667827,-3.137931538825954,0.7206606335481425,8.430800859462051,-1.9263048364098072,6.481563474170486,-5.575758205881977
0.4497110209045865,-1.99111013477266,-0.4695701922394904,-2.36134884433579,-4.331337215645262,-4.009646140095647,1.3784172720771275,-1.53256417582954,-1.1027312324099463,-1.5283516496303395,6.340501374988905,-1.993583726047124,5.352963180092195,-5.238232562147169
1.059531776261872,-2.3242428188542688,-0.7244391959179898,-1.973689163793072,-4.4878339482116765,-2.7568250363001265,1.494244051496282,0.831169153797771,1.278106340823699,-2.3995404484803924,4.1139617202795264,-1.8078191126458172,2.934212969861673,-2.019337647479671
1.6628866430747296,-1.9648950417717488,-0.0694110596156476,-2.2217800964308543,-4.652109129071821,-0.7500965588260953,1.6125348631151577,3.67567489610301,3.8186600074027335,-0.8050255503006123,1.0474238923211263,0.0854556276629008,2.318013491438799,4.459713645463868
2.834648848900257,-1.1954327227845338,0.4025197354617464,-3.465192482039132,-4.001358937077822,1.1383868768674912,2.1153322898584,6.028299043041104,5.473314915549141,2.159857379459852,-1.0192238191644378,4.183098947034096,3.343960254439573,7.762751629783556
5.34834699295715,-0.7331137645228218,0.9380194090429628,-5.224072600932836,-3.640685812778618,0.7950801600252463,2.929507734673048,7.157104859754524,4.538162014432262,4.321468116407182,-0.931550167116748,9.200409565747428,2.808959289780973,8.307562279658432
6.545719273810917,-0.9838967087636236,-0.2862377855153759,-6.1739070045295605,-3.2241042160653963,0.7339625168071988,3.68006717914108,7.061971145508011,2.9514767255406222,4.263578436611391,-1.557987628832712,12.743714308436644,0.8451995662684237,7.614119999847667
6.684424330410358,-1.6230988567382187,-1.461185187685346,-4.918286518326653,-1.9612090496739367,0.6467974332935944,4.060970501843338,6.346034787632775,0.6163589606183688,2.3616224426587493,-2.64718606236638,13.016945358133189,-4.42608761341944,4.287718440401138
6.821142246438157,-1.8518014072556768,-1.8470652064160804,-1.043833233707122,-0.9834357828194128,0.3084974307121097,4.0701314619686695,5.65388346882456,-1.2432015618042662,0.2710197657621371,-2.9986676180199763,10.113978625084489,-8.308578670121305,3.0428859288874635
6.500903982799926,-1.0244581237720762,-1.5156088570492037,4.377588628209772,0.1223484733854548,0.8512840736719496,3.955817491150996,5.176085360249027,-0.9501827352332496,-0.5561343106401822,-2.675185688944953,5.81788505104336,-6.030816784069952,4.015377728053604
5.627012616047697,0.9204744906444732,0.4369552456808044,9.33052617650768,1.8313165047097213,1.1720547908360834,3.989006792500767,4.598885742232781,-0.97170126844352,-0.0098032479299909,-2.5028239290487124,2.189125036688477,-3.113209928758644,4.061301720946691
4.238531013838885,3.5034642969705665,2.0147479997983115,12.108250079489544,3.2373969579473485,1.2136761139528671,4.264302472218311,3.4883130954675075,-1.0096258194142995,0.8072724031769738,-1.7691873160265708,0.2310917978524429,1.2113174402679432,4.193856685423596
3.6350264729646944,6.05252171849704,2.35595391315081,12.340568037478857,4.478700001007245,1.338435592223414,4.636038189503235,1.766900201190314,-0.6768044135319963,0.7631496685527992,-0.6397656377083907,-0.342234680548156,4.1451138374761625,3.750432472100645
3.924469354351409,8.036742958852486,1.6951775320742055,11.0431299856779,5.140433020349239,1.590828330636041,4.78791692435313,-0.1117283021503112,-0.9526519932066242,-0.1800827990986704,0.4510568531019828,-0.3478424525308021,2.3478958734008746,2.3643291233357644
4.846746151356865,9.218214311708667,-0.7501972521324254,9.747418892389923,5.298266270419755,2.1224832133357063,4.407574373002412,-1.4390642762134362,-0.7396074228970827,-0.93491347684391,2.210756981856794,-0.3129936743001593,2.514844793374836,2.406851295802892
6.803293545442495,9.63336209111893,-3.138255287367624,9.459914878550189,5.474489110720993,2.5278825763389707,3.432741990741832,-1.764234319956877,-0.0047245530127029,-0.3943492332317788,4.4604079777931815,-0.305575540207009,4.8440607271008425,3.7735289126789766
6.732519883928609,9.449992956778566,-3.305873350208951,10.17320767805495,4.79390559110815,2.620122102264595,2.250314579919241,-1.2253193995616272,-0.1692636726311321,1.3111158898256576,4.701731052777239,-0.2883180594579499,5.078374404207898,3.4975155674353786
4.4801871333080285,8.755846884206548,-1.2713322826474855,11.06037952029289,3.866940761659871,2.455498324804023,1.6302013137989135,-0.425517239562204,-0.9516730540189036,2.574588810776937,1.9255442455906613,-0.388397685577317,2.0163761665060687,1.8626876463346884
1.3982708226079803,7.422883630469897,2.3508382790984266,10.981610608762985,2.8325988418501327,1.766282510834725,2.256584384568057,0.0278705040687015,-1.8800489778725715,1.422751114345289,-1.4793234294810356,-0.7778804798469992,-5.350053483060647,-2.861289512509887
-3.30306639135666,5.231458903678323,6.072792237711108,8.95393375147465,0.4717306614870235,0.8921588092290773,4.053997638518887,-0.0872884863709728,-3.5367215856276166,-2.8447581580035437,-6.487420430771226,-1.4557667096148066,-17.424435891187436,-11.528322330703894
-6.074477817024106,2.2387788640173483,6.573041667688438,4.551702893013008,-0.4755770532578716,0.5380790586993214,5.849150360079506,-0.6055350581953007,-3.781158586016041,-8.805819423149863,-8.371603940901025,-2.340510400903753,-21.80810103088794,-14.611594762760465
-6.628641726343427,-0.9317948957203512,3.6299932398781607,-1.7017986444271995,0.1049981334247618,-0.2634856857612657,5.855156142483949,-1.2808143503113811,-2.5184069355832293,-13.600391483514812,-3.7026866109867775,-3.5963599206711407,-12.159953316233024,-12.090216391662567
-7.633674487851217,-3.2586735711955086,-0.5797633584880759,-8.161080985755873,-0.1450985793059709,-1.3701607669240488,2.8795462721669693,-2.036583999304767,-1.4385767941547,-14.71049170350522,0.1412229326374272,-5.67593026921309,0.3181189441185053,-6.73799393441438
-8.240245413169633,-3.948847762983995,-5.293529606998651,-12.520944622986477,1.1983916619491068,-1.9495311770830976,-2.5546804162365504,-2.910032582976207,1.0255466109270164,-11.549355246595042,5.242932524867223,-8.793280896420612,16.91050810244319,3.806710181696765
-8.999205790133717,-3.048636596149059,-6.900066937449972,-13.005630126652164,1.7107070619219094,-2.306768179294081,-8.150669402724162,-3.8226473343912986,2.54231578842868,-5.724222287360554,8.23483046424914,-12.27289472568512,25.20319058205149,7.865067905339078
-10.21867225917565,-1.492046228792944,-4.81935966951541,-9.646206772316836,-0.3365515341132806,-1.2178832886503357,-11.12428227821048,-4.506918297893975,2.581654915439845,0.1478903528442643,4.131081573793319,-14.594292286820128,15.989703362022016,4.804135006769044
-10.451325486704595,-0.4955560193299959,-3.0487355389399147,-4.597796552699805,-1.1103050730781197,1.176064177552815,-10.034134530757356,-4.705535851212495,3.794063047611867,4.117977401370467,1.8645996481376628,-14.396126711701406,8.580257777617081,1.927491231362281
-9.839494008828368,-0.7695864167681918,-1.2446986874359358,-0.9570173132966318,-2.7507874378850925,3.585422636671424,-5.801159675215217,-4.400623749449167,3.990646921218717,5.836025992454559,-1.1121733301869368,-11.671672086378052,0.0942098595850969,-3.544109457995363
-8.059894231311883,-2.152626318396777,0.0723667705211546,-0.7255045816173222,-4.396342378578086,4.6369413708163165,-1.101951363404062,-3.779789983830021,3.475977323881924,6.19406704328923,-4.228055969392159,-7.981932412165982,-7.187034781887666,-4.94389487271958
-4.7682843149880005,-3.889810085200885,-0.2705626950740338,-3.427007422070652,-2.960612453033665,3.745646725589122,1.4337194223977434,-2.983389791299345,3.067876322598409,6.200042376796539,-2.9956511471169245,-5.3085658087086784,-5.022654789908621,-1.149481724353571
-0.8336428702327925,-5.253093292472357,0.6510127158382952,-6.534859884798927,-1.967799784497616,2.0258343672122034,0.8729598191470842,-1.9809437908393264,1.0773026729451982,6.1250438653598565,-2.2153249617252806,-4.476410596060781,-4.937794396479324,1.629294871916079
3.9351273519601775,-5.987873372245673,2.6183620442518034,-7.453185576426719,-0.8623608475584822,-0.5858429505930011,-1.6977502938813984,-0.7893841500650538,-1.3764050119034523,5.552723689645553,-0.211159841622989,-4.574142736748335,-5.100976904815437,5.1371332050505645
5.742997352622596,-6.283046378539154,3.319178825389157,-5.48516609205636,0.7444419607743458,-1.9245195342515264,-4.258582904611309,0.2203618972904806,-2.303502521470081,4.071672770386257,2.262305904701461,-3.9087306846760086,-1.8526243520575032,6.511821561157537
4.080210285463691,-6.374054647787119,3.6096947047272834,-2.205325821613009,-0.1586705741531826,-2.016053009263413,-5.371987081867502,0.4020037509465624,-2.193195995920666,1.854118455061716,2.026691816720733,-1.5830610251063746,-0.671573030508058,4.762116143682468
2.651291431018074,-6.172533800268241,4.111212699590229,-0.0103326235450111,-1.317706897896142,-2.9036800636779274,-4.965261799610147,-0.5886432769002994,-1.740535459375255,-0.3581550162610867,1.2839827069232308,1.777395446347839,-2.18950022307884,3.4576443934525294
0.4902132937881444,-5.275879930680723,3.8086389050274776,-0.1631951020638098,-1.853993500827335,-2.8770355907900296,-3.95483492730731,-2.2171730259859714,-0.3105384737522919,-1.6957501975654594,-0.3486711189368396,4.747780815288799,-4.486407613211325,1.677226365268018
-0.1429173929016993,-3.3818877341960274,2.589857910805136,-1.994969412290516,-2.990053029856562,-3.033864570155712,-3.2416855959834194,-3.162361509687223,0.8224202869719935,-1.5769327206074806,-1.9132373868047836,6.468072030019826,-6.684053265528847,1.089349582578749
1.4501208527042886,-0.7557836076812094,0.4826268521381899,-3.801696018033425,-3.205440467694811,-3.404584504366483,-2.9942037429181667,-2.199183717713119,1.7804017596952042,0.112975041646024,-1.264642890003728,7.296357882042152,-5.163586503847856,2.2968982686563275
2.045088275366184,1.7184717852240396,-1.782837431624758,-4.456795111564354,-2.9538379182805103,-2.3004607561527286,-2.744084449604948,0.7703790479140906,3.763506479615876,2.959395998505265,-0.125624379269009,8.193342210762268,1.8496741181718117,3.1816002673373047
2.298382523961332,3.0630846038304327,-3.750330741372804,-4.24342818828622,-3.5519809768391237,-1.5378454109806377,-2.0731292570999784,4.406896661232992,5.808837072517683,6.010660431468988,0.9220215469974412,9.541723013904118,9.58272179443577,4.2952926452593365
3.2815092094245824,2.9485859651988875,-3.9044189752437695,-4.2829449802831405,-3.4096428647115133,-1.2245121863519228,-1.1962406907390497,6.66749771556734,6.399686022359297,8.034534474665438,1.5410337383905572,10.58805279845794,11.896299022474423,4.29561831550512
4.606085107211479,2.0246859741232197,-2.4854160516191177,-5.261083455804478,-2.254530867699345,-0.8897155251872992,-0.8808248736256772,6.089756729506192,4.887081293254072,8.181180486771495,0.6761495263103322,10.028591934021762,6.9240402787828295,2.7921960099451906
5.761579427384826,1.490740775051215,-3.120583137048005,-6.6900596995364765,-1.246804157158556,-1.2092986015803366,-1.7403924896367435,2.7370848570760486,2.384105770158898,6.683206776842873,-0.4682267314467078,7.186542091181781,-0.8008822644965334,1.3175216929299134
6.804938672722332,2.1931196782194853,-4.207212147148799,-7.309362909465133,0.6506870481223034,-1.4393244034544066,-3.512119718416109,-1.8012237192042733,-1.3063900523596088,4.867527917649511,-1.1279611163131047,2.7598626968851647,-6.7704654805034,-0.5447725094944258
6.570529770477351,3.96029402709854,-3.726686389888978,-6.157421356272323,2.018375600361362,-1.2114737077961912,-5.010759082124025,-5.3226263617864085,-3.65407692813315,4.190142855272761,-1.003370467051426,-1.4442009779098406,-6.485886456152427,-0.7983438573145512
4.809661092425502,5.707186723636699,-1.572408091771078,-3.3411795874130483,1.6871099687093691,-1.0489343114333338,-4.936548888123962,-6.275672955651531,-3.0303211550630915,4.972854079459042,0.40389610692516,-3.544815833525549,-0.6888863719986635,0.9370941994293406
3.637014536542475,6.213568476542029,2.6434202810259344,0.0730611032171921,1.5767124572258635,-0.840117039165851,-2.9690153989716173,-4.644440779749166,-2.6724347088952025,6.009691780277995,1.241547079730206,-2.650178115817212,2.684813661680089,2.491039726884574
2.803805446111662,4.963796372068203,6.922170668370497,2.8292947741480168,0.9664238202745172,-0.5436334436488969,-0.2232254795969428,-1.9221154225788748,-1.63121527328627,5.538086072752389,1.4619726057744151,0.6814544707600163,2.143530611622185,4.398260892706066
1.7574585243201548,2.4376848968330718,7.039887794454777,4.227060703696088,0.2959624783177315,-0.6940519383651623,1.4417164994502136,-0.1354423104245192,-1.117220658684268,2.783989075863291,1.1850237254042746,4.737655107933661,-0.9699674964246456,4.176572687665186
0.881432597388502,-0.2935084846884288,3.012545341124824,4.317457687404325,0.438898194736084,-1.1637020459673622,0.8318778722428999,-0.4889609765255018,-3.0807847649087035,-1.3176502139098965,-0.271895461837995,7.439290285994966,-4.099335954098347,1.2836324417797444
-0.6953836749466926,-2.303796515873733,-0.0819450291413657,3.563213990013581,0.0486684997615116,-1.7444276685097486,-1.5741100550226736,-2.552848223561841,-4.5942197190812575,-4.885557150812488,-1.0739078545883036,7.217411450473412,-2.1199316480546093,-1.5171431942953648
-3.0105274517401863,-3.3354813623907296,-2.369968164515236,2.396069426578136,-0.4415734279103204,-2.6903618075015365,-3.9131833540490346,-4.642178188118558,-6.270946832849819,-6.617817594476182,-1.8161874907103948,3.664367864394773,2.8623722361847816,-4.922865463369155
-3.92663576978066,-3.770611583979553,-2.239029473479285,1.0906620907977889,-0.3838439945437325,-3.045456344782768,-4.364308639328205,-5.159039827030321,-6.85128203800993,-6.691903453154801,-1.9036710839988495,-2.2276406430510214,6.167081786723606,-6.322470808953702
-3.4720280461885578,-4.131765358875352,0.5479272929396783,-0.0248425874446471,0.164973847373679,-2.775357859345216,-2.5539184554982217,-3.83470555914033,-4.726518511781047,-6.314331156760176,-0.2788768324353319,-8.345476869393853,5.785422766416358,-5.093942932642172
-2.996980286537691,-4.543735715658553,0.0188602006768142,-0.4017558239419223,1.1613661856094155,-2.527844062117868,0.24582153985709,-1.8157760031477093,-2.3329878111247804,-6.472580304414569,0.7946870492574909,-12.2561098032061,0.8150089247728123,-3.759165974894037
-2.05832308265866,-4.625156048062884,-1.052745234581468,0.4848568344466297,2.5053932154765546,-1.703362087521634,2.27273883537354,-0.5214200282926829,1.2420497886224142,-7.0910970396545,2.523897287389354,-12.309441817673898,-4.509471313386832,-1.5220139165581803
-1.707786877226253,-3.932950147887317,-1.1054907300583643,2.5868717168371624,3.2463356907025185,-1.2724052852417451,2.7237174463190144,-0.3355752281546067,3.3108775776049346,-7.281782902560764,2.888516578922756,-8.539774480505395,-6.512848702326294,-0.4247784762959498
-2.181246745822312,-2.5699684576234088,-1.801466314894796,5.008579404016153,2.842499113799051,-1.0993789260357396,2.1949906980898035,-0.3844529687087856,2.522512502283916,-6.31325607091059,0.0608729662884404,-2.780166565115973,-5.391499444720882,-0.9029882996692128
-2.607171222492744,-1.3274292420919949,-0.5375619668804937,6.482082723442815,2.314856329939552,-0.2838436339572308,1.8003142253932438,0.3869553790777935,2.4110518594013297,-4.3311407105939,-2.0383441885714326,2.2490900063135832,-2.104169554025292,-1.4781564694467406
-3.305251786178763,-1.085447758808172,-0.667949731428818,6.337814311982836,1.485621328032382,0.0913808164891774,1.946327570598001,1.937258334301976,0.830530896594226,-2.2099882295683564,-5.407241185862658,4.4634693279017945,-0.9891752863556204,-2.783218271174668
-3.130506891209687,-1.924236866342252,-2.5253873335509143,5.068357920422951,0.9002607806281281,0.4188244786097749,2.055214356981871,3.008972713822736,0.2958900908412897,-0.7663608947364331,-6.919765187527941,3.6257895819200714,-1.7219105050025,-3.2230631655131488
-1.9135929843569872,-2.826132742681498,-2.657311309269799,3.819358961566128,1.2604448524814758,0.6861143009095432,1.5043767849077092,2.396339476594843,2.6649187788141364,-0.100016651274938,-3.703841866110246,1.417399754944043,-1.9003400637881505,-2.5994586028538187
0.6594875338779205,-2.434323296984065,-1.9543403506717916,3.202356247444498,1.4205392905331058,0.2060255738036892,0.7070902794100284,0.3769434715727406,3.6428069246227928,0.3813349037502433,-1.0950627516514717,0.2507682076453044,-2.3020949908491466,-1.6256129122351295
5.024368175756536,-0.331171015845829,1.238291412989522,2.6502565040315496,1.6165513312583963,-0.1078687461509566,1.0163642350795925,-1.2011798562926188,5.65987348406301,1.368958230920473,3.416852316760812,1.5773948890484064,0.7304804990140636,0.1568098494387884
6.65421097122711,2.353234674906464,4.618813194669984,1.1148465463207025,1.7883439542604471,-0.2136717445418604,3.347892156053206,-0.4262083384749786,7.860478789505345,3.0846247817518986,6.758218303422211,4.851839210355845,4.965762431145134,1.0722981352261225
5.427457993895869,3.727581575060917,4.603209029822525,-1.4991152611881198,1.2567694646585388,-0.4693491489208917,6.888145646363732,2.928938603229284,7.545558630178553,5.204483255074784,5.392713323710463,7.926396103703077,6.767627648084357,1.018689016257604
3.656178884986516,2.757308422940323,3.7908222027008502,-3.709239768566533,0.7932070779698419,-0.6518587354081153,9.382716690753607,7.085529150917829,8.23795816888905,7.208792840890663,5.788926169059743,8.662497075327206,9.2615867785533,1.05799545888073
0.2582252439834487,0.2446543787695212,2.422812257117558,-3.5199931708354377,0.3628337173767744,-0.9019098890308084,8.997973129620984,9.696938865604997,8.873731431269729,8.71444169531393,5.475356178304878,6.597045769733342,9.857318523045429,0.7919731732475994
-1.0356200154293242,-1.8292897717515224,0.8346992053213408,-0.3121996142305541,-0.1454682827020111,-0.9951203972878344,6.064276116309461,9.69192051010092,7.031372872290872,9.474266022439938,3.0930989695253084,3.330453817417649,6.199830639860968,0.710626515601783
0.184961431587877,-2.072016889634561,0.4836932120108117,4.307575082835772,-0.1952885627301791,-0.8888021303078804,2.9276305268823783,7.834918529766558,4.808648780928629,9.17180570627097,1.5180871845760615,1.2039005502145983,1.165676023317887,0.9307056852137336
-0.3332088700774767,-0.8909600746163768,-0.8186266326030416,7.652768137476702,-0.1533615955085214,-0.5125202886681868,1.8828289909841125,5.639292858467208,1.6381489700638012,7.387693555851968,-2.3041458006048763,1.2525168221135845,-3.7458052998108498,0.766203408498545
-1.7963147718530434,0.0577344045896666,-4.131065990062695,8.080863134608098,-0.2076428843044904,0.1878567929957325,3.063977477083114,3.8751869166227593,-3.900967401196964,3.9050904081634714,-7.380228211818682,2.1968339356245536,-9.085794513586794,0.3323367391447491
-2.191622548888844,-0.3298755174165748,-5.546056200651362,6.107711918331283,-0.1321720378091125,0.7293781521325435,4.308315270782117,2.1685237633572783,-6.743370290241732,-0.891627189338557,-8.244495988111034,1.5126338960396026,-9.619966634862152,0.4183113735335216
-2.0343622484422035,-1.368805572975937,-3.706707857866576,3.5933045169251763,-0.018598301022117,2.089911847899848,3.1805826283706478,-0.0815638164333876,-7.161321036170779,-5.93258857259509,-5.465420103530276,-2.182095283159324,-5.478603688700001,0.983857477745558
-0.1572910448921979,-1.2298560940030292,-1.083738940988283,2.028020112118924,0.084432115152668,4.140114868937065,-0.6898517749213013,-2.6216229400194493,-8.420133484266486,-9.84585695769697,-2.678522079040912,-7.510915906950988,-5.191604790152063,1.5380897919822942
3.867445723775647,1.1178453330964508,3.393256513815589,1.6681542862401957,0.3553657015095045,5.89917067527017,-5.095184439473592,-4.316741081710234,-7.217577562240212,-11.580126694951144,1.2223753159085895,-11.084272111981829,-4.469872798453698,2.2343715577504373
5.09492188241434,4.650484329303623,5.445966653041864,2.073854741262789,0.6007942703209501,7.503028848815008,-7.00674097590999,-4.180413357766216,-6.201765622258654,-10.87982844138617,3.1800809122777727,-10.1520036998435,-2.885017719138712,2.04078416421568
3.564154252415751,7.092284702711396,2.367569102941811,2.977082551166028,0.498671411873457,7.921715990698875,-5.024691661251554,-2.346200017611018,-5.5144811672759175,-8.363424103287372,1.817556874249529,-4.934007187863282,-2.419181908182405,0.7989175032766362
2.066432892601521,7.051369378070245,0.4875691831585429,4.2582295933119525,0.3463579742032462,7.2183458833074035,-0.4349649992104289,0.0109933813740497,-2.1434859868445035,-5.1889860608151785,1.7711035910677049,1.410334129607964,3.299166789354576,-0.3489667230038541
-0.4572126586530467,5.32132154661354,-1.206033203891495,5.2202255177186,0.208698485104445,6.702088151060108,3.8841339494483833,1.676742466500171,1.0040879919977634,-2.457436965996939,1.653756784003839,5.176420859747285,9.704164557954035,-1.6582817311253906
-1.369465482515352,3.970153936628465,-2.108743182027028,4.487050645127274,-0.1586251310953217,6.3147917676936025,5.635962239519071,2.3214553826193285,3.6149038140426577,-0.6236059448141464,0.8030208338606231,4.852747102301343,10.422349627148652,-2.1441399143487727
-0.2174195815592129,4.128773719908773,-0.2640137074925191,1.201442723122346,-0.5726874120141382,5.499348000564864,4.572986710135474,2.546129316619432,4.631875044470193,0.7320777345326199,0.7020581530496506,1.9908174563970784,6.837456996473939,-1.5374494454794962
-0.1324277444039366,4.797475904782781,-1.1134695512106536,-3.566826724209932,-0.9993382256095314,4.641436701624468,2.292962701803525,3.159941361639243,4.16278814750561,2.520250884717731,0.1033798577445974,-0.3024051184723806,0.6516540987924271,-1.231295233671322
-0.4868219566067097,3.972393974373002,-3.3193498119673004,-6.997883433644658,-1.7238926843236555,3.529609593780425,0.8268588746193153,4.429270308124426,4.340637423987214,5.291797764474328,-0.656453153564568,0.2014859539444611,-6.129485376222467,-0.9508538120055744
-0.6976832821193366,0.9437664908381328,-3.889336428991635,-6.647203734426839,-2.1237039753308493,1.9060639303048277,1.2538994338233351,5.89048664173399,3.436898069681058,8.527890222898545,-0.4483562998695729,3.456494684149515,-7.966612401981355,-0.5451832700466162
-1.2052792283593052,-2.6782403769967607,-3.3520209903302045,-2.720012705039059,-1.9037488751201448,1.1555306881631342,3.2411332484627327,6.735598362230855,2.7390926688093367,10.73529567525356,-0.3830028647946951,7.590290766348427,-4.299840669612712,-0.2207161030846803
-0.9718609379124564,-4.372570879351577,-0.0971297401973282,1.785537282535027,-1.7231259292201164,0.9735456440136518,5.517492137177016,6.387485357566512,2.6643598935115054,10.435584613839763,-0.4812278392491943,10.433379765944595,-0.5692661835904673,0.6478238025081022
0.0508083374933194,-3.156919752613125,4.212290859026528,3.433621488962749,-1.231475507171924,0.1703561595468821,6.709063157392495,4.889650710654292,0.1614389533204258,7.3380185615899585,-0.4486921896743375,10.773315285483603,2.750019984925637,2.0620784367366958
0.2463275686044986,-0.5526747956654026,5.923107030020933,1.149999460404587,-0.7533887197987338,0.3243439504132538,6.013327415770003,2.9250822270399173,-1.2671745148042723,2.715375705836805,-0.7166618356869203,8.625814446801582,4.075598689427179,2.087352229890925
-0.2530902609575502,0.9435898413471896,4.86580294113891,-3.042274954273229,-0.8652854815962479,1.8089783691730743,3.535536388685479,1.4445125207647944,-1.4067064655950654,-1.4019264287408086,-0.3014333638266356,4.810888194013205,2.1372079900315977,0.6914818240894479
-1.2974943929000504,0.3050849460740474,2.5307411047591346,-5.904770906452252,-0.7183843407882571,3.033771408705166,0.2737422562951743,1.0564158287093126,-3.459091375984815,-3.608256981605124,0.7478971878758653,0.4816701332706881,0.7575499214453633,-0.8895800424464485
-3.2476069091709943,-1.1739656489492345,0.3494153591332836,-5.667362647999791,-0.5171553842797207,5.439459779529088,-2.306591059075304,1.5382796948917634,-3.9179207780515366,-3.978788925474588,1.7484074399120737,-3.154383076625749,0.621846675258163,-3.09002082389088
-4.654076592993233,-1.4477269588714266,-0.8129575109494962,-3.184126111628672,-1.0259795377310508,6.504060580771149,-3.083458116351282,1.8821561408993053,-3.907627149317107,-3.7447202392871577,1.9621553832204957,-5.147856884696789,0.6549727714456688,-3.793100338887695
-5.525272966302739,-0.0223662416999672,-0.6564140312286293,-0.8529387036331686,-1.6646928185048238,3.31103586087765,-2.083236168136428,0.974009790732134,-5.205698908409058,-4.131340558866891,1.149141945881205,-5.284486279515615,1.2720139330694076,-2.6830745788797694
-5.7804264689599725,1.4144478900257582,-0.4183172985256823,-0.5842396766120492,-2.6044588661969525,-0.3302140768289421,-0.6204835076494191,-1.5299689302635922,-4.7691175627508136,-5.361967738392741,-0.3757463386901764,-4.37100005982366,1.396645166005696,-2.0324438587980973
-5.0257057822394335,0.6837983869593378,-1.4656205886478966,-2.619676525119262,-4.283416390438311,-5.075099291706759,-0.442243957402701,-4.834635245217761,-4.267737483622291,-6.6092273805112125,-1.8723139086061136,-3.827108020248438,0.2036084262105916,-1.3207694692498644
-4.439920517935371,-2.602381701779714,-1.7771831971455685,-5.862377800225961,-4.209023160702421,-8.834733413124486,-2.392815200276912,-7.502596775016295,-4.506007245664126,-6.820531149606942,-1.67872708051822,-4.64490975576172,-1.058475769381574,-0.9038932792068012
-3.897502433573236,-6.452075649672931,-1.374908496416532,-8.956227682295259,-2.6467557226864216,-8.261225263401455,-5.685264153503594,-8.456008688888206,-3.3465014793425945,-5.629031485218275,-0.4428642566464393,-6.526609755240063,-2.130287201304711,-1.1450663860833916
-3.785290497651715,-8.152382391322853,-2.4763963425064976,-10.983428347284114,-1.0958855387850657,-7.507217377273628,-8.460306107418567,-7.684385243742128,-2.013880698661432,-3.5826082252316995,0.0681445597119965,-8.05025084814543,-3.652452092495343,-0.8080370388310469
-4.384304267896234,-6.553753556066097,-2.7631867849427683,-11.423579333276614,2.234973196668897,-6.312019665525926,-9.184146539937055,-6.115426731479203,-0.8613395810486604,-1.5940718817987918,0.0831092042368301,-7.830387814439751,-5.352106090479165,-0.0486872801359713
-3.33833417060724,-2.8819671488187275,-2.3664920511766545,-9.911143039925024,3.803641229841708,-5.203106123451445,-7.67140243062128,-4.8243362803557845,0.4342161850273043,-0.1940717483754888,-0.5865152900569984,-5.670650920533758,-5.260808307862133,0.217629829611843
-0.6679500311957294,0.4881192846101614,-2.1224204868116963,-6.40605478559884,3.222888136174512,-5.595356580055045,-4.920076896316904,-4.275200985083286,0.6128444562695695,0.7374908355116574,-1.37218512098165,-2.675280830730758,-2.863866943267391,0.1381410653256056
2.3472323508187687,1.9815223517637848,1.175470107998942,-1.688312666439434,3.8402569246016993,-5.1174712477504505,-2.1147605273659997,-4.175625943585022,0.2307028844873169,1.6029260770738238,-0.0416313150825273,-0.2814389071586127,1.158108263036833,0.0686206853141656
6.212313177034871,1.7461377400527116,4.642237943197399,2.541460065911722,2.6352282362959123,-4.425719343974679,0.1305170143427929,-3.948854077701069,-0.0899396548802005,2.5221979260094702,2.00129290261152,0.8232105637723421,7.434460465130538,-0.1344852869129589
7.160692230603428,1.0090127015861192,4.879750976856139,4.472045994140779,2.026239575241074,-3.5640496272825786,1.671167036028116,-3.330252564841337,-0.3204260356410288,3.139335119719893,2.624038384055412,0.9390058985216134,9.690841850973406,-0.2418156355686907
4.732563336056238,0.7926644742821143,3.29027731094639,3.509013945290305,3.1079688104368337,-2.6879836799285304,2.3061902849529563,-2.575665487072394,-0.4238568861007445,2.9516828984505104,1.9039175969387565,0.7243405770495732,5.259622533156193,-0.2049845472967062
3.21840860090109,1.2557229636527705,0.2246506734399218,1.0065576124645466,2.2576322654867997,-2.5425598770767666,1.6953063593719602,-2.166375734751937,-0.7401976275691251,1.8124572994287569,-0.2830975900277397,0.4966676786898238,0.1678767716989058,-0.3835621967246163
1.7634275842173743,2.036112338119266,-2.5191453744903263,-0.4472031665157274,2.292595305470043,-1.850256008195542,-0.0726681074892363,-2.331183613045491,-1.1464864698273494,0.1389852808277876,-2.4077067067030837,0.1514601064930243,-7.274797540739385,-0.72917732604919
1.3885600905361604,2.942036801364482,-2.5997334152048253,1.1031418243268316,2.5636570613460474,-1.668261296872297,-2.0063037808525115,-2.819034097559713,-1.4907412474554167,-1.3305831717995762,-2.3661160352788424,-0.4030895937513117,-10.716976052984682,-0.5507963433322348
2.894711349444314,4.158253300073424,-1.1570109094225278,5.318646562460291,1.4847755964026557,-2.2514499037390023,-2.6589674839914625,-3.1019763315463864,-1.5390964765253106,-1.9995418210941027,-0.6033556209623738,-0.9239795924469972,-5.211921725738749,0.1515792497794042
3.023214882351719,5.809741215789545,-0.1424784929960633,9.485183397223054,1.5270583276811964,-2.3699458921124066,-1.3410930345540102,-2.8081279708630325,-1.131174702418716,-1.747218544726504,0.934573956773888,-0.998298107431201,-1.4430688565861325,0.6120388586393043
2.1427270528907907,7.441807278187542,-0.1231294338226559,10.268972599623735,1.18089227682164,-3.466079582360721,1.047782842070741,-2.000246774604712,-0.7291166251744732,-0.9525928941638108,1.5574295652089098,-0.4534431974758073,3.0472915657901174,0.9479680140422616
2.2568395995767223,8.05015454742859,-0.3760482207115276,6.1554854457084245,0.1221056300096913,-4.579973336054725,2.548962794993339,-1.070586126138993,-0.7633549379155085,-0.2458498118542058,0.7853594811721745,0.4680046955261439,6.872755004840685,1.0840883873548328
2.9040606253680075,6.749309141256965,-0.1533668694793803,-1.1931534324394324,-0.1570752447079187,-4.593269142618127,1.740302650313707,-0.379521382038213,-0.6381041617532414,-0.1356087732885171,-0.9586672695576872,1.3128463228492135,4.60832631352953,0.8645819898297292
2.9270928359650146,3.5654394587114497,0.5042325087140921,-7.75956447744089,-0.8981135534664381,-5.301866547800361,-1.022735695554137,-0.0017800986705589,-0.6064789006290598,-0.6897674034215937,-1.6445297847131006,1.7230759099941046,4.812105963132886,1.3755374472353814
2.523047293143807,-0.3166565220836137,2.0911904410323454,-9.753065423624804,-1.8986250582803603,-5.914692769568458,-3.91089561562864,0.1752070958931471,-0.9219264329118284,-1.4461911389315842,-1.593789541998342,1.552707488536038,5.292637130113662,2.6241457893520943
1.3194590441838856,-3.1595442784675223,2.63295878919372,-6.211111706655757,-2.518419952943673,-5.065030528619725,-5.219795966202262,0.1435028855493092,0.3051674506488639,-1.6564240040241174,-1.0522667695434735,0.8238754749155266,2.2938477949495586,2.9977498668680878
-0.955714381842626,-3.829434314343594,1.2834409475284063,0.2775451301341931,-3.572158368394877,-3.6638277002855606,-4.760650170037392,-0.3340405984510477,2.057350483080838,-0.7685049282376504,-0.2822617545152496,-0.2723049518566007,-0.5363356222984286,2.632193691420097
-1.632102348243945,-2.733868773379516,0.0865008253377995,5.352981258622883,-4.913305215685774,-1.4444470917080456,-3.745785554551343,-1.400905944039322,3.640667193066287,1.1718382997247514,-0.3351164296869893,-1.3017502955727558,-3.1635264330349107,1.8045870594440088
-0.6854914145034472,-1.772666898453119,-2.1033938960294574,5.910537440036458,-6.030540843102623,2.155338321586428,-3.3579751301217904,-2.6303981009860955,6.952947378259955,3.527986727455706,-0.2651772516038687,-1.6574904810422837,-5.477685329557907,0.1685303854885715
-0.706588376649699,-3.111671200851767,-3.338098844719043,2.0987364436945906,-5.978741512520604,3.823549475650812,-3.4855487456401635,-2.994089395617282,8.171708055745782,5.515600529240202,0.2173220195041077,-0.9175357929565616,-4.037766859464181,-0.1581766082712692
-1.2110951126436262,-7.476380303488642,-2.0100039231948617,-3.1747433273671515,-4.73155593885515,3.882673775807242,-2.9160892589857808,-1.5653396669925763,7.3370281398476465,6.7266001536412965,1.2039295871318183,0.7310923869961421,-0.317978136729333,0.9289346224363176
-2.779613376278633,-13.223937065407537,-1.1813900064777283,-6.623510631774181,-2.5225807408188423,4.386146875939093,-0.7866544302663101,1.5148755961348064,7.568077510279274,7.289052497481863,3.2511522695550705,2.44133286384207,-0.5411629516348186,1.5346852299577425
-5.921883573859897,-17.09751342215544,0.7659278457173507,-6.745366981586432,0.9369866066777476,3.1526355161622086,2.203882912639738,4.749117139369312,5.43867565885072,7.543456837586731,5.232667012511389,3.20655379449692,-1.739490535673052,2.1021905197863435
-6.433460678674628,-16.353629087143275,2.640004098083744,-4.140954447951256,1.7292273377381595,2.88530310135727,4.103588118744466,6.170870696928692,3.608016931721936,7.563288011419111,4.913484889081428,2.56060972879661,-2.68434316681829,2.002617091412433
-4.313014408727984,-10.767565313426411,1.964575378470004,-0.2849238838473233,0.5676099423041495,3.4902553706288098,3.31881229167873,4.8294574284921294,3.370393016813412,6.987907687151243,2.4154037540925413,0.8673671702698891,-3.059220582284541,0.8967231530487184
-2.356172350810121,-2.937762185594309,1.2356003302043246,3.605579278642818,-0.353091543631133,2.2174513531674096,0.0352205927889923,1.5989327271353806,0.7280151926256647,5.328917389854696,-1.362341214675997,-1.073696180400661,1.4861508920293964,0.4030031106597372
0.3069547180863088,3.4313957156998462,-0.586006418305211,6.557909942245885,-3.929481623783084,2.0055077327971804,-3.847680728670549,-1.4780726661396968,-1.3995416238823215,2.46627153643397,-5.864647386032247,-2.736393795612688,6.274431527842288,0.3384177426167891
0.9742133589341628,5.974679358637158,-2.485707801953907,7.343882373315573,-4.479575621375088,1.8932049360628749,-6.144136112882757,-2.7800262126197035,-2.1967550720376847,-1.110082725508292,-6.473780512703612,-4.204859069964559,7.067762405099795,0.0361398792058388
-0.9211771377374688,4.971786365741616,-1.8622431918135824,4.849203108301474,-2.7606999221574293,1.5838210396925323,-5.856811684425567,-2.2168917324905832,-3.52985613182212,-4.512585530019717,-3.0885838715185603,-5.806555845612244,4.213509755159506,-0.2380977094545303
-0.78617957876762,2.638137296225941,-0.5342821260539776,-0.5618645935130671,-3.4072311753551827,2.9321497120283224,-3.534265763051515,-0.9297781559639744,-3.683792400691313,-6.929262602982645,-0.8965521506019937,-7.427869389960237,-1.9615278226475568,-0.0887941228101299
0.8101452011302147,1.1892822094451283,1.436817796395231,-6.253064888998044,-0.6990375546502138,3.698419277068964,-0.5179724346899639,-0.0353834051531984,-3.0771104274635324,-8.001690333024175,1.3068335942004152,-8.276730388634748,-7.374420601195863,0.4806944545415092
2.1339345257176743,1.3323166349679412,2.837727471723846,-8.606426696574996,0.4218476104938535,3.689696712995232,1.9966374916209748,0.2570693205821674,-3.693749291393156,-7.900396227068072,1.4894253751179956,-7.47244367835557,-7.72419146512404,0.7792426831474557
3.945521528497373,2.242210845039947,1.611766760634523,-5.81611107284449,-0.829333172415641,3.6490823072328338,3.334991124703772,0.3743001989023851,-4.185614941776064,-7.150204951690234,-1.257244654304617,-5.000386553565991,-3.5501837106956597,0.857052715148614
3.309160892264829,2.712933678209807,-0.0691252615145611,0.335292112179899,1.5751729828976408,2.7899132247178278,3.240445699281862,0.5011689051575017,-3.925937827863251,-6.36810590304082,-0.0932954025736689,-2.0780596748833227,1.2738135778867508,-0.8812349575853711
-0.1566185084496344,2.3082178027076656,-1.733542647130029,5.7018371216549735,1.4803791865405775,1.8806531468623884,1.831323715401525,0.2666327297246784,-4.325735320471332,-6.009198264302249,2.120054727030332,-0.393461194800917,4.696687678935922,-4.765378878619936
-1.0504438977668449,1.6026524848396568,-2.7759130734016217,7.197729748515736,1.3364269230082575,1.7300523367513063,-0.2203698049937923,-0.60398749439155,-3.560947570740246,-6.146235420319988,2.521515395414734,-0.7206029239054441,4.783620168466351,-5.932870906983452
0.1768981290114753,1.5313303064003438,-1.7339731034527146,5.339616148876079,4.2911369239031085,1.7982939825952249,-1.715693139612851,-1.5225841560717646,-1.2186640315100978,-6.355597292239517,2.547743426481973,-2.1315704210771704,1.7014458569680926,-4.516842677623985
3.352722755526499,2.548658546106882,-0.3309078733281297,3.4923851143797138,4.7282756260995935,1.8691600950580949,-1.552066324546753,-1.2571818446352845,0.7554415375390894,-5.855965423385623,-0.7397766850502712,-2.6450488255524487,-0.4104481355054573,-1.2168534334452303
9.700965876167254,4.272042238434129,1.080573530288354,4.508622444343036,6.2705730128824495,2.3055946357876667,0.3779827076322745,0.875384122802414,3.956013158450357,-3.959537108084569,-4.220063999520598,-0.8929243223967711,-0.9861436033856988,5.169070234115449
11.728819985423725,5.789579519551961,2.0668421439679565,7.967808130217836,8.816802018001663,2.699924934994744,2.882634436730353,4.081557108180667,6.426728581841206,-0.6276926892467438,-4.325826550254511,2.631650573112033,-0.7402750584516815,7.431471064093846
9.293875299588096,6.329714544923435,1.3122698501313168,10.645643334020768,8.222969909114815,2.877510869667788,4.27646899621214,6.561456974816759,5.9649901156914575,3.2928702843170665,-2.8262910866262927,5.934703979954948,-0.3654050523797488,5.311278839084337
5.577863978148539,5.802567422085133,-0.0464320313689695,9.71812858638992,8.326508440906238,3.5559012952713185,3.7781856840042023,7.079505174398998,5.823819109560928,6.462028171661515,-0.0841948598519116,7.269534161216992,-0.374598613555599,3.29093403944014
-1.220130005548709,4.840623782715201,-1.6817435277606854,5.570677437430362,8.624869772433499,4.356581781212109,2.291136439385117,6.110421693485152,4.962135613300502,7.916090801986985,1.3553310303546124,6.7277072374445215,-1.4215412856547829,-0.2845946343429248
-4.226257210436856,4.29607794495471,-2.609813417819262,1.4903310662243805,6.996821533207249,4.024589647306708,1.7703870300285185,5.374924992587612,3.8169605104492814,7.804772829267652,1.0738203030569358,6.1769576336941325,-2.2842124095371124,-0.9810865260395358
-2.8734297800896904,4.5414682086407145,-1.320043879789056,0.5531347834711817,6.079400322664271,3.323869783465166,3.594391471742141,6.177426121844319,5.02528801939098,7.35884001222219,1.748486618817347,7.517638561849023,-0.678141645998594,1.9604230084967564
-1.4929645169342605,5.114121782349903,1.1730824004783087,2.721239449794509,4.89795040386645,2.2746290768372317,7.274390844248149,8.146328414248853,5.6092075967235,7.976262223041349,3.457320911237833,10.79477828701376,2.034556432449159,4.0406424880463385
1.6396294520499657,5.025337069587499,4.361090695240536,4.93181960665545,1.9549942918495573,0.0356691511470489,10.601145148025978,9.544623838119204,5.602023389393883,10.03349345244636,8.0043279862621,13.893395074819724,6.606647621387458,6.398027010492954
2.007291088889713,3.521164115357144,5.995340842469147,4.0555388304912015,0.237564825318608,-0.8969446949145178,11.153281603308432,8.771315485998855,5.5278267551875775,12.34531844658952,10.395606226305029,14.145302408269847,9.573677398079314,6.260442545905089
-1.0612614351843357,0.688684270479635,4.47990216369071,-0.1310351596578889,-0.7177261610393825,-1.54009001991267,8.003724774729793,5.625642310164845,2.827587465545487,12.799464539773425,6.496743739001048,10.477880644063363,7.379163165738326,2.763649572760245
-4.388280232241843,-2.5637709899681504,0.7888785945375769,-4.741830838465846,-2.4845762991480176,-3.1806116319229414,2.360809581524385,1.3171333830027718,-0.5740631077624794,9.82547930316886,0.7210962102606628,4.288422406117408,2.342014772274755,-2.0150884043193265
-9.21830152875034,-5.073843241521169,-4.414100897214028,-6.4066286656920415,-3.124238441495719,-3.4174218484188925,-3.227033288183849,-2.524360339520074,-3.951186935026985,3.673340188928417,-8.801457663497366,-1.6110660501762002,-5.5233224561200025,-9.080727089069777
-9.775200491171136,-6.037474401581581,-7.214089821387152,-4.154280165814133,-3.5590332630710897,-4.308026329585716,-6.420577938666044,-4.827942270078105,-7.454872465559485,-3.473514055375447,-14.24326163622176,-4.988952415860075,-10.654235110184633,-11.856914344814198
-5.3130046323873295,-5.261513215783101,-5.631041473482665,0.0353602451997536,-3.7944187569381382,-5.138383599409585,-6.31858212217689,-5.39416527801933,-8.658862284120385,-8.733165881574582,-9.88700915074909,-5.483561560082265,-9.431281930583417,-9.696489467890466
-0.0713095118882316,-3.0828533338104736,-2.200398844934571,3.1872485595896776,-2.72845063740795,-4.125645151380457,-3.712645362279149,-4.701771590739272,-9.29219577634452,-10.318726782156318,-5.798784878525698,-4.332820392872046,-7.035980683579222,-5.253422135371077
7.503263873972338,-0.2199708667652413,2.2827432992141263,3.692500392725022,-1.5659611386942958,-4.207941319358641,-0.4324655578504917,-3.6553977149307992,-10.47903977339439,-8.651895354086754,0.4804725733000301,-3.0615565853409583,-4.667605486265468,3.368194758094352
10.037210359096903,2.351516858653339,4.968333200425726,2.015819472432753,-0.2612823139028153,-3.756309313234048,1.714862754948672,-3.3303135906571493,-10.073961915742316,-5.985327422232958,5.8075317187177,-2.355158080072445,-2.2619643741315345,7.22986237948177
6.501617448694456,3.670295058960368,3.348437568317401,-0.338702291830991,0.6272622420300937,-2.27683969434847,1.8688716242027872,-4.454835268008335,-9.226949433370102,-4.760129717117275,4.206330470581519,-1.9272657866843328,-1.061597610759974,5.777532211935967
3.745509415997504,3.2865492212009357,1.1437120234238507,-2.09912495038366,1.1577976960710976,-1.895220397449083,0.5069667315782116,-6.708928488738239,-8.312387402338226,-5.854182402063445,3.969991839009685,-1.2056554061094786,1.6471555451052735,4.153865406057863
-0.1115048589861875,1.6637925361325745,-0.1029403638073476,-2.5802877406853457,2.518956821156912,-0.2139552705920586,-0.9107932547290464,-8.524002733191475,-5.152152458298228,-8.017154311186658,4.081524130403792,-0.0504220915056699,8.591624004659279,0.1500700746753696
-2.34208695693001,-0.0198079389837531,-1.54069680950726,-1.4602582953832588,2.1939430643949347,0.6043183456439944,-0.950398632926878,-8.001339178891644,-3.622634678986979,-8.958479853164398,1.5433925588752109,1.102765547214687,11.584974875626454,-2.120051763529329
-1.8625231702660647,-0.7512909130742469,-1.9046970838961363,1.036922939871351,0.114585188283791,-1.3986178497303228,0.6806387509736589,-4.557515949365869,-4.703116070343855,-7.299435121632582,-0.3000558219603326,1.6477397058298018,7.278992381785319,-2.074566244216065
-3.4000161140116307,-0.5997162571214036,-1.838350447072384,3.5215756120778714,-1.8503109000114315,-3.002277973610662,2.7322439210253933,0.104415974569676,-4.591148689075959,-3.8571248614171463,-2.3301245380279387,1.2866924199762368,2.6006294559568364,-4.308082583874989
-6.143903733303041,-0.7734489712744734,-4.203174273849593,3.53066284798288,-5.990285121814877,-5.912164983670818,3.209024867374332,2.878501088165538,-6.111286877515759,-1.1563465379120317,-6.560441522232855,0.1751944496925213,-6.267053214061784,-7.9083492805698095
-6.585720017631484,-2.571212187678181,-5.126250641275068,-0.8645145964377284,-8.205912127560518,-7.536194770785552,0.9373968262427526,1.6205580496665395,-5.683329978940945,-1.4365427214160476,-7.53879378484647,-1.272602003857216,-11.07416852452399,-9.074317042586266
-5.179228420404808,-6.035394255476387,-2.570070142944312,-8.909556130580322,-6.740161572646085,-5.236752107287119,-3.2916424216998164,-2.8956669442861074,-0.2061493152103656,-4.687550220557881,-4.098294776856199,-2.630914781933287,-5.117175384749588,-8.157551735091982
-2.862165007954349,-9.550375492141706,-1.3257391842188155,-16.664411857929878,-6.161839221374794,-3.1778739925828594,-7.027797934280574,-7.230658407208027,4.777146842350719,-8.331817738157511,-1.4242208046021876,-3.532284414154598,-2.247334634176869,-5.163557659753896
1.0323926783388044,-10.897466614965715,2.226591469802558,-19.29114910466348,-3.699865980314008,0.1803607364738303,-7.817745781589309,-7.737070064235633,11.68170097684918,-8.927218416598977,3.9919703462959104,-3.615784994813464,1.2988065659658434,0.815641918283462
2.171766883287991,-8.964697257294993,5.833524460162636,-14.678917070349533,-1.7192565912893474,2.803163844522291,-4.964694072854318,-3.287640362828776,16.47669089866214,-4.664167929621471,7.817702869532767,-2.579334879726888,4.646322468564748,3.483946617137577
0.2062276074606935,-4.652120852356343,5.1675115505716045,-5.350911019071024,-2.4656662148554798,2.469507989585626,-0.0146909819378326,3.928036685768737,14.81841202819914,3.2080450999199788,5.91381161686607,-0.4275289997157516,1.8389223129288883,2.6934212264239727
-0.9903573693670272,-0.1949370530998444,6.765683051912849,3.196750280242121,-1.716084746910297,3.122942043043226,4.371578980056869,10.08987338907551,13.298282047202354,11.066613026608966,6.250745711600168,2.2860833067542616,4.0689632451709095,2.659395903667017
-2.4043653346616103,2.468184717392389,7.846852804642996,6.49506505048392,-1.456997646474517,3.101919798259434,6.215575904244412,12.426509276895622,9.701562473206597,15.17342952827168,6.281283412856653,4.543640460434464,8.288109655677156,2.005617016970827
-2.831127242284578,2.863212234675055,5.480013149970736,4.128743932017734,-1.531627682876953,2.8659736699494123,5.312445168679662,10.766243849111165,5.946664015569984,13.898989832510358,4.552948159773316,5.369892574752491,8.17210960120782,1.0340103908317368
-1.6377638455332724,1.832648699862938,2.63624991169584,-0.6161719322626915,-1.0412328961944726,3.7052619543033134,2.9593217873523905,7.016245333107007,5.09700526796814,8.484177342153105,3.634465793976696,4.458169123020642,5.840085139732739,0.1673184061283257
-2.0304459270118627,0.5016162347637543,-2.2539754603228905,-3.853576670418128,-1.5567470560016363,3.2386070097195008,0.7883641944115463,3.3827111206924423,2.1250472902598663,2.031141059824885,-0.8788002171506545,2.419542294887605,-0.6050492334656317,-3.403639141554272
-3.685417660015785,-0.5233019413698896,-8.74761805904145,-4.037346757146477,-1.8802286211276016,2.771641646168692,-0.278743520344751,0.9228778390146988,-1.3258704224487514,-2.4434657077798008,-8.478193294919517,0.3840635046922438,-9.01342411302234,-9.705457945664566
-3.903470805752488,-1.122427144990081,-10.761544982899512,-2.35015296113592,-2.0496890016791256,2.770056175447886,-0.2951951159188621,-0.6282830762392688,-3.805783753085768,-3.6319009339213535,-12.656446237879448,-0.8178559829936437,-12.241663617514554,-11.331278641096867
-3.0930964873388787,-1.2118328649442414,-7.585911365600323,-0.7654118690891947,-1.1668874100345854,2.466468587087491,0.1187603417605323,-2.039908617558952,-5.628268264792881,-2.351476043518664,-11.333400985295572,-1.286248911762426,-9.268648848390583,-8.303060842094624
-0.1284098234314638,-0.6238968025091172,-4.407383181864174,-0.0599416799972125,0.468101661890873,2.692077416513867,0.3134104917115716,-3.714924372869571,-6.170880900994433,-0.6674500910264018,-6.582213378120507,-1.9566855019311244,-5.073480309482125,-3.624891380354427
5.646158446562168,0.5462035730020318,0.0929101901673575,0.3443288905739678,1.459726821495861,2.861197168306519,-0.1003848854072861,-5.42068396588061,-6.397323142746891,-0.3696835310716553,1.2721579286622178,-3.760316870637163,-1.3571931991105155,4.459634856835901
7.25708853695627,1.712513927261785,3.1191969894181404,1.0016318402101492,2.666230454553916,2.8243991891235467,-1.182205576500429,-6.570059680038692,-5.5234892547229295,-1.776538638991626,7.021604042706517,-6.636457583087255,0.6751030552031159,7.805980461171267
4.657763619505839,2.169862730148026,1.8744173531989288,1.3897839700009131,2.053417275819567,3.287457242079178,-2.6349914361690776,-6.619482435048321,-4.112276802527939,-3.610434572380145,6.219897334307696,-9.221533248487985,0.3436674750500097,5.733188064892474
0.4617373780404105,1.7580084249712602,2.1866241095917127,0.4671451394772468,0.2733827213052045,3.7253910417735767,-3.828901207036592,-5.302913387454971,-2.42164304221561,-4.003496708504064,2.249388537502296,-9.61156923220769,0.6803887568467729,4.312135743412634
-7.016118240744562,1.0407968224719066,3.3450594436564614,-1.8231018784784512,-0.5052681807589272,4.268485840164888,-4.053282380088891,-2.743949957636411,1.4913414338550637,-1.9310317234682397,-1.733702421219002,-6.7512128458386735,3.8967835275758578,1.573670059700867
-9.43533223897393,0.7025158171573698,2.845660809595184,-3.913204999597091,-2.1948175100229594,4.061272859942549,-3.010368867547699,0.4468561770670867,3.1386087121944284,1.945238756548866,-3.636114728033637,-1.4063663919923155,5.860041074401142,0.5404620820337491
-6.166918874491722,0.7720678784727388,2.209469967744454,-3.7873998374951,-2.8694447678835635,2.152351052523261,-1.1966211543535636,3.1936222664571217,1.6808511588522572,5.636873316233387,-1.2434631006846646,4.098242980332154,4.7528553554558295,2.073553223520372
-3.7006257026500062,0.5499952900381881,0.8846996526376576,-0.9852204009351392,-2.329130095014742,-0.0718839737334593,0.2768782790845607,4.317640678383741,1.0531349155643142,7.129356332197559,4.437425044365748,7.242536959283623,4.336590859270734,2.939564830446579
-0.0817710219216753,-0.6171258958924275,-1.9383713944028045,2.55608781503755,-3.610459001000464,-3.0686795175654216,0.4473713868160004,3.213656483489444,-2.020751905480888,5.67909664204854,7.922634005683677,6.755663186512838,1.888456945725708,4.054750391452819
1.0276593047039269,-2.4987482261488063,-2.8833577511987247,3.828382760452377,-3.561313891797516,-5.31142705459245,-0.7284073303426235,0.3857173181896027,-4.2331231084048,2.201345992038812,6.802640520537945,3.10666489843504,-0.4713276124598122,3.913085430428088
-1.4274176736018471,-3.970710373071413,-1.2692312187723105,1.23871618891223,-2.68229720230442,-5.1040407010917725,-2.300815016915556,-2.710067435543734,-3.5233862930715496,-1.4424769330897291,2.373339869252985,-2.132796024156144,0.12718679685228,2.0140061955871777
-1.2286950526222586,-3.897655362901281,-0.7667307854088317,-3.891920002191615,-3.180272920206679,-5.123562312200361,-3.089387174846313,-4.581651783690429,-4.805254174643022,-3.652686861122187,-4.48595205236518,-7.318418034322077,-2.3985889361860293,-0.9382623713651091
0.7240044691552505,-2.0857007133796865,-0.0847986766600801,-8.170107359320834,-1.5272134355791134,-4.644097604575292,-2.6438274194354263,-4.723270889838703,-5.248437365436455,-3.920033583743444,-9.699751194010158,-11.300113256592752,-5.868915553948129,-5.53736806110828
2.3532651920602503,0.560682911761247,0.5540217033374174,-8.666761698880364,-0.1465064256584098,-3.436644803211584,-1.550604090318057,-3.8631193381743785,-4.173329351116247,-2.8027059609252185,-8.334563569999688,-13.3399161481369,-5.932709952013876,-6.246915200864411
4.629222286906526,2.765200411060596,0.103864513207461,-5.072601402444215,-0.1091950262954866,-3.6545742274268895,-0.8218247375462706,-3.1653599020686696,-3.091677169961662,-1.259944866891329,-2.2132046974117427,-12.878618573266918,-3.524792923851549,-2.6609363506632477
4.885905340771787,3.7928938017514007,1.6968943703835024,0.2515717427466709,1.7781512937241426,-3.378192458953185,-0.9487725961310622,-3.080968012527481,-0.1598752444349901,0.0466834195861789,3.674244283444192,-9.663267059552464,2.083763636468108,1.917218529555128
2.7776059928360115,3.784787048140246,4.212575693525379,4.259175617413883,2.870999555181748,-1.9801984629153,-1.4970009237681303,-2.9311294904745457,3.7498782157268256,0.9940045212452602,9.234756660673002,-4.190750052835295,9.88385084783256,8.90602196327988
1.129884686581961,3.3586187492290995,4.717992056205795,5.498034891946714,2.8566294966912986,-1.9578593290822115,-1.5860439612014092,-1.6523599985232753,5.353099238321312,1.7489110699701471,9.285246800328052,2.044947066137499,12.136544872514325,10.30321799215282
-0.6673943890694229,2.964970098791889,3.226809407475836,4.812626164728699,3.11728602704609,-2.263884932883044,-0.7689649897657953,0.9964509298047476,4.564986008651478,2.379880695573936,2.7559351043244438,6.927491916384501,6.672878074573064,5.185431309916054
-1.41940611232041,2.595107513017473,0.1476153024905995,4.06082525475578,2.159466204844416,-1.847005183630256,0.5149747644909997,3.9591891686429,3.277975733194304,2.7036057062016425,-0.5659885331267351,8.640829296788793,0.3822135065229313,0.2551949621236546
-0.5738135919129198,2.003364103694289,-3.5595805805691154,4.163649810049609,0.6541845795230317,-2.860837124646089,1.3091514030124802,5.6518409969368975,0.5299980813752333,2.457558707132147,-3.903702172639613,6.6203686474536365,-6.681875603649653,-6.505487734274687
0.2837302033156402,1.1081172066132212,-5.109020490115198,4.28089244553221,0.4319647856563398,-2.8990010916388425,0.9619044101734824,5.265968847177476,-1.231564472810656,1.579998228657618,-5.830505754799253,1.937638511996578,-10.119194528225568,-8.395090324069407
1.612391051189086,0.1353556199900327,-4.1346711049822,2.7778279286796543,0.9799132701625872,-0.6703902214061614,-0.3389358075969115,3.3710703797543906,-1.1311619875609529,0.3143466197592841,-2.626489753574412,-3.1758536201759844,-6.766795436049355,-4.035581568974369
1.3601095941836572,-0.5939216877727045,-3.563116810334319,-0.9813252449779636,1.585953552165483,0.7527017743860299,-1.7442251155217676,1.2934481832016884,-1.9756687188617643,-0.9443798948343765,-3.803881933984641,-6.450866540816662,-5.593040929187927,-0.2064062658963512
-0.8421997367105125,-0.9402834914151988,-4.303306190930662,-5.641003509523655,2.866296057516844,3.1205246643715663,-2.402319423891077,-0.0348679106828063,-2.4156856226494443,-1.88524129084337,-5.415174681864868,-6.689563428761615,-6.382542690034606,4.969081857868259
-0.3346218720863518,-0.9598947852103676,-4.734628111513615,-8.515446826836087,3.362638887180867,5.017628956981755,-1.996314366870848,-0.6062783540564528,-2.1850876323665536,-2.3681790563404306,-3.906604699203952,-4.158983468262312,-5.608556053124908,7.916335249529237
2.597029380633948,-0.6756522001291407,-3.78921209484784,-7.364898177765129,2.8375688087302877,3.608848206033937,-0.774141187576987,-0.8547707594909673,-1.2837558084969547,-2.3194957503530222,-2.375197291203482,-0.0688927805858079,-3.967223254288318,7.497892817781101
8.014846838228143,0.0532069944462321,-0.4295121077750997,-1.957558755019252,2.592232159062397,2.235120913826654,0.7899694492107736,-0.8819163461066011,0.8205655365128317,-1.6171188450054577,2.6154566541527764,4.344659478281519,0.8983020432029378,7.908229282642867
17.05343810734956,1.318284812041505,6.424136180496916,5.631007640866784,1.814786333083251,0.3963705557050651,2.2830320656763314,-0.3501207571631994,3.4157251623090463,-0.1620122657118812,8.351918085751128,8.337308111979569,9.366034351105478,8.013180317090708
19.21014534117314,2.8090384191100086,10.880948207277488,12.125058881298424,1.773305307273537,-1.267459598652613,3.368339008190897,0.8693322253103053,5.358198044521259,1.892758223716192,8.884276753257215,11.48777775417986,13.301188928335208,7.728884654589136
14.055302686690164,3.805145834837599,9.320756458224183,14.893642659576368,2.5876171456542685,-0.3387442273402818,3.705289008708068,2.16380502937361,5.311341541753979,4.009607477057477,4.895667747207592,13.328681148609812,10.004669514695482,7.525073404170299
7.64902003924812,3.7184135906719433,5.78458131417083,13.50083503615691,3.090902531116067,0.5419766195404973,3.063570010067714,2.551831122864213,4.809419091824086,5.457258244381842,-0.0845437810840971,13.430323381183882,6.210438587357428,6.581916520188058
-2.526255312465577,2.7562100320385223,-0.4231226225115161,10.032756687065062,4.448701072443539,1.3998668783299169,1.622516920103849,1.6877591058081762,4.406757946637788,5.76362505948098,-4.88016572174666,11.919780977190296,0.8460006469678018,5.007216320431414
-6.788480142090415,1.97486075420138,-5.259720169508555,7.833844877360693,5.135734760101333,2.2212588021879154,0.1014753780683888,0.402035490309983,3.955377862414167,5.083645384034928,-5.43420067556078,9.702595959453475,-2.744436393460651,2.745699874873152
-3.895387731439218,2.447870111527666,-4.014639561313148,9.223056362100944,5.431400071373108,1.8549778942568051,-0.5743988416649479,0.0686547251660489,4.990165007707914,4.138631995606967,-1.4639630995488884,7.846190979650089,-1.1463415823748715,-0.3553865973719552
-2.6587469896427565,4.157434468033048,-2.2537622818731444,13.623705234314896,6.620194741998553,1.7881802617979057,0.0842529065725444,1.3283373063412371,6.322353516994271,3.704485786339139,0.9227210590430815,6.583731328365248,-1.942083859894453,-3.604275196946044
-0.6747757029212349,5.664690706471691,-1.0412626140125452,17.5783638024511,6.866782657582895,1.7851288011085682,1.7161045390232073,3.434251217187227,6.972069083939496,4.007773982667182,1.9281190781411952,5.052349673617036,-4.5545695118892855,-7.027439897871092
0.3199412795403789,5.076963585521721,0.3564961990455437,16.972025107134534,6.5347572227875625,1.2505949719926046,3.321362617793344,4.9016275481842815,6.653432225130784,4.506551086742262,0.992090227218805,2.277987166361864,-5.286126073024025,-7.379339893783036
-0.8990204785987947,1.6800751491512425,-0.8175823857329418,10.09622319128649,5.113324566901292,0.5886369659715553,3.961672221272539,4.833045155983616,4.277810929064294,4.271828921444847,-1.7959981649945918,-1.4354437005827485,-5.375694288343053,-4.153828749991852
-0.8015462670743054,-3.142142304472458,-3.1620441552478296,-0.6885515512368996,2.135018428042052,-0.5144535549505552,3.388629229567898,3.6328044002836815,0.9027237145836446,2.728435055784327,-1.6743331151001084,-4.194977591351842,-4.082989769194803,-1.793300994302842
-0.0995524645504075,-6.646095479824184,-3.808049042465802,-10.107938771718423,-1.020295824744641,-2.082261681692392,2.132967892341404,2.4812943671449634,-3.1971931144084604,0.1989405600917062,-0.585766004166522,-3.8655367932028617,-0.8427783710705055,0.4435736305652027
0.4349397375565105,-6.708618617098438,-3.436793043996116,-13.315055405096182,-2.453731345577858,-2.1601703423411887,1.0635001956415673,2.1847134611013272,-5.273617814999032,-2.2120298821805666,0.155794540723592,-0.0099957376108071,1.257551186573969,1.5517625735369605
1.2511403310756823,-3.48477901742734,-2.213501585246612,-9.08892715224514,-1.042974527295468,-0.4763300214224673,0.8111454390198456,2.5533121196371997,-3.766548364788633,-3.375682781718051,1.181812238626578,5.368013570222978,1.3511248212572746,0.6267666308484248
3.515144322949562,0.6764911901594948,1.305771345370032,-0.5898048202556687,1.2224544588692816,1.3559207395590998,1.4549088538565569,2.81506588803825,-2.069572910793324,-2.985091014260944,-0.280412289258005,9.083590100992518,1.8848126000092635,2.109464210923502
7.353696944154119,3.0543415451888807,4.310391588664085,6.856474565708087,4.497858835695659,4.548441083214534,2.5844526630555285,2.4978682117688056,1.2392006769156332,-1.7942359836181798,-0.9680615461600628,9.048044805601435,2.4241019789016467,5.693048811390287
8.113250235934906,2.606740768978173,4.794860464508981,9.305100022611512,6.207482902451117,6.0389399289186,3.5996678673041846,1.834008437418265,3.323643413279563,-0.9990090897570634,0.2594638827503498,5.674326367881189,1.843022334375044,5.888800469930137
5.73512247659656,0.5346629042020994,4.095280386209605,6.5068657722427,4.057089035274541,3.981218517771471,4.039371256023929,1.3665730924513984,1.2009357562811511,-1.2348236381583295,0.8656943051318629,1.3129427524861068,1.2026750046046724,3.161880127275582
1.6391230983149905,-1.0267004549296803,2.429269797436976,1.4329216245282992,2.01120762129216,2.3694587811571206,3.781366302926728,1.3060293515277683,-0.0019179083341872,-2.0534902531762658,2.139218351161587,-1.6728479839935844,1.1960675096970754,-0.6769679637862627
-5.36265847104033,-0.9234516158004712,1.3024822361466202,-2.407020724911772,-0.7968923702103924,-0.6636102587945096,3.031435138495608,1.3683010548789092,-1.815776864549508,-2.381871076278672,1.3562248324187371,-2.527407967659216,0.8900773215518774,-6.731055931395953
-8.583554985871727,0.2013721858964724,1.1578935769034129,-3.636776065737782,-3.6016680518401496,-3.3756207340655555,2.1117566166358306,1.1875624638982625,-4.3543459205739925,-1.6084179942957968,-1.3069271523044264,-2.205457691229967,1.1533457689806008,-8.684621853654182
-7.616910960977035,0.7581364178883856,0.9300189455225792,-3.5975881904047906,-3.640164739823484,-2.613547715380181,1.1857936212906122,0.7203639637418928,-4.074984542281925,-0.3323777022787193,-2.1240966755676194,-2.1621877357792814,1.660063359591376,-5.987092726480122
-7.0128348743305295,-0.2550302343856179,-0.2080579310690554,-4.5639631571853005,-4.182818216356008,-2.5814843179518245,0.1403458207533094,0.1180381003825925,-4.361869319570898,-0.0457019986882998,-2.1347830070732106,-3.078367880869796,-0.4000637730127909,-4.584590651790808
-5.185206642652726,-2.468969807889442,-3.207847628591716,-7.307600114885183,-5.2445159871043,-2.577549263348032,-1.2476456203795758,-0.7343103633932047,-5.683461286265548,-1.932841401815387,-0.6023485178781671,-4.576374124327323,-3.126841164944534,-3.0528431290022637
-4.980651010898605,-4.621884660310011,-4.825531373196939,-10.24158807921501,-5.090019177888344,-1.36375695332512,-2.9739160745933946,-2.301051917095668,-5.037405341444464,-5.766365580279341,1.9414782319678388,-5.908527548802049,-4.048743224481162,-3.2121139922099724
-7.046229224704972,-5.608024962956186,-3.7922516694916113,-10.934918437143152,-5.196363191575721,-1.0438077503890866,-4.606138197084417,-4.771891434420228,-4.231346832807293,-9.833042792931014,2.550792795392111,-6.743228718517444,-2.995637489972958,-6.081416927552004
-8.328171309147146,-5.120768345436282,-2.898419347003377,-8.596492643140634,-5.224804175445874,-0.4116574280388096,-5.455108385197263,-7.33468396155436,-3.8010598072361295,-11.988515974501794,1.9931219761224788,-7.289526195223946,0.5538588857482073,-7.792914546100736
-9.60737532456728,-3.588957585222139,-0.599633602384,-5.152271275807403,-3.911306589660984,1.510637953604029,-5.045394084262791,-8.351556322513028,-1.3528508070758312,-11.048321206084836,1.5486779143669351,-7.817938648143775,4.675965571773494,-8.975157603599946
-9.06593045421847,-1.791016495534039,1.0937374780919875,-3.7453335806739303,-3.304774020327657,2.0457053341203744,-3.53441478675288,-6.670481520197286,-0.5813725802715679,-7.513332361977952,0.795401070898148,-8.237603640189434,5.775194234419171,-9.682842838957464
-6.1345517707887165,-0.5301940882524525,0.0736598950347846,-5.888204772833781,-3.911735127624756,0.5178556899332057,-1.7305163196227016,-2.9999083975712315,-2.683051839171698,-3.195118675966309,0.1697787820708115,-8.211887507564414,3.4303499407831985,-9.241119185209335
-3.2191179024277825,-0.3624418233818072,1.1818202081466225,-9.884831399683812,-3.8822883529390255,-0.9221039762156902,-0.6560770376450282,0.1405413721968518,-3.8717174274032606,-0.1082701329175075,0.4111524970431452,-7.639573567824522,0.2038953672254433,-8.699301316572145
0.2318430640191043,-1.2775086197961354,2.710598173490101,-12.126899422645185,-4.372386827434186,-3.442199743613581,-0.9428713961688572,0.2318264188448864,-6.664795461944534,0.5981939662699393,-0.6037423487978616,-6.941734960429814,-2.2227322425837683,-7.824775643093867
1.2989084254128964,-2.550772782427188,2.496826451120964,-10.25826305430677,-5.3080359055961015,-5.151071219051211,-2.4644427728106173,-3.083409638701191,-8.740881128495818,-0.9198581783930572,-2.1532140994809,-6.829028019908715,-2.7146172309046066,-6.310439823690515
-0.6531279532104614,-3.111912944512543,2.508638013575116,-5.377457793331024,-5.43897156284172,-3.709832434522312,-4.431970339314127,-7.486323597445905,-6.948322894735767,-3.492755980712198,-2.523760849850732,-7.74187255072715,-1.6548216899886068,-4.255552760294763
-1.6895981823566208,-2.3386280288323533,1.1129423786100474,-1.21149915827372,-5.903338756889206,-2.209355589733597,-5.861650810699588,-9.75339165583529,-5.815611765536064,-5.66106264075632,-3.4911495410879927,-9.412174770343004,-1.8893059392361689,-2.0793991130606493
-2.561997713806088,-0.6212319068569527,-0.8917881698845714,-0.931168314635237,-6.886812491924153,-0.278956994511385,-6.10308349853158,-8.343340135743581,-4.052561240783527,-6.412977860235594,-3.57078564552676,-10.844670868818476,-4.921224611881129,0.2151676589120728
-3.242085408067049,0.8891093567095032,-1.1732056957367507,-4.466555174604119,-6.8907901913600025,1.3935135807901653,-5.127606138950931,-4.511818076610188,-1.551445774790656,-5.604094815445114,-1.9495658091725492,-10.737033578786896,-7.124457907704964,1.6643739260039994
-3.080175818820205,1.1818881250935325,-0.4602738108646393,-8.711945864351891,-5.95414514630468,1.2263687518424322,-3.4614209692042603,-1.0080388323870906,-1.075059635195187,-3.899997585512892,-0.3116272839521019,-8.178329974127138,-5.674478516871186,2.045115631581501
-3.878523793838762,0.1242137352556294,0.0829758185018362,-10.314134719315051,-5.141472057991521,1.2939458776595485,-1.853971334185093,0.3626005397017574,0.1471387707045699,-2.2860087152213744,1.3737539792819424,-3.3378744177555366,-1.1341085666031725,2.8392434798935966
-5.478741643379059,-1.5933562661966518,0.1673941103332195,-8.403934068210184,-3.50108345981616,1.3019450754927373,-0.8836475094435139,0.054524059743393,2.165110160308397,-1.4019294959793005,2.930067857648428,2.288643626406759,7.548996725022564,3.801346290766333
-5.534463884396547,-3.1205995282630177,-0.3370630461822068,-4.877908002065275,-1.9999562020191093,1.10587284456589,-0.6954970301862264,-0.0939521934890175,2.8369210325576173,-1.1033479979011755,2.760683568118944,6.457584823550384,12.90132126641204,3.896462161434591
-4.189913124871044,-4.004918598664089,-1.3549718734845049,-2.309006718858054,-2.3051981259821006,0.7495920406326919,-0.9893339356660462,1.1042800085643614,3.3483752925077157,-0.579385917088385,1.5271018791557462,7.463350526738246,9.447949670548974,3.283840039451369
-3.4153689993451786,-4.197628571832677,-2.033456078491554,-1.7287600436962725,-2.361347316322967,-0.4969434013873597,-1.2533970058645338,3.000496707444931,3.5867315643837765,0.987991139605632,1.895781926690414,5.312382936940053,3.289541522522877,2.6525104449075507
-2.829896429520739,-3.7344885518667086,-1.8337395196464552,-2.2978327947020976,-2.2658543519388994,-1.837573632604684,-1.104652361613617,3.79623870609507,2.602941847664117,3.6752057154333415,2.939987814392782,1.7816741374385838,-5.551135264241375,1.8623818148662743
-1.580026617517175,-2.597340568736952,-0.7683752617692311,-2.729182584263084,-2.6214605746606163,-2.6294160919683263,-0.5178599523463885,2.286609503666003,2.488572220338931,6.5997413748995655,3.3767951713360773,-0.8660683623556507,-10.839841339077749,2.223197214852668
0.0795875088980542,-0.9092412304378484,0.6684998125618814,-2.632788897785561,-1.5579146676047186,-2.719344539515606,0.209745290433625,-1.026276579963569,2.599805605287952,8.511489130328219,2.35725968271235,-1.5433387230176383,-6.8098327961385,3.9906323606423
2.8178945922784377,0.8795909402337225,1.3076553701654765,-2.4017211338249917,-0.0301788730911149,-2.125492714620949,0.7110805838418692,-4.354179446514799,1.9489949434096536,8.792375898888565,-1.1293543996368058,-0.9591075479991495,-2.072168699387847,3.985715056709344
6.815635538169562,2.183855614858253,1.1149533580278217,-2.110236674721697,0.7751400628176305,-1.348043917017964,0.8005338030743225,-6.009131685375239,2.052279872191608,8.019482335524081,-5.805052824896555,-0.6647600309952408,1.7804154638512064,2.38829633506389
7.848622021444222,2.765868781019857,0.0696481962747972,-0.9793810990293392,1.5206720559645768,-1.3629958095975685,0.5315280527660349,-5.477054192454361,1.8114375812655736,7.523365815255934,-7.521948468567554,-1.4456215829683914,3.977371571705097,1.525096792550462
5.761218092703956,3.0173391198885966,-0.8709759256291505,1.8468370656873756,1.7043444526742677,-1.4567123558033763,0.079763271399994,-3.4498266469147705,2.334020403813615,8.235624249723706,-4.557084677660766,-2.5761565447476684,1.992362097966437,0.8574951580745116
4.657481734585453,3.660456589702584,0.3775619680537597,6.104749547499864,1.0097949734348075,-1.345937798068081,-0.3654516097615135,-1.111455066118817,4.1381691481213,9.811822706546598,-0.1316641837436475,-2.587936725648394,1.442187355568805,1.6514148954698975
3.693520145749942,5.029042911542077,2.35257098543881,10.221072738805738,0.4309819953342338,-1.809403260726166,-0.5912103314603372,0.5792831325612922,5.182160306672146,10.836635039477894,4.83718083021149,-0.7348402892683819,4.795004089669321,4.391432013160714
3.755197247615001,6.545494788244428,3.298950339767232,12.44831198264812,1.0138295352524291,-1.0638321104508237,-0.3370456740623209,1.2119940919702996,6.074511090755248,9.95948258901589,6.592225636715601,2.2566029670637224,6.880382713120035,5.15294512782818
5.59739169598753,6.947878001229553,2.380873255389672,12.217826494682782,1.8680798145700928,0.1441248014492777,0.5768524607116379,0.967374373458726,5.829678233722445,6.963087858804651,3.3933936278357657,4.78054365806,5.368386147891681,4.138971815940129
4.4174256367093845,5.249936570301042,-0.9390247951153692,10.4373407999415,3.037622601146826,0.7409499853500703,2.0115741327242267,0.5542553944545106,4.289247410120048,2.8705604175141137,0.0404481066224028,5.647668095208459,0.971555317073839,2.9954612186051373
0.3613587404485734,1.7693370912380568,-4.461381467929996,8.615668292134112,5.244185807242779,2.7307716258668195,3.4387113878106543,0.9475431076135644,3.312411416476294,-0.8635684006043024,-3.352259362596393,4.944183727540361,-8.356277530094024,0.928136788337372
-0.715083396226945,-1.647054462073997,-5.309606647244123,7.795522290465668,6.125910579309336,3.8749596874259526,4.235146381220927,2.7966132034866225,2.683674243191087,-3.227160941032957,-4.583396820034277,3.8895869020303984,-13.948382915718692,0.491351940667295
0.560583015581027,-2.603276499222008,-2.961074766564916,8.188151832615358,7.028529536348051,3.9131673315687983,4.15954699402981,5.776387426167166,2.782889163403442,-3.8749451478898616,-2.0215429840450216,3.999218342305271,-9.72735056626673,1.966443047143949
4.266173758266818,0.1530515145090525,0.8187007973774931,9.460358600062277,8.949845348913348,5.031099090375466,3.5636310545699272,8.502099166258052,3.451374275339367,-2.8295719846004754,0.1512439558644564,6.1869670187590575,-3.071784669986914,3.119529780566603
11.702433804669528,5.509291454984418,4.533605921052315,11.034401030777374,9.450129008594892,5.019897034512144,3.097924960219158,9.345338148014616,3.8112969597878936,-0.3233313425777682,2.591093723483916,10.208648742008428,7.2853090163574175,4.561691664068147
13.782789048195204,10.304527604641208,5.467074111412928,12.10623606590186,10.458428519494742,5.169577381290017,3.175224768144174,7.6659543205767475,3.984378920664684,2.924806410876581,4.024049081182628,14.58626991421389,13.701906520090851,4.84040360291733
10.306782507696992,11.243315147656194,2.871663400158533,11.72351512948569,10.916554602711212,6.422438492707004,3.705885863997922,4.429040375593217,3.371395968155321,5.494577765822934,2.145511760376694,17.124520051183243,8.374597052048975,3.540485955481192
6.0556952395839865,7.209051360495563,-0.6157188194049232,9.27603629778089,9.502924951125156,6.641591712602208,4.319331877947207,1.5767997189110543,2.497515563168371,5.797138674413439,0.4561091877259947,16.016238229332096,1.7423055702081038,2.190026802082744
-1.0837446136261577,0.2590427240959613,-4.405920494290308,5.111746285242672,9.07752498576622,7.311106725405455,4.763264658355766,0.6067547809096311,1.9362299477684684,3.269208261917482,-1.677940696351876,11.07386687477096,-6.60382037669181,0.3298583230463729
-3.834378455805116,-5.626631751928299,-5.640651077811014,0.5778670940437047,7.566824803961349,7.118304182250472,5.018843616233012,1.5431210142763956,0.9002741672318582,-0.7940753394991011,-3.470860855361668,4.191444803343752,-12.039790766460769,-0.552997487187628
-1.3193721622218322,-7.297128313384119,-2.8287140363040115,-2.771208519941479,4.974925569715269,4.942047792428872,5.0538275561057135,3.1330708920897825,0.4773643606952863,-3.787368395528679,-2.3005847271759143,-1.5843696929916846,-6.850663978511307,-0.1574676170387782
0.2866232333422335,-4.658853097585618,0.5523070378381386,-4.19017464393165,3.1325868845932296,2.7616340904066754,4.59555751638819,3.989010012551542,0.5724971300012767,-3.608754931637088,-0.9705567015643264,-3.951860880995637,-0.0180955248303054,0.5493856067387425
2.793874758572799,-0.6121120420119384,4.307910355771211,-4.086093917994043,-0.6758605747285364,-0.7220258326346973,3.296925659691451,3.6158944297532334,-0.2231549265552043,-0.3700780337400138,0.340984855512725,-2.85144474821536,7.505043418076262,2.036070899787632
2.776626184909484,1.3095241330590153,5.643074941049947,-3.443959364087662,-3.519401473322199,-3.266258666225115,1.187854474856196,2.5228989575062126,-0.4502104627661555,3.4848257447520705,1.3696707896735796,-0.34641327493852,11.812087381356728,2.471749700069429
-0.778394611304528,-0.2918450316444896,2.629691056257004,-2.9699162463655853,-4.259203560510975,-3.8348592784085,-1.09109131298479,1.5588800254079138,-0.4316374271734933,4.901580448310535,0.6394468862235811,1.0541855814021872,6.818121128187843,1.6775377631352455
-3.079019037168313,-3.76759666923932,-0.5029895751163725,-2.7432496550448606,-6.148031889770348,-5.139885244910894,-2.6235498092251905,1.2365889179825795,-1.4038737863154631,2.4676126168975907,-0.1894531296987063,0.2742924344963739,-0.2431411376731294,0.5587655977147592
-5.088343291477773,-6.061040880353679,-3.8071044574927018,-2.5073288609489244,-6.536346899857994,-5.344017413631237,-2.9030414613364157,1.5779248048758432,-1.466213491332758,-2.603273171952444,-0.3003174156089939,-1.7436417447056454,-7.349142674404139,-1.3858331900069458
-5.017345122316264,-5.383720320601952,-4.859682148003836,-2.079934959993721,-6.332324830442914,-5.539655080182856,-2.257784146488012,2.3377277295344547,-2.348313556078422,-7.512588061347394,0.1629332365480475,-3.103384086734707,-10.182247178083262,-2.049433912274683
-1.9324423850594112,-2.5643909417737025,-1.7290351318552086,-1.436321962628456,-6.738702414939194,-6.300695634484873,-1.6003162581165484,3.1577900800413734,-5.70363408680119,-10.024298272143444,0.966750809931488,-2.6494376667409947,-5.017888702345356,-1.2551370607349823
0.0634957310859585,0.0040830483857676,0.7548034477928055,-0.5876371998176104,-5.189726810278465,-5.480922686045162,-1.690162898095033,3.521780652249555,-8.816036960827054,-9.934600046813928,1.2445211949902757,-0.8532493475700098,0.5750488208044894,-0.3691597838370759
1.5385469194427337,0.6697105654128537,3.253690006894725,0.3778408484930624,-3.299743479788004,-4.802699347385248,-2.5390660604843576,2.8100886174081183,-12.932442368493843,-8.77326075390855,0.6392322628472888,0.7282926699615824,5.110055133134926,1.1371648355075936
1.988584824333187,-0.1334062701985758,4.17253282345198,1.1085492229892422,-2.1841658797044934,-3.836390277200096,-3.4631703688953754,0.6899567645388305,-16.020910510678263,-8.232052976887589,-0.4993611248509254,0.8003316597927608,6.22355275823013,1.045746158327936
0.5768364903783347,-0.6461499498448986,1.3968413470201049,1.0862159044627564,-1.0079565515924933,-2.053776910970659,-3.716865973286642,-2.41853861885341,-14.901329453991758,-8.83585676961808,-1.336127225432629,-0.7181245110986882,2.0260369303955508,-0.9456191835453104
0.7142606239839526,0.279552264695142,0.2448885800913579,0.1681053148402806,-0.1815432114243235,-0.6847660885542574,-3.137719472280024,-5.344577190290753,-13.293439187371709,-9.92509732328275,-1.2620642786904477,-2.842573499970928,-0.7353055326829836,-2.687368394176106
2.159318557270961,2.040239866118472,-0.860098766316659,-0.9758626653991272,0.5834985115780675,1.6132061319079676,-2.236558321791095,-6.833580029227897,-10.81004966310665,-10.63283255853856,-1.0110251031305082,-4.45898622420016,-2.231377250358253,-4.728978251669456
1.906817633054993,2.967425809368711,-2.159884067885032,-1.260305691594382,1.490382257343248,2.7473529859384174,-1.6785537140077802,-6.412604648839074,-7.552973188277573,-10.655240029841544,-0.2909338399293222,-5.13600019460165,-2.767876469126072,-5.166334819094238
0.428756798205979,2.015745021173996,-1.201003883659524,-0.3089020855620659,1.6745811671461777,1.4885135648157752,-1.6618272766853588,-4.7254417112495055,-5.551600218219924,-10.082495405634642,0.8822225419488909,-5.180521129712886,-0.9429341761297514,-3.527272470599057
-1.9075367480169725,-0.2591286238305699,-1.7089300191593877,0.8238727890066864,1.4643866577666702,0.2484299369588176,-1.7903628637168307,-3.044413372558976,-2.77344704003987,-8.753939937364901,1.1665385187668105,-5.086385053401297,-0.5516360335769717,-2.551073214868688
-5.64983179532207,-2.290502213396864,-1.9616100980862017,0.35226025671626,1.0047948424148294,-2.511514337965491,-1.548806404196231,-2.3702878337574727,1.2683722338108514,-6.137536891135206,2.0132900106444187,-5.023728172995651,-0.3732973317621998,-1.7411275118996448
-6.700263283766918,-2.935177314906989,-0.4743050602561418,-2.5146629382537515,-0.0398239776321051,-4.237640495353061,-0.8818363203523092,-2.8267393353279475,4.211285455922054,-2.01747272723145,1.9799001281235973,-4.821537665643549,0.5547651873085697,-1.2502211583340503
-4.824608717330727,-2.340103618789454,0.5963579023105552,-6.497618013637061,-1.0085992174866594,-3.3432563770474983,-0.2681356504161312,-3.732078452148007,4.909039782878328,2.812652209944267,-0.0205214076667491,-4.3129054797797215,0.3614161220573384,-1.5581417045217798
-3.585613101051297,-1.571667666897174,1.7718188687772056,-9.09657342043415,-2.239304986243236,-3.2753471710212674,-0.2016186546641565,-4.168758115716805,5.346164604480893,6.791379056055359,-0.6358639861337722,-3.582985426205017,0.3559023872517603,-0.6981798039054994
-2.091191721373981,-1.5725476846804618,2.7742329097215306,-8.74913175810481,-4.2875149363475575,-2.2606488727341376,-0.6288232737948503,-3.576553299980644,4.965380196974441,8.69339132072473,-1.8246060388748016,-2.866290416167761,-0.1967965728912722,1.238413896364446
-1.3426784190300085,-2.4712462327644227,2.1755614812366835,-6.235262121242618,-4.823839246397578,-0.99285060182871,-0.9506695968691914,-2.005450537197033,4.379427923729836,8.533257281334416,-2.0402764974731453,-2.266422065119947,-0.9790821248137296,2.1231988954827985
-1.9237711771990411,-3.686823039138152,0.4175869101570774,-3.897772155799228,-3.684814649683321,-0.4580964901852818,-0.6032469807268608,0.0378731602831086,6.604117288912475,7.393561807984034,0.4044595807979293,-1.631634674500365,0.0140647783579329,2.215103138913884
-2.151380117477228,-4.461809622903697,-1.236722861576631,-3.410224995400072,-2.485941722146481,1.5565662468613877,0.3939164501253887,1.9774799770366245,8.7857536570132,6.451850830387307,0.4702814862143113,-0.701296222997815,1.7848610205993631,1.7612248626425966
-2.4252384196790784,-4.264654920917388,-4.118130972104186,-4.283703715647826,0.2853115405795396,3.6527534755522746,1.5003143326357455,3.517283732757145,9.913705060750766,6.251442175626295,1.078681552729758,0.6425818578888847,4.079590595048093,0.3329471796348993
-2.3447482598706197,-2.911036130867934,-5.795732440280231,-4.531704516037952,1.9519149371590276,4.811065417234439,2.2354520608102133,4.710769101737394,11.222449469457269,6.809111178859717,1.6862383801015324,2.2353554304287573,4.579192675895582,-0.1492896148432949
-1.651003707484782,-0.6036081916693167,-4.162902317978293,-2.730359467898869,1.543311929977389,5.315482408025265,2.62075493420763,5.690859574956445,10.149972171760338,8.092707858531428,-0.1805716748752146,3.666484866514701,1.615344053767055,0.3490138503827955
0.7126220640297842,2.023654325079507,-1.259648238329026,0.6099890910319508,2.194684878740612,4.95624777900442,2.9934717024363464,6.294173511472533,7.813051189655123,10.043882538633513,1.0476080703727906,4.443626225919708,-0.9372728780466998,0.4495247155503423
5.0966260554755225,4.045015033610132,4.091849886224764,3.6112935908210737,1.8771721366374643,4.218527453226248,3.426659746285416,5.992393096724162,6.052876373048684,12.0767142134242,1.381289184218346,4.2279578157468265,-3.372200045308821,0.5494644952976262
6.446422366383096,4.694398857432308,7.704809620142623,4.786451408899055,1.418092617701466,3.461422478016382,3.4607395594575,4.337252779804476,4.155793672894837,12.87349487487815,-0.4727200933843344,3.069154496821076,-4.1725869801726265,0.2150675568320796
4.750177253419261,3.861392356258687,6.000295194211971,4.181586415249496,2.115756135359493,2.2364307035546718,2.531433733532026,1.597013188532901,3.46993586569953,11.15141505708519,-0.9759419744727036,1.473592901453067,-1.862842837368504,-0.7571256211884039
1.2850368351077113,2.15879229488488,3.2531256366951182,2.928882733271699,1.5066025250073083,0.470705389764077,0.6949286473048786,-1.091203443777861,3.3772137247417757,6.935449941680703,-3.610937223730117,0.1460931247460082,-1.6609874526225374,-1.2553659783828215
-5.227168020904036,0.4381619405250221,-0.4824139502982794,1.928572521647392,0.9065714342945034,-1.80733094063225,-1.1508851432899465,-2.424130186095705,2.58596263506527,2.0318910008320943,-4.896175494091384,-0.505710558265263,-1.8741992256014697,-1.384760364379464
-7.1383923819111805,-0.7961964038321181,-2.913721090204829,1.125342337613842,0.9160360575239118,-3.551880695275002,-1.900803548477381,-2.0265216551312326,1.9501974069481205,-1.071537885503624,-2.485651270019704,-0.705172461114064,-1.075998573973854,-1.5009880151313022
-4.032397798919248,-1.4975559665178406,-1.214388147689384,-0.0001722903101937,0.2006853762350402,-3.930018583612969,-1.2142371669171586,-0.914949648695676,0.6861306057210202,-1.1384314225806815,0.2794132270117792,-1.1005278239109475,-0.3376793340742934,-1.3978572201866286
-1.3672968176304756,-1.6629515745567174,-0.2735710431775627,-1.4799861392557232,-0.1773463388905115,-3.930238632534765,0.1135993760950593,-0.7216177356280261,-0.9748184282942204,0.7605435048511224,2.633459267236873,-2.10801777940559,1.7536921905358285,-1.9755153235360532
2.620774804110156,-0.9696745044376908,-0.9735456377280493,-2.615672008105502,-0.3477498747032591,-3.5062230655785784,0.8225447704669517,-2.223534823092553,-1.8956961131288688,2.124790181867233,3.647579133658245,-3.3913666647580856,3.5386024383926893,-3.31370458936793
3.6150432377451063,0.9758204233301864,-1.5759082664923616,-2.706179920808868,-0.8431653375006458,-2.642083109100771,0.3583895402797235,-4.514161481668427,-2.8565445662018725,1.1408564257304592,2.411011711223488,-4.034389472152391,3.151807066167787,-3.647138679384269
0.6640278580307448,3.92745766936097,-2.6857110110801097,-1.864230544785162,-0.3913017920042547,-1.342996133128854,-0.5353569362012178,-5.685260574563888,-3.010706248373189,-1.8316112563750304,0.5096259833518972,-3.336164375751309,1.1065999379056903,-3.082812113617498
-0.6622220280622684,6.634835695482828,-2.7696485681058016,-0.9325919485125354,0.4210907866492189,0.5847355892149181,-0.4260294071618893,-4.488061415644428,-2.2274869953589698,-4.711085246151011,0.3757906030411642,-1.5195087631878843,-0.7838948756372212,-1.8455740275235413
-1.4637672239873196,7.455348485518717,-1.0426898231645176,-0.5510329015075581,1.0487313138858858,3.2220704620621183,1.467210647149618,-1.4635227817347891,-1.8073080231162209,-5.600450368082435,0.6172168353473759,0.3439763714354953,-2.109053565498498,0.4723193070927334
-1.3617446460860174,5.626597829305689,0.4475589406090519,-0.4417440427071537,1.7917023630149125,4.998974167333143,4.3961600009438495,1.5077766323290476,-1.2177774126385257,-4.359999904013003,0.4510376831247799,1.1837198459614475,-2.079816559972308,1.436304636134034
0.5753837414935252,2.0862447430759703,0.841999120011588,0.208409426050167,1.5953598657320072,4.24116252376244,6.514205270299206,2.790911942780632,-0.9878223338510372,-2.4807576086143728,0.0943637817740274,0.8118278987177581,-0.8958882014660872,0.9602935609480135
1.5517322119683294,-1.0419290057253443,1.0032317862044575,1.6379843507162462,0.9787753660703382,3.03560235028478,6.302927987222787,2.229615836235296,-1.3713753918254463,-1.5640578731374315,-1.2172862613800413,0.04065022502889,-0.2777439236340699,0.7999102116108002
1.8665603446301533,-2.0121297632384207,1.2226385944748888,2.979434789618491,0.7089342218207518,1.332851107443549,3.770326500430348,0.9753171127685708,-1.0859080594173418,-1.963584373537545,-1.9291762126053251,-0.0627179533080433,0.4042122638529868,0.4220525980332962
2.1246079634474064,-0.7634727631765945,1.3786632902706106,3.0828341416231737,0.2503784927472983,-0.6825203732174638,0.3946727252719357,0.2714095551609414,-0.5306243488707854,-2.79210820521383,-1.280621967298092,0.8989556729880235,0.8541531149239673,0.5428882674143318
1.8167460710496264,1.1927441285772704,1.667885145259589,1.9323620296884985,0.1425529249607602,-0.8140425333986291,-2.07962464372394,0.469226375519459,0.0097883951641448,-3.0315268296088598,-0.2078671991513045,2.3744933994946003,0.845309794046618,1.4209936046921228
1.823466315138429,2.199516030437718,1.8388707176714267,1.0215740993877305,0.38375620008972,-1.107022009845783,-2.8950076526618886,1.101672315824609,1.0647076308621517,-2.484114621190733,0.6698530364021408,3.434050293662388,1.3786651365498177,1.5357006067036354
2.1285638239179603,1.8661287258787171,0.8987770879427401,1.981796028872904,0.1467631292678825,-2.3645948159668952,-2.546612686309376,1.6385174382092864,2.0767876581278126,-1.7098611756476014,1.1346590219540402,3.61102452718181,1.7165468233757022,1.0544901644776798
2.399332443096436,1.1666466511230946,-0.3637062040723684,4.6770489185022175,0.0753504582384424,-2.5413557105105875,-2.016866186175197,1.944686345438875,1.574822636134676,-1.287883059157629,0.93323313119219,3.2253900571748995,1.352231031816488,0.7395553534172209
2.8160492888257664,1.212461119540687,-0.8963846206045176,6.826153728913615,0.3699947241395008,-2.7669122972872264,-1.84338530015809,2.020545441182048,-0.358921271422406,-1.3373165139485277,0.3929291596847447,2.9361328318391227,0.7220304350062583,0.3498588505664908
3.0488963175998776,1.9910470367021884,-1.0163895138122945,5.875420303317412,0.3141813836921656,-3.309497217760615,-1.869955031888919,1.5693419718978636,-2.60377567960009,-1.6958348637045262,0.0957897185822626,3.0153275521157608,-0.2529074335066018,0.2940592233856656
3.072595017678072,2.3678922260574646,-0.5645008848888202,1.5275695858419431,0.5858073429329866,-2.5109795150365146,-1.7303317601548969,0.1369976261825445,-6.265890420076096,-2.289220273437828,-0.7230745415948033,3.080616353990786,-1.530484546564036,0.6984275181082449
1.865535476942871,1.3288984205760437,-0.0769931271172071,-3.5638630635133435,0.7892826454473102,-2.282822172860973,-1.4122827480137876,-2.205256128232264,-8.085758873856854,-3.1064021695510826,-1.6522255946642166,2.536456723786122,-2.042301962488981,0.5784930994228045
-0.7761541486815584,-0.8574754177044663,-0.4877022570707023,-5.809541471805916,-0.0587662792958607,-2.524413242340864,-1.30224916382294,-4.46731494266915,-5.974143446361097,-3.867609508698558,-1.7519685627400756,1.2547269514274142,-1.6762149049729498,0.008576686566412
-3.70441702122846,-2.7974480617377804,-1.519518302035034,-3.663486117036165,-0.7623950548981662,-1.7683438952550998,-1.745057884723881,-5.2958170682634345,-4.252864455311121,-3.983880561512925,-1.294691246572048,-0.209780142805851,-1.384354981670742,-0.7596436887954472
-7.205321703339278,-3.3025508574720237,-2.3637734052115458,1.1660054014385892,-1.560546646734237,-1.6691702125969712,-2.6429972678201583,-4.111724687062827,-1.0587190420348829,-3.060428153080349,0.1406753603303739,-1.093791944734695,-0.799200793239454,-1.928442193522316
-8.293645637156539,-2.51047730184668,-2.162568370884119,5.329091222384033,-2.5316286898025084,-1.108845300544527,-3.509682266973756,-1.7145164503132753,1.999885936976634,-1.4297957179158356,1.5702273318349973,-1.1155174284427711,-0.1322239823757958,-2.1118470533728564
-6.512347645841075,-1.6448835149356142,-0.8745146932693905,6.658350266264689,-2.097823396409193,0.1316645053588607,-3.891031777060255,0.3328433303145879,0.6873710043746079,-0.0210346569856918,1.3349811162969367,-0.6946611855891844,0.1031548209233388,-1.208488058345427
-4.669224623553942,-1.7069669276830972,0.6021387272669636,5.585898143572889,-1.4944439494057256,0.7714878439549425,-3.722729405876233,1.006923654386115,0.0100584916411512,0.4311137843237675,0.0408934699945069,-0.5064187072827606,0.6963062117121119,-0.0183952556321623
-1.9677230322855,-2.4957003622511538,1.7689797485045828,4.0923429022029225,-1.2072700621931771,2.259119685742061,-3.3053926652040926,0.557686414711758,-0.2088053469765209,0.0526584897071289,-1.754012898352829,-0.8428973432081728,1.6698860790002237,1.813684612824831
-0.1059534571250817,-2.9500118359148466,1.8078398980546049,3.5439242675218914,-0.4448411023603448,3.262774206623927,-2.974043289462289,-0.0094197867887411,-1.9151528639455455,-0.3408777224380361,-2.405118047825162,-1.41592995675748,1.771383259140516,2.3669945209989627
0.428371645322563,-2.36452482988949,1.0663837370419642,3.611740945276165,-0.7275025607383825,3.4720939225744183,-2.8050100091015,-0.0998158500747565,-1.3690024937870624,-0.0970057780269444,-0.4302283279532367,-1.7465390330736783,0.9553969690973346,1.4265069935656662
1.363660410720493,-1.1386940367017653,1.3634214052477125,3.073827685886076,-1.4503049636499914,4.329190024361966,-2.6242472173402622,-0.1079962590077401,-0.4832056731677272,0.6066322728545694,2.748299594174903,-1.6883363795861124,0.1337350425673328,0.1641758014150335
2.1595836758591607,-0.3043004863788452,2.39799675709376,1.3313783332146731,-1.3926909144710429,4.29497458462328,-2.267691807161036,-0.8569109842472373,-1.5003895876302504,0.9321863066641392,6.3042137716262525,-1.550420785858302,-1.1439068236158514,-1.944888258857116
2.0145081095956665,-0.4327512484391871,3.0581908237244826,-1.0255310320369966,-1.610360485918983,4.009787948668079,-1.8050590094850645,-2.591097858742246,-1.533536851615556,0.1787941007686706,7.287146558195629,-1.759665571945368,-1.3248928728920433,-2.5902139809247355
1.0005434622482972,-1.139478792524266,2.7316902867509607,-2.9887700438363645,-1.2629185801821,3.649669045584877,-1.49117422004879,-4.64989509724411,-1.8076213107381576,-1.581824380188113,4.384369587180413,-2.468797409410573,0.2889673428342043,-1.5142250780285385
0.4888567322506131,-1.6509118831180374,0.142695428344677,-4.151634583236501,-0.1288619189080528,2.1190679926036258,-1.494143753010055,-6.130437150674679,-3.45452495893621,-3.5673644657089336,0.3030500784095938,-3.4831068558430927,0.742160667557306,-0.4280991030224242
0.4118086638312901,-1.6912943555721889,-4.12239777987999,-4.807064612323468,0.4043936989718903,0.6160248959639022,-1.6899338329757176,-6.732179412104236,-3.914983116957224,-4.870301996754549,-4.97249846054063,-4.457676675194991,0.6664408725975669,1.2634203449981636
0.5702097045618126,-1.6522761847741765,-6.2448312132474015,-5.1771690442919,0.6416337133713704,-0.0465116669960026,-1.76719556052753,-6.825854854409288,-3.747073224787851,-4.996727184657672,-7.743755683655185,-5.059570243823724,-0.0224243018536088,1.91684239275168
1.293232307352699,-1.9136733000336876,-4.641930374824125,-4.854322461179571,0.4004024175482104,0.3020186558717835,-1.5690813505505918,-6.748521154275977,-3.309197966433873,-4.009493051000339,-5.939128834027419,-4.978726654739791,-1.6238757525300676,1.2339547865601788
1.41893032164762,-2.2026054507038024,-0.9339946595686884,-3.2227166287260447,-0.6483343425587994,1.3183516237096546,-1.321763039239349,-6.247530364636257,-1.82053902035452,-2.3738695640971432,-3.928614164664795,-3.987301949670401,-0.7652803600769984,1.3892955111614422
0.9564098292270364,-1.8351676147688372,4.225493340991196,-0.4193303233481673,-1.6574127838911832,2.692219405126762,-1.4549680041390047,-4.7903140302718565,-0.0319879555985851,-0.7500562840319285,-1.06843788949109,-2.1999342975628484,1.3035350404596096,2.0026084273053466
1.1574038152962876,-0.6233681150608397,6.786636193551806,2.3003613078543723,-1.8538486414972664,3.283647653619321,-2.105424002586636,-2.374088787044372,1.2023596912855772,0.2263069721204549,1.7674116548175465,-0.2865908367290153,2.9055541954892354,2.614952446081027
1.844891014382294,0.631220080595202,4.206363423568412,3.337597801165292,-1.4712618309373862,2.570853642305154,-2.7632075543634103,0.1901626186736553,1.5164808027275265,0.2685890413136147,1.8317191372125257,0.7944258957989385,3.3175440633675373,3.5589675512919547
1.936562466983886,0.7766167224778053,0.940974915105232,2.014669262573687,-0.7175907975666562,1.878251934341284,-2.491410023000032,1.9620252051352705,2.0222634427023007,-0.2411717937797859,2.599418098681083,0.5464860233744488,0.966847215964816,3.817453392103733
1.5718781309102603,-0.4548302812697242,-1.918219680063109,-0.8493847138735093,0.5343670716303065,0.867732398361504,-0.684112656214833,2.793586718617785,2.5402513223550467,-0.3246300984868782,4.648791485036549,-0.4985901415985578,-1.6496679549296602,3.329090728592325
0.6016302418322406,-1.9457162530097711,-3.655509412063503,-3.582313574129289,0.3258420089779689,-0.4702472098161998,2.20143713148968,3.3892166229709844,1.4484459952112236,0.8928123010943514,3.712118726617757,-1.1337711510196016,-3.424296242384591,1.9992244892348328
-1.2219862428317243,-2.1472008102043985,-2.6812700821385187,-4.947606394906925,-0.9887763152016608,-1.515278645149613,4.613658352962072,4.33577683685723,0.3324849362460951,3.250701069145403,0.613334052783942,-0.6553272518753746,-4.021244758456112,-0.4871234152610369
-2.5432777374164117,-0.7129582646292951,-2.3678777990545203,-5.007439664507758,-2.1600518007859417,-3.1072004822290533,4.78486601615151,5.160159867761465,-1.0605707940128362,5.2777886745790825,-2.224671596707002,0.2105763318242983,-2.471951490464741,-4.09306766400731
-3.3995048101500656,0.8333265901291712,-4.504257209639339,-4.936875207982441,-4.70196176332901,-5.22884372919016,2.0043999634354,4.574655003573739,-4.583953248983534,5.117374587408277,-7.9189479316995985,-0.2763170900488538,-2.734282301983616,-9.023847711410513
-3.853932757830252,0.2881522164936254,-5.424016589429559,-6.014821446429973,-5.448417102958086,-5.784600918057583,-2.63034946346631,1.849129795919698,-4.363616784635442,2.126098217220532,-9.88243529857247,-3.215246383053659,-3.339323391383628,-10.575159827511422
-3.56513232157892,-3.078455869051859,-3.4811485611015858,-8.54222419391694,-4.142553088341028,-4.863907744080688,-6.632084306261849,-2.026368805043819,-0.8672548159016842,-2.2134266361550434,-4.459129643219059,-7.608071027131361,-1.60448519650966,-8.383971874287678
-3.0037438484658567,-7.407799326942397,-0.5683242286008923,-11.39796144144731,-3.7548638055545567,-3.634030553202927,-7.555862424193075,-4.674235914369982,1.577679203950098,-5.064072665364149,-1.2069153265240682,-10.614474804910426,-1.5546610783719537,-4.332768014855048
-2.0429574841425486,-9.418132537710182,5.449711372312625,-12.544588465805052,-1.4503398811616708,-0.8787774260390209,-4.540310991387599,-4.053821057856833,8.041322585824327,-4.283877406220742,4.673468073079525,-9.593796645909457,1.564399948725544,2.902957806017807
-0.8859185243443566,-7.044083801569089,9.578516376203105,-10.280392406159333,0.0835163115199686,0.4363974458646557,1.086415402807412,-0.1206673164335769,11.005322037665657,-0.1373300730804902,9.54109811994176,-4.315179557233314,6.010111740197746,6.464498183132436
0.4023671790857965,-1.2877990899268972,7.299160465493459,-4.557694601354123,-0.5946070239455628,-0.4440122930875039,6.576830867054214,5.032609172070453,7.347793039896446,4.783981766478703,6.58763242136426,2.597926945479996,6.048548126452336,5.889505144490725
1.0742288012693255,4.396705828739975,4.912591078773886,2.538503635326012,0.4832982783607268,-0.498493086057605,9.420819668298655,8.675882704125305,6.095815796893024,7.416035277604194,6.867042141443549,7.477432294620041,7.283517203301816,4.556328835493881
0.9644356737728236,6.711592287087574,0.9241162248015456,7.718809764566275,0.6019205318055234,-1.7866183186630242,8.79763910031479,9.322751790450116,1.2187313370107509,6.375070959753926,6.265977131094262,8.224878022464724,6.471027167068839,0.6844607203278921
0.485690461809327,4.897901665381768,-2.8109507144888344,8.463720725712056,0.1929494831370919,-2.1730472225442825,5.890199859591669,7.528403688474247,-2.9392019002501657,2.751162050905049,2.5531176386964107,5.60584088275264,2.279859509024321,-1.5608272737104416
-0.6266512092065258,0.963357065550288,-1.9801844369685664,4.757564172123884,1.5388974445334895,-0.4000790616455196,2.9266010868194785,5.152940662075922,-0.4990376984775475,-0.9285508086512024,1.209966481756111,2.2837644484170863,-0.4825343516116883,-1.8391256839325787
-0.8124371796810412,-2.1881516834164314,-1.7385712364996233,-0.7686884076206137,1.756653692029943,0.3391563301522107,1.6832667104296406,3.870838585664384,-0.7902835080656989,-2.5971756264295363,-2.748767414286976,0.5817175182334813,-3.290896735510497,-1.9583420066345896
0.0462455544850153,-2.9091300794357133,-2.172020148273456,-4.550551777597216,1.7937293592347625,2.0657973216814933,2.4936910948638045,4.122778867514975,-0.2144956048367089,-1.9322425025508507,-7.950787232437592,0.9041511466810164,-6.471671888321065,-0.8229842187830396
0.2731091078473988,-1.4872939287378506,-1.9234002242738968,-4.463825453867607,2.58010059699452,2.480801029973306,4.35193205264178,5.137663987412494,1.6270045440112963,-0.231196599405314,-9.109273818159313,1.9599543502041288,-6.639559240351961,-0.6680048888107446
0.1886766898794986,0.7960876907691329,-2.7194893951695662,-1.0902167314951745,2.022835111506592,0.0337195979413884,5.852838786368833,5.750474075038292,-0.6045958471829403,0.7874275817016594,-7.332890250013363,2.264200629359747,-4.272197130417441,-1.590540619600588
-0.3139470056077802,2.942387784767208,-3.394118480337984,3.005364313847346,1.2343336405160257,-1.9213619362910892,6.147143268723154,5.26179721761986,-1.7076174933239732,0.2487118797369105,-4.566255354658907,1.4229837302404658,-2.9789672583483853,-2.931811820693811
-1.5281293245321983,4.629283606370659,-2.728182232000802,5.256094988407464,0.8713329684908327,-5.567470093233393,5.2337160869339305,3.7590863968920423,-1.9856907780503668,-1.4116870732527835,-0.1645052546757289,0.1874014447411656,-0.128669592352089,-5.256447193339684
-1.4410343236581271,5.727468595967613,-1.2820169898346805,4.6941205009136295,0.5626024355865356,-7.103326817010188,3.5804190818169657,1.8418869222855248,-3.156827638858197,-2.961399011268484,3.107741977363082,-0.463706176640172,2.3982786623344428,-5.050816252206207
-0.0280600822463421,5.871425928661691,0.5297108795375813,2.087966720445632,1.3811738206836597,-4.485522122107936,1.617588841689443,0.1084391527359894,-2.5132584550081645,-3.3688246227227183,3.367869618717518,-0.1703306401097317,1.9476848943020004,-2.0948076726132343
0.5594710922795314,4.733224862825626,2.0798342350182333,-1.069865174494092,2.926877461915346,-2.486857972265064,-0.383304195474123,-1.16953759106191,-1.4424540481847528,-2.5174367212483557,2.531939476077476,0.7478675987020029,2.513793689283046,0.998412002440736
0.6657311448245639,2.656576632908587,2.8605156751612184,-3.546618456914316,4.501095552137364,1.8470402926125788,-2.048758016442047,-1.986067797645834,-0.7746731044303575,-1.1330079330950475,1.2421783100429882,1.834694363331152,2.3126074166650272,5.0458300336399216
1.305211075076688,0.8011792652844587,2.0052476062754274,-4.561952799440361,5.40536772322923,4.796479245924976,-2.70680843506042,-2.290662373817024,0.2890225971100776,-0.0348164823333396,-0.0063539681629443,2.9665692534794457,0.7835196758746417,6.577697074643525
2.1758058325762115,0.4483291848983833,0.468611752779048,-3.512967280208334,5.586384992505966,4.114935416591665,-1.6405945989497548,-1.7869278894144656,1.5144998340882765,0.6311848184708162,0.2810460920454682,4.336281913213149,0.2821592876339321,4.979338125923301
4.8620650784222805,2.02224359674705,1.1191665984481278,-0.0545785054069569,5.555521136714187,5.193600406881227,1.298332809317278,-0.1258275638168289,2.784698460969841,1.4818061739906812,3.009033298934414,6.109676969931088,-0.4425483233098669,4.827062152073311
9.655423912206423,4.708241637783388,2.6021051077364143,5.276573473583822,5.071187180448411,4.7814060199875925,5.232851499351491,2.589063268241011,4.363864301684737,3.19032675788648,5.218220311199983,8.155570840041841,-1.4020394883756977,5.304845893000627
11.644747921964449,7.0112573154979545,3.62855300829004,10.6877004551496,5.372371264497855,4.0985689396431,8.462179724022244,5.466475741056399,5.640688404452368,5.618406599998057,4.961372412906982,10.05505810617558,-1.2007419884101884,6.063327578153689
10.921684179507796,7.774186936598581,3.142654536590787,13.879094604032291,5.80386514187973,4.649182707760223,9.375277690155343,7.160059439806928,5.450344085356851,7.65176821975823,1.9634390651077755,11.31054707576437,-0.7220033142912861,7.857598912738734
9.153044025800773,6.843351360808156,-0.5061282759087361,13.686303823878124,5.825794341634936,3.0525594315139863,7.554654417856156,6.825429572937652,4.866899682202825,8.013774083723655,-2.416357953682378,11.59345943346698,-0.3477110101223896,7.57314098396943
5.197340733776524,4.947064562558918,-4.889188925999178,11.203460161125978,6.601930424681337,1.679666745801791,4.2560287202672455,4.948843211185365,4.102429466873348,6.393509719200662,-5.619164728719639,10.91407738542644,0.2800831003411569,5.184410051965972
2.852632586585122,3.014957541907057,-6.62367129400192,9.100268162509485,5.20703097091478,0.7938208733003319,1.7205403291788923,3.15947738172928,2.543453838787916,3.8372808746254576,-5.876589281960145,9.61601477239578,0.0444700215209057,3.4927912058931114
2.330980635553593,1.5358481387566147,-4.6133137568627305,9.398863437345618,2.508403987169736,-0.0325912137784632,1.5728920675934583,2.915650864474488,1.5541433520406458,1.9615066801059264,-3.150277856555824,8.131905964772834,-0.3817850773574532,1.932445189378456
1.1803790698281813,0.3995344089091026,-0.4056746551593563,11.54503944215312,0.1143184171024723,0.1639239274627159,3.4108063740872208,4.084016007968856,0.3321810227001471,1.6394233687340432,-0.911758616105054,6.618212298928045,0.5715257011717139,1.3939895142986525
0.2831257654032378,-0.7737605820739701,3.4562363417893924,12.59233766215304,-4.869885043794166,-0.1573536136548962,4.837244934406705,4.784395629906594,-2.1297778966636987,2.3436898105571182,0.1018559477691628,4.8000205634288,2.575531974998488,2.4316530413945907
-0.6440244434009368,-2.161631712461528,4.490057667542062,9.570210489306072,-6.255416243933558,-0.3868273450421904,3.227180461020901,2.89412600659937,-2.7670367097302915,2.7421492382355246,0.4882961394618577,2.27798951728521,4.296802124155112,1.799231572468611
-1.805632932737641,-3.4970211684061345,2.76750688224571,2.153085724282324,-3.782288255255468,-0.4422436968474345,-1.988087668971807,-1.9637503453766367,-2.2173413499549395,1.971862209278328,0.6632859851997326,-0.8961098103969367,4.41521055163121,-0.2973172791218397
-2.794598343628374,-4.203074810616696,-0.1432098199206887,-6.632047664067205,-2.7790023573054743,-1.1724517700908637,-8.468072111289874,-7.772184330124758,-2.10009273668442,0.4005898372214651,0.9888939595840848,-3.9550558197682,0.8513686448732802,-3.3119344076323016
-3.724616395278841,-3.793376790291785,-1.8470404450289035,-12.354518016036224,2.3105298591162566,-1.019979204639445,-12.522571426635755,-11.565965906318835,0.0925733744687131,-0.7861744048157053,1.7339205920436185,-5.858067566932164,-4.918910785867629,-7.956778705222489
-4.003033570109856,-2.279237617132532,-1.3967769826020588,-12.312601989041484,4.38966291863435,-1.2155036623786537,-11.990927644996914,-11.802115330030617,0.6381484676873513,-0.6960401547034347,2.0124337091875835,-6.140894877770927,-7.761909815932126,-9.235838629526691
-3.528813642484054,-0.3150422504505696,-0.6095328821491723,-7.424686898478319,0.447333386777659,-2.5402326501413754,-8.015645449605456,-9.545732285082138,-1.065124386139058,0.544593322985996,0.7588332447966446,-5.368935030553221,-6.16281923688357,-6.878262775540998
-3.1431408106189327,1.0769581696151462,-0.0975445307408496,-1.458709182054945,-0.4368280029320606,-3.1355185660388143,-4.089274272715866,-7.399463926494163,-1.1879128699204493,2.0476880738314813,0.1805487082458068,-4.683223887897659,-1.6359625757594438,-4.604086928637233
-2.7138262901306462,1.1247119493592388,-1.2904247460548912,1.7319375951966922,-4.664102935059564,-4.378723359085019,-3.1376013672797862,-7.1894625512595365,-3.0720116787191265,2.984222300068306,-0.4276228143899713,-4.806288458735863,3.389554921687023,-1.2719462861463209
-3.0596961011672423,-0.1135563388484692,-2.8206493112824877,0.8071550536068797,-7.776683770665315,-4.567873174203743,-5.187056644386698,-8.542938999120812,-3.860131654390604,3.0756713372756703,-0.8895300905364748,-5.441815259025935,4.756516299072907,-0.2154428676563198
-4.421144140503944,-1.7088438919584004,-2.5020962559607103,-2.539024776544608,-3.909455832411374,-1.6114775520868376,-7.626170827489701,-9.554613622035903,-1.450742558174113,2.3782893710613644,-0.3122690726624367,-5.636872185899453,1.549073617302303,-2.158637993478164
-4.844613091216082,-2.542706870988214,-0.9989155834917955,-5.327465849695996,-2.615173733306388,1.550785743605248,-7.684307014905523,-8.708538719704364,-0.3811382702745483,0.85298440601259,-0.538571991543275,-4.721217066419527,-1.2765742438012646,-2.269415598827403
-4.489917749556481,-2.2464349465559046,1.913800150767743,-5.721840357308777,0.288743527547122,5.886295486283498,-4.787442238367552,-6.123606426568788,2.1718830050114657,-1.5638812891394478,-0.5198212606912384,-2.880573059328725,-2.066537237638515,-1.3467121865038725
-4.069283922898751,-1.5430464984830632,3.627070286138882,-4.146816426562914,3.749738923961465,8.377447020472966,-0.7401635525234127,-3.057799089824586,4.716658964242208,-4.369466533353345,-0.1335347838296717,-0.8458030964695311,-1.2495684520344583,-0.8393953765235473
-3.209795087861888,-1.547448997382574,3.0175892267400783,-2.3828892605816723,1.1789947202399025,5.98192236564832,2.159576841789015,-0.4485196172254646,4.35706392200802,-6.18096933994058,0.1293301767810395,0.8749288782899178,1.5249234354690466,-0.0290197555961936
-2.4052607406886715,-2.583146999973573,2.96420859085558,-1.7226703339358806,-0.3192414613313756,3.287047834248235,3.095577577237824,1.849424552271845,5.126475757212898,-5.433245035312391,1.2968779742938612,2.3364980196707723,3.6833132759735663,-0.0565679196630484
-1.701121358245867,-3.698931216587254,3.2582515461944026,-1.968444923068219,-1.6585951764877125,-1.027106253679854,2.989574692000936,4.3815010024202845,5.544448994492387,-1.783074935677767,2.191400514555152,3.710071012722485,5.094981483169924,-1.0732294389660588
-1.6293928323533866,-3.522582633350794,3.0854185612708536,-2.0482298017402414,-4.122119055407352,-4.034078647574477,3.089225875583484,6.873925316103616,4.288066556082571,3.058494884716488,1.9416193978283756,4.617568525962888,5.617655416825606,-1.3510647789033248
-2.392228182065346,-1.742358699954785,2.3005565439400155,-1.36796652112327,-3.096532471858509,-2.751367674870976,3.535079065870212,7.982165998879996,3.3917605754058138,6.122437931188109,1.0444369749238764,4.121342946995169,3.966814798097457,-1.085708646787255
-4.197062152185207,0.2846163467896314,-0.507450216996451,-0.3797409465469616,-1.975091768620827,-2.464945304688842,3.3554133757362408,6.440838060667276,1.3177903526792163,5.253695814007603,-0.2837840194292678,1.5514628911558308,0.4393287279133511,-1.4786743891503058
-7.331986824550959,0.5757039569687414,-4.609813391409457,0.157379185191802,-1.897407862242301,-1.321747267125175,1.7220416032882202,2.4776984614930555,-2.231084672124913,0.8022572000685502,-1.123553339994716,-2.6154029551041784,-5.356050966394013,-2.2870733524314644
-7.9927265533576,-1.637123921161038,-5.994797991538574,0.2412251106077576,-1.2323357016209668,-0.4100542796176397,-0.9824512488661714,-2.02538569203138,-4.195954039258319,-4.577921802566477,-0.9780050326856792,-6.79116770660238,-9.123138260401907,-2.375935635437552
-6.01954335135438,-5.022767392339533,-4.156371721002276,0.6827437512243417,-1.4723847195951274,-2.2085475191714035,-3.416496850673969,-4.925498713930473,-5.366827332438143,-7.934212742262485,-0.8051960831587338,-9.333150485406732,-7.79495340883012,-1.8362162860106592
-3.271137791779852,-7.131509118026495,-2.4962619808427213,2.017107146171697,-2.189029650089444,-2.717512316108851,-4.521132116992963,-5.496870941827808,-6.981928095642483,-8.136991367784603,-1.6556909662233783,-9.700667469782058,-4.445373577270428,-1.1149447675907749
1.207017892773269,-6.367960318386009,-1.4564237975992618,3.534648375568869,-2.3157427099504506,-3.4371275638485046,-4.413557363350112,-4.819661235776643,-7.391453356016719,-6.361878174867233,-3.927647344336025,-8.674473043670524,0.2770660463993681,0.0197900272350487
2.9584896671829246,-3.1649399733190684,-1.7492746845738356,3.695722171012881,-1.6880798233165684,-4.1061123593120366,-4.049829984325999,-4.555658242639495,-7.848434712818999,-4.704776137805851,-5.233942791526657,-7.520558643769128,3.1826888748631594,0.3634307340737022
1.5545136547580158,0.589889437333933,-2.799863455416732,1.7077661864758724,-0.7229114100325285,-2.3406054541190286,-4.113177875999536,-5.333228466423634,-7.602732115074064,-4.348330975700787,-3.521931140985309,-6.964950730812832,1.7244602779881573,-0.2054239288992385
0.8805220713043208,3.1421512480055327,-0.4466294899509736,-1.342924620584613,0.5067560724500911,-0.8743033825569014,-4.348107434069714,-6.266141511045404,-5.601039792833185,-4.905869434228956,0.0272148365349257,-6.891894439337516,0.2942519029060423,0.193146363782929
-0.115260554178077,3.9498618935987233,4.681542314365043,-3.145776713548946,2.5343666661358544,0.9515295422683342,-3.991408214418966,-5.957666817185107,-3.673002611328112,-5.260261083186924,5.425513761924384,-6.824175343526823,0.92205958434989,1.3559114406340926
-0.1554413747005364,3.499144359198847,7.897881866683639,-2.206832464877756,2.599186358830873,2.2858873341362025,-2.7414800324960837,-3.917040882948703,-2.395246697550265,-4.79923944525977,8.187064173542776,-6.492717185835767,2.2024072528959384,1.8770700035624988
1.3626566656946588,2.434809412706078,7.225331437924888,0.5970440988669825,0.6112763518216117,0.6529900543265539,-1.1837411199521704,-1.036565853573908,-2.6300124583497837,-3.8121393258605583,5.376641161914479,-5.927841333390569,3.6173555720505313,2.01818775856253
1.6465535437611327,1.0465171428282858,3.3730400601165416,2.5157531845258028,-1.1698371949512674,-1.2942446196366892,-0.2511446254099905,1.189967232345099,-4.064659806958577,-2.907210794587302,1.926455040575621,-5.218285450809514,4.136027708959414,1.3244393989424168
1.0627694109194874,-0.5569066030270804,-1.9022016617500292,1.193112517343204,-4.930891749038017,-3.733190596688946,-0.3499767719293416,1.821768360849392,-5.355014105494231,-2.337277742515772,-2.020082141090768,-4.4453235700279095,2.1151833363148587,-0.5058182274227911
0.975993670501596,-2.120570734236927,-4.399319849836644,-3.232571400726922,-6.794262260355461,-5.406069125296053,-1.0758058915196411,0.9350309106600728,-5.98266964970783,-2.009737465842933,-3.9535867312810113,-3.896590414917508,-0.4379673455188835,-0.9643553474083124
