AF3,F7,F3,FC5,T7,P7,O1,O2,P8,T8,FC6,F4,F8,AF4
6.652740489900694,6.449300695046263,7.970513013582643,8.947221520102548,-2.2438117042631305,1.0321994653261894,5.438553280360996,7.714449215139599,12.772137074249809,15.25302963921197,16.451554760868692,4.596552325574027,14.630286421421047,7.076452723657501
5.744898590570266,5.894813709073269,4.380296561367128,6.323694912181406,-1.5651895043234632,1.0464600280123837,3.4763693165179568,7.452195965108064,14.6373548183762,14.26300119326979,19.946936596022027,4.723860380469667,17.213484664248053,8.847606356320743
5.252303941358786,4.6962944371973805,-0.1833780683594916,2.8400172805383725,-0.5584011924452099,0.4188953762761146,1.013025233882967,5.958884345627901,13.54594334995966,12.12145065345575,20.525427808433047,4.626439590807081,19.822329863590205,11.234994723287173
4.186048434578236,3.338727842716586,-4.138253267819628,-1.1385947431760677,-1.082648035634385,-0.1340395454991664,-1.1801057603052882,4.376549886567421,9.336837147416816,9.362700143406473,16.310493838296974,3.831612498789245,18.440369288183625,10.505093592988487
2.852875288615742,1.4860980468263925,-5.719579339180321,-4.023531927382315,-2.8857925267489257,-0.9190984812695856,-2.183886957648795,4.261389058000834,4.564785695643391,6.578504493130406,9.873326918872904,2.993564532047923,12.457707207442436,5.400440387438761
2.1515607451008165,2.0572279647902554,-4.196208661513253,-4.057356949564607,-4.050029761188412,-2.181466261768784,-1.5244158443786269,6.162338690581741,2.6445916981706183,4.315296083746624,6.084315156549767,3.153616349536726,5.349281599869439,3.3116795890315043
2.3137356053696223,5.32103422992169,-0.5701961076700925,-0.9810543280610702,-3.094330337543692,-3.279085411862025,0.3617311024153693,8.94055231568749,4.936660106977119,3.0263854467285967,7.324907634534561,4.424026338296073,1.4284526662205863,3.324735803111892
2.4267124805534586,5.680964982124968,2.8263996168288656,3.230218115140854,-0.5917537292900121,-4.004806466035245,2.2340994423560296,10.442413536637144,9.391299783693196,2.8829794655322942,10.729998304232012,5.462733744935381,1.891758607164164,1.2484828993133263
1.1569077833218344,3.5182911220345594,3.6750767451605135,5.476784157814315,1.280556624349451,-4.935198009449917,2.7682889917477027,8.991000801278652,12.035766695191745,3.446867524315952,10.442761239328842,4.424832674423872,3.881655552973708,-1.852832864879792
-2.098723620890368,-1.6567042543699315,1.101824494951142,3.7980816978890735,0.7812181576749246,-5.668610666914143,1.427072412973061,4.52837717040309,10.058438636785471,3.5703690933669776,3.037968038274137,0.6357079400372498,3.242671280047208,-7.958054458035989
-6.717257641451933,-11.235757331649564,-3.778329003510809,-1.056083799509583,-1.77353787288763,-6.027215790035874,-1.1872193165400375,-1.4171912242731397,3.858755957395438,1.899559871899747,-8.958151598313567,-4.580928954225417,-1.8140522034003013,-17.882537591407534
-11.376922673397097,-15.24143266961455,-8.59787500081206,-6.138918594770214,-4.360616485054678,-6.632725086952475,-3.8560383680937207,-6.81847587926546,-3.5712727138246727,-2.153379929246221,-18.85338399750979,-8.801346549864181,-9.467666680623385,-21.736625621136923
-15.031388292196908,-13.560433446190585,-11.259582470504624,-8.539096223786483,-5.182030720011163,-6.399120340972858,-5.806344181650495,-10.419065022133626,-9.183578810921675,-7.693373888156135,-21.29468701663755,-10.411684962099203,-16.191558293821192,-19.473961666147723
-17.45659673254702,-11.447747596797406,-11.189769558170642,-7.487747106951794,-4.282871803510595,-5.402834265022902,-7.426863071630962,-12.290712681856087,-12.022261527627236,-12.618165586527006,-16.49751401411226,-9.819123630374088,-19.600111721360022,-16.379879199079635
-18.98835949705085,-6.642662184967127,-9.464987261009991,-4.65330394522482,-3.323844648168752,-4.700507144086006,-9.905759689764697,-13.402014866896993,-13.27377268825856,-14.894836871944529,-9.59783491473527,-8.865072750097283,-19.607211663005742,-10.23309591181813
-19.81371946168825,-4.960639681930201,-7.778258324233779,-2.547403822929656,-3.800900988847861,-3.5452207706511984,-13.94517254449623,-14.644450661095323,-14.529486853590988,-13.954547457331008,-6.115134169068451,-9.016901582644037,-17.384742264456257,-7.570799338389277
-19.52713892048017,-7.1809648344611,-7.062291745481453,-2.5136370942307416,-5.481561711955223,-2.4289128996163707,-18.637127660342586,-16.074014298750345,-16.078276417137182,-11.094436654271735,-7.7613139345983555,-10.046401005377415,-13.815916268029712,-9.2806493578189
-17.38936743053027,-6.283444020689642,-6.833266312413635,-3.924213406978012,-6.573749357780017,-1.8643645863213176,-21.646259313425247,-16.888560958422318,-16.76747558342962,-8.515620052309771,-11.92906738734166,-10.39697177937582,-9.21934712312639,-7.798540164669554
-13.105295216546338,-3.5185434761145475,-5.756709684458372,-5.014263794800339,-5.455556911469429,-0.5092821789657482,-20.80355953476045,-16.10790414844091,-15.358847708367431,-7.739903184232295,-14.573257041771525,-8.803623550390574,-4.310299580960439,-4.585189833466242
-7.468885121797584,-2.0485391131082733,-2.973164292863645,-4.4493915974786,-2.312153677269462,0.14444576766471,-15.897996572908465,-13.428984751764943,-11.945218400897904,-8.655298290475605,-13.526985695716853,-5.577066718097587,-0.819598747176471,-1.9685103400079125
-2.2641637858871317,-0.9771408409532548,0.9047642823101114,-2.34856400228084,0.8734672562328587,-1.0978622300159504,-9.098889351713783,-9.599338779570704,-8.067300558444956,-9.864772164787274,-9.656729481469814,-2.373910253094671,-0.5892726776688164,1.0614673291957228
0.6407278469218696,-2.058576696697056,3.97587105759146,-0.1494722471286707,1.9844043535000784,-2.196033460208524,-3.514437831184468,-5.991702183134249,-5.478970070975725,-9.904984129807366,-5.598340553380689,-0.7694600045083746,-3.7924997742495385,2.0823998434393505
0.4162916043738001,-5.907512675033132,4.320856345495061,0.3749856421587054,0.5665296855775139,-4.190458096215169,-1.0093147111118608,-3.683352161611428,-4.771936245856049,-8.282675178356161,-3.661992781553872,-1.0192555563474937,-8.169232442538675,0.7002498691814645
-2.220833645989268,-6.847121118736229,1.377231672976352,-1.791028367969595,-1.8652858242286143,-5.900426125382032,-1.08615882677179,-2.785292529156946,-5.139370857264716,-5.648716792960057,-4.545529327491993,-2.075136999468967,-10.43136530246337,-0.9887067769742084
-5.521150813572417,-5.094886558690016,-3.645256067210541,-6.280805766838132,-3.2419875767549247,-4.800438958304175,-1.7018198491170633,-2.594485636830372,-5.415267827479678,-3.2673733435435803,-7.368347522995954,-2.6661980913107257,-8.917170905295038,-3.6270087461814486
-7.853156769862091,-3.6084167952544974,-8.580674140899218,-11.390955625480588,-2.737935760113796,-3.7696963776829,-1.1838597002912363,-2.4069856528645026,-5.288897774229152,-2.354343790200668,-10.538068971139156,-2.350165475514748,-5.185076790417531,-6.433122263191737
-8.606355609055036,-1.2507693730266836,-11.662053743337664,-14.75359292157162,-1.3286381585790048,-2.7103836644196284,0.4799764100806971,-2.1874479914712417,-5.463877307847882,-3.597588599361515,-12.708307929171248,-1.6582375924712345,-2.9554089391654657,-9.122690716139369
-8.206302742561878,-0.085648390252202,-12.399820574116417,-14.44189452279899,-0.7159683802292802,-0.884340106116785,1.9871627994525056,-2.428612220849806,-6.650992538703313,-6.82080845579222,-13.348092250868133,-1.4002084092408469,-5.087953876284154,-9.130805837682024
-7.379755811076514,-0.5173478416740797,-11.478207789685271,-10.099536572664604,-1.7443035076910736,-0.406338055088236,2.1489452146200057,-3.382876185429941,-8.52227734513978,-10.835224359925212,-12.768573341787718,-1.883160670192125,-11.074011429801194,-5.841432467425388
-6.411236556037757,0.5163865367564223,-9.960591937719744,-3.4483467510072963,-3.777232960122717,0.1648681524874307,0.9755414141409786,-4.531229666512742,-9.802681156783464,-13.797063554656992,-11.684196334681763,-2.688026079082573,-17.171160662612444,-2.9475452399101245
-5.015497452515005,2.573119512406912,-8.498540322792325,2.3836045932566208,-5.431045296859394,1.806230092646788,-0.450470180320397,-4.901672353396519,-9.442055703622454,-14.1807944753375,-10.56217797306535,-3.0402848060682555,-19.08931714067769,0.2552187303496942
-2.793747718492744,2.468990443214501,-7.048897026499972,4.618257763889076,-5.75494758360018,2.0096889495965464,-0.9254313512254084,-3.913666781121993,-7.604114796530748,-11.768796143515612,-9.162812970355867,-2.3591561241446364,-15.02734339385658,2.5496143903238018
0.2659066019647378,0.465030158021277,-5.1512093585299406,2.655764900895184,-4.730740671750845,1.286342897929405,0.1006324763736672,-1.8648185076666075,-5.395212658278518,-7.733188136711867,-6.659410649413059,-0.5889390148857856,-6.705833770182004,3.20365909324233
3.6673012608557274,-1.9800181648007145,-2.489094773824052,-1.426371395036116,-2.908198268534348,0.5715448862769124,2.4134273495695204,0.3700850194621616,-3.6703203146275953,-3.618955345086646,-2.4198454340152384,1.790758770291681,2.119361829029601,5.258216388959436
6.598921594308114,-5.481304018193419,0.6324749547813315,-4.36096048250049,-0.9148948115232622,-1.663628027965893,5.23717552960468,1.9635855681232268,-2.3178216748044544,-0.2212269014426264,3.0042760048609782,3.963073652262981,8.12818866428451,8.299489973870461
8.134234294441352,-6.686002146581831,3.206296714578386,-4.2718588490658345,0.5569250851414287,-3.136579174453728,7.297356096243139,2.3828571986551497,-0.8588858862224429,2.443247480075834,7.530494741160135,5.060284983879328,9.921976045314572,8.67666486993074
7.396467693117584,-5.178312952690741,3.988331584126385,-2.3217569766795823,0.5820545294752799,-3.846926760751859,6.944592851514987,1.2367761343811443,0.4085562139227869,4.1306815633827325,8.467095535121356,4.494094152637455,7.881615116410665,6.597962486587902
3.957444152649204,-6.8318224651184885,2.345085626164809,-1.843833884134068,-1.6136320969721427,-5.3943540387718345,2.921698531298341,-1.646413148335089,0.2754583128693646,3.780116572833932,4.395297293764086,2.284410107555285,3.303656810371014,3.293766355214862
-1.4742330073175278,-11.101003458800072,-1.0344820915628277,-5.34627265850926,-5.669004979250797,-6.156648917712149,-4.297170280078193,-5.610065069050679,-2.027684064486301,0.5106226738838577,-3.304879354799399,-0.7555743420899148,-2.0547547302293387,-2.0344706061600117
-6.656687204969327,-11.20213460375096,-4.16931087651004,-11.76064445156391,-9.502857898430442,-6.157034091076512,-11.765937357519032,-8.708553108316357,-5.351687308599719,-4.571514871117625,-10.694966515893704,-3.1837681304265883,-5.962509909633937,-3.0423486945498626
-8.52201146253856,-7.755622160534447,-4.760315399974912,-16.475707096464227,-10.18451091876721,-3.810019322089139,-15.200892479939384,-8.395870416819541,-6.855300116590202,-7.992767153262137,-13.491755355111245,-3.5310097641420484,-6.094800252388167,0.8227233127830949
-5.023204350972252,0.3483936621369339,-1.6079499495174163,-14.594398799206209,-6.025835266271784,0.4594920843187138,-11.784461500686392,-3.327089158019498,-4.156994914787921,-6.171144442237962,-9.810024938082233,-1.1293796906498956,-1.267871114697737,5.404691053820122
3.106846743570424,14.799839537417858,4.476635391524971,-5.04255713538588,1.7645442826900632,4.992561359797866,-2.5862413898826384,5.182387846649299,2.474390016889391,1.3036084267608876,-1.3669391420748092,3.3270113320845374,7.299744057857964,12.33529127982706
12.31332896651545,19.80077845848296,10.975426657834518,7.898929331267061,9.51519427199451,8.74652511658448,7.6754221049073,13.617280922483015,10.076144409832745,10.613762352826772,7.804465620384954,7.965961436172817,16.12486582967532,13.870160982140357
18.323825190407845,14.971964434686084,15.061779328985516,17.208489014163668,13.5677875204788,8.896284363866963,13.780736882806869,18.60969656590461,15.292938586702729,16.418977382804506,14.105280670233194,10.70518320209446,21.406553304881317,9.001462142571095
18.91997196130045,9.7369829823101,15.179194667631087,18.05698836066859,12.863843654549388,7.559296817938046,13.700467265302054,19.282888048621192,16.913741323879407,16.195393288895843,16.444725978763202,10.451078200249867,21.440483017485345,3.347256819649832
15.129115020722828,0.4922172440564052,11.758886000539514,11.200168634389552,9.466557678017212,6.651602360193227,9.772251909697465,17.53600984007484,16.306459568238264,12.20336678988253,16.205286519022728,7.711250654426109,17.509416029172264,-5.188039883408163
9.896115913957596,-2.630062004152683,6.680539719991098,2.1634528656873417,6.590912953014814,4.820820764353336,6.379045194475621,16.047755333214493,15.534549830241216,9.162213785275329,15.495698429866748,4.170118178610897,12.534567636024171,-8.257969236167567
5.553292899317176,1.9859024803613403,1.9815125185705265,-3.005517899980928,5.897255742861067,2.959896210639936,6.190387745221813,15.86853641803248,15.224980843779289,9.843243239764444,15.37187360439571,1.537539014947784,8.791239990489432,-4.667770527781189
2.4173910049847667,2.9477079627372054,-1.2287651932299042,-1.945471582435676,6.399475919191261,1.2409169151872956,8.223145360870543,15.78379570885912,14.347492853514318,12.80592009927964,15.411055056360226,0.5206638577594802,6.719528121954863,-1.6582097096873558
-0.4141088987712802,2.6829579185415877,-2.995002008523228,2.9975257082917643,5.803822460362576,-2.471256153474397,9.230988271788116,13.893749604140424,11.91394172178854,14.311327257633014,14.613363776851026,0.628755848902804,5.583556799307997,2.953571515982269
-3.249683809749776,0.9671852960506768,-3.968012426420233,7.23743835866563,2.880887942847047,-5.275185619006146,6.918468383537384,9.77437505968923,8.544225308941742,12.279138494428343,12.484344944745317,0.8291211512287067,4.830831856266324,3.3579107874958134
-5.100319482499937,-3.9620985331033594,-4.702517849006908,7.489476198306188,-1.357419691039448,-4.60883242618126,1.9962591892688677,5.137515911956212,6.075613146544592,8.25498530978647,9.275191774405954,0.4271874215854989,4.507718346992513,-1.7760135189626327
-4.887553680772934,-7.0651445164055735,-5.367640052148976,3.622230642477331,-4.65159806207136,-4.278551291980484,-2.60750010920151,2.4137969473325667,5.625298126690137,5.55538833854872,5.427154020687974,-0.5362060933539148,4.45276710544003,-5.537423993386442
-3.1876812608103853,-8.779755041434758,-5.934234709645351,-2.05296763940051,-5.574515197616502,-3.080130137065924,-4.386267516501482,2.6301524881724,6.283171994386359,5.678527381638278,1.125152147181458,-1.5805870140752765,3.5956413164767387,-9.504561937646391
-2.4145482418588724,-9.169605860594428,-6.458026655976481,-6.817109800168481,-4.70628933967031,-0.5082480680990832,-3.2234628608032247,4.537099363116724,5.9676208702704185,6.710558517246935,-3.359556411319936,-2.3746507590896284,0.6479489766394106,-10.54913620425104
-4.8749625037142215,-7.157182827455261,-7.064544772069321,-9.101045226258702,-3.904277489116673,-0.1893858508566558,-1.0460106073033453,5.74198239760265,3.62074016361861,5.30737738961976,-6.90161052714406,-3.017245124763224,-4.243630388989112,-7.37038797576654
-10.378233400848467,-5.035310980064175,-7.622392597691005,-8.760938542261147,-4.485050422089275,0.8608767975283408,0.2479669120225169,4.807337844241976,0.4368819588319628,0.2296527178134839,-7.441289503985417,-3.759903387307285,-8.744770267810598,-5.473689381633565
-15.746245625690245,-2.4634673492689445,-7.480667443162587,-6.508111066967353,-6.03399267407203,3.856386060346636,0.5394208438513175,2.4786058786737755,-1.1830853098167573,-6.04989525547871,-3.2484881504354943,-4.487373642837242,-9.746745148525134,-3.878227965944728
-16.936305273121597,-0.1149050246044802,-5.675705535842717,-3.301213006794756,-6.831891933218243,4.518273769300416,1.3714893180941958,0.9984474086325807,0.1091127753396925,-9.20977657998896,5.192618873470133,-4.542559159391605,-6.01829453985208,-2.6316884428188927
-12.104885910357194,1.5411770386098724,-1.6254280454562815,-0.0454265309978429,-5.383877605957744,4.990805353068375,4.211429804653624,2.0768434259650466,3.377296985138944,-6.700858158392284,14.404044132823934,-3.187534285971138,0.333190479767333,-2.6653074246800914
-3.059256869757778,4.066028690591399,4.16626251498576,2.5694185257945383,-1.6733378814249358,6.294793947587639,8.73805990250262,5.176233207470425,6.254355604678742,0.0654157699165143,19.43539078668047,-0.3743957859770175,5.147765334902624,-0.5623643627112451
6.057180696735424,7.179410148275523,10.035643679666968,4.274982712324969,2.82746176285926,5.100752215527435,12.685417239718756,7.529811160769041,6.815113144238362,6.7144832906731295,17.021077349717224,2.8749076337251847,5.303867120703377,3.5294445962672016
11.67263577771906,9.119197292703197,13.972724635547506,5.34954413532437,6.240035204040083,5.412367668122439,13.403789682341092,5.985847419163656,4.636946354698306,9.078283761863526,8.07633765464657,4.931516872371495,1.0015140735699224,5.941936311823457
12.956447741934491,9.960897048359175,14.8760703254038,6.41961018004592,7.521259906354071,6.515106463784184,9.89227066587498,-0.6274215665923242,0.4257952854512687,5.939377519955402,-2.586457874843803,4.620012468443044,-4.603012900160848,7.12966083558153
11.794511929709705,11.01858462541165,13.350928748019124,7.979552791067414,6.995004925554284,5.50516256429612,3.715527280841047,-10.363451059032649,-4.819737349020169,-0.5386024822578728,-9.37261824530408,2.09734064129133,-7.866379563639582,7.048136439541467
11.009947393042568,11.963002077771945,11.38837342672926,10.029722604558028,5.950827231816238,6.311549339023173,-1.899162654890902,-19.15153982742891,-9.979441858116708,-6.571693280645922,-9.607507270175857,-1.1337430650138676,-7.02561644662639,4.91544638825104
12.432774780830806,13.027454558950591,11.067309914509856,12.19313907398357,5.706123663784544,6.0905924562883165,-4.136380488662367,-23.29266832841509,-13.45619570181622,-9.118264648843898,-5.055517045071799,-3.125203894911205,-2.7578009558477703,4.404834050402051
16.06515117440718,14.42055066030454,13.164833128299245,14.179166789166652,6.748143033253648,4.810443806914642,-2.3797119461152074,-21.723013252976195,-13.40737120466822,-7.305363567643917,-0.2293115786642703,-2.6989578900221978,2.904901405628109,5.456860674003077
20.415861214064208,15.523608350542732,16.632058652129054,16.034912305645303,8.437641878725984,5.49053249582395,1.4852885961101014,-16.481692174897674,-9.061543312105956,-2.455693969393089,1.015361641967914,-0.1901680089539617,7.881277216565467,7.119567872737565
23.34608729356197,16.442273255330747,19.249351706952947,17.81621605469257,9.44274964556052,4.1800708208351045,4.391576022381768,-11.150235941207136,-2.068844309928102,2.8188750752951366,-2.0544813694406066,2.742987059736333,10.556623739206202,10.256310626481838
22.933985840775488,15.857601894404963,18.96005202059911,19.021671352287147,8.692737073529397,3.678866870985825,4.102706523913689,-8.481424653629297,3.7909143611319136,5.824927448538991,-7.121236652802091,4.135880402259037,9.771464756878672,10.12604193668134
18.299734237980186,13.529996682257186,15.019191448619727,18.582067781944787,6.282001930517402,5.138219571037757,0.5925519884276653,-8.889006672675992,4.954341864463759,4.936727791871497,-10.88849790973551,2.964292565466057,5.103516523834569,6.46317596063995
10.290236517054453,9.30188540656686,8.347238570889768,15.729629905098516,3.640112125326354,4.756282195175569,-4.053856707484284,-10.658555007915345,0.8321427069850298,0.420964978439482,-11.30406397317866,-0.1540676320612815,-2.444294726740969,1.421898232972345
1.5113782240966205,2.654984050820883,1.0290077830667332,11.026261810665815,2.664058793331126,6.119477542918115,-7.091957422624358,-11.438924587158382,-5.431606970341186,-5.493846713076409,-8.480020198102844,-3.3148630550107057,-10.220875865128754,-6.218795599696062
-4.788355230433213,-1.124870340535523,-4.683416388702584,6.362238230018776,4.290032225146726,6.503598214739108,-6.939216148014514,-9.834567121424191,-9.134559357231415,-9.65011655357101,-4.191975761746367,-4.593774554522801,-14.985070465943464,-9.446691676843749
-6.638925545467293,-1.8444507889478008,-7.378423952317625,3.5678223150656114,7.579954396810256,3.1486927304960743,-4.1575683014222005,-6.139329703316461,-7.559795790674024,-9.786217127191144,-0.740246558499656,-3.391042918710089,-14.857553373805064,-7.643852201893866
-4.759960157910856,-2.4212644963246635,-7.08856758632778,2.738750265064332,10.171309638290795,0.7651580573536628,-0.9483997618868174,-1.9912055792600516,-2.0473993038329263,-6.049778153827726,0.127965909081273,-0.8593463624384561,-10.669920154592472,-6.476707475091367
-2.182818310805456,-1.585330417374465,-5.226079522361533,1.9403529871435452,9.89544044220219,-3.186546069502813,0.4681740448213181,0.6862435427102747,3.0956527793290074,-1.0261068035393692,-1.9885620935916208,0.9535818971962596,-5.450149499230148,-4.263670652194915
-2.116933509173932,-2.2498488508805488,-3.818172591298735,-1.1574235770804466,6.351909176285012,-5.856028220161326,-0.5843892365519325,0.8788389947921802,3.9389099246161416,1.927556345704688,-5.759533867058786,0.6277203266344737,-2.2802173120859965,-3.340107307849723
-5.611911138228349,-4.800526974305037,-4.347500097665849,-7.00988951057925,1.1964889232594629,-3.5910335566443203,-2.871212828234048,-0.7810974488979676,-0.1767725836406786,0.94863511264285,-8.511139694875887,-1.5934512929414182,-2.157716451004028,-4.549678272018497
-10.8520853308105,-6.262574456769031,-6.817470226731119,-13.36185722641932,-3.0614534120506107,-1.7472538138168037,-4.30780475145397,-2.2441196783315016,-6.400291915295456,-3.0878518259322103,-7.641075482886988,-4.013492854129461,-3.5163803760786205,-3.48696924854304
-14.62918849174218,-7.309192551141833,-9.688943357911157,-16.7674250810385,-4.773765016208245,1.619227917626744,-3.599245184256717,-1.353169210167298,-10.753396494379787,-7.251958671860072,-2.5230197207463467,-4.728171371520014,-3.714836126251988,-0.7579587165501076
-14.78385081860958,-7.966386035081745,-10.891322699504922,-15.312900406529549,-4.111576457349297,3.1677014139396453,-1.2065267843739171,2.4238037753597563,-11.08314381591514,-8.665142827988145,4.462135038754752,-2.9681958921813623,-1.2722077072562177,0.7773018868280275
-11.704910673746951,-7.803393985126016,-9.362408933878609,-10.27771185327113,-2.7240624838699734,-0.7042784372851659,1.0244685703694962,7.130757767701445,-8.326454356594642,-6.516761958879272,8.944313351017794,0.366928159589488,2.876162995268735,1.6767611534352416
-7.841258254172246,-8.318740815628972,-6.030070082404995,-5.30764478903007,-2.5138913996681422,-3.819528949201084,1.2057711057788492,9.334032548696776,-5.36715537000509,-2.5577857330432394,7.38686710315431,3.279275344333696,6.029750386924031,1.7698015971408754
-5.772823262685366,-9.45926249741144,-3.354818325328595,-3.710620852707841,-4.3747295810674895,-8.725113582651725,-1.2735172591502135,6.646110723584815,-4.617697640295918,0.2787260358058621,-0.1471601681225456,3.9564246667501712,5.7969099560943205,0.5262849169946378
-6.388483728956464,-9.95721830657296,-3.557627430161563,-5.998870175286558,-7.577271271685086,-11.731104487518838,-5.298075607727313,-0.0549362765172851,-6.2043141245594375,0.1341017306604108,-9.473067466274632,1.9856173424072665,2.0727609729132945,-0.1303141426443788
-8.465818372916562,-10.05267047581668,-6.791752206835837,-9.591205715622436,-10.128345657710849,-8.65636990148048,-8.662104344895871,-6.675914173345515,-7.967220989599975,-2.3349037065800307,-14.724670137249616,-1.2824163229066734,-2.597000270518495,-0.3265975090765909
-9.816603229985931,-8.036154457354082,-10.796976661780366,-10.885715488519924,-10.032398112477583,-6.858511934008176,-9.39277844604835,-8.583568930428495,-7.13183893677804,-4.491196653083589,-12.233167695253425,-3.5726274359437404,-4.702995699176667,0.3376396312465037
-9.060436548777645,-3.5102826311795834,-12.544174749783128,-8.090760280980755,-6.843111319839931,-3.206025188238208,-7.022543688055839,-4.066434668372676,-2.438413114223808,-3.8796819561652223,-3.0998268734927463,-3.307276780833938,-2.413916649643583,2.3469868177860103
-6.733296184882829,-2.2960490897135823,-10.711962180514329,-2.656291688246311,-2.4055663464116908,-0.2474414924174087,-3.030940743398084,4.139073433683366,4.716010424740071,-0.2927402962308973,7.437651381505299,-0.8890761069801891,2.827779329434004,2.833389312022962
-4.960678879945735,-4.2971097422180025,-6.940360208165068,1.7441781489566883,0.1027792872006343,-3.74619107977685,-0.0173176375421943,10.632183048763547,10.941714965949696,4.0093689728797095,13.432073172055317,1.4500448465663305,7.173336179643618,1.8845393463542817
-5.916047908625933,-9.37325835198146,-4.637947072132693,1.8624012774289012,-1.4981879155989484,-5.96171393866768,0.06911236200754,11.226774188809545,13.010432627650768,6.155984992351207,12.035374080405642,1.3248432332993754,7.2406060243722,-1.6723170604661663
-10.1158159405296,-19.070994545381826,-6.157219769510477,-2.840985019428617,-6.438530383000581,-8.67910616228624,-2.526273033437102,6.000813260083838,10.144896623976384,5.039367339669874,5.101137287053429,-1.82108268050688,2.7937728511925477,-8.690752892395876
-15.751482658071026,-22.23481134176406,-10.67342840840788,-9.900263276587449,-11.2947234652614,-12.086736769506013,-5.352102624825741,-0.8106412901557736,4.821588594702672,2.1974816942114077,-2.327981332246562,-6.075646828963476,-2.980449331962556,-11.36583271186292
-19.608748073066277,-18.5546828695304,-14.657345144026651,-15.60764539122184,-12.66611059192251,-9.71677183421895,-5.570295794511534,-3.972216597854156,1.3139803567979644,0.532423850187552,-5.386506217056507,-8.397681828697444,-5.8915263434389855,-9.706203492601508
-19.05511692850603,-12.47350393899358,-14.654862586965194,-17.431190367941166,-10.101707360388737,-7.336634314721342,-2.342231317597202,-1.0328018930490472,2.7646388768233,2.0301873538737283,-2.2824508899529814,-6.908777969319999,-3.89306401528704,-6.054276057918735
-13.78352018893302,-1.2111632972792494,-10.048940584622358,-15.355747154801936,-6.58436433816335,-5.999028068267959,2.208336438990244,6.074144631618058,8.788294811106775,6.329344125645294,4.982544994009151,-2.272017706229348,1.5726641580434038,1.4957676635515846
-6.0673800352215705,4.641491025392036,-3.443678818801194,-11.354293199378942,-5.875049930422359,-3.1485277390404938,4.459817710976244,12.673002061118122,15.461337571728944,11.072184603413106,12.178791697898792,2.931660028580885,6.956375472551969,5.99994972466174
0.7418489006839715,4.346899615801839,1.6149680975596317,-7.607937931142419,-8.938389114589388,-3.5266538377188783,2.165731135109418,14.834420504421498,17.94682258173387,13.528167723888387,15.452471681412693,6.232110159957043,9.35352984053854,7.172471552971996
4.468524190269767,4.685758976583866,3.528076723726848,-4.940231202927919,-12.741954209653816,-4.886242485196033,-3.579059111487032,12.04917768645772,14.004576053163497,12.265967670206514,13.36472277932632,6.998711335920796,8.358645226460267,9.560755507283904
5.474510609765574,3.0900208135858382,3.615409536713748,-2.644338264985085,-12.733009707995212,-4.187470300731943,-8.931394535851908,7.221779209075044,5.7857397957888415,7.929214644057854,7.363093090784438,6.547019072359514,5.818293129560209,11.608121282212831
6.070577186705658,3.5353779043992,4.461958121736825,0.3089636191766427,-6.935567895756973,-4.203666571394363,-10.014385997540968,4.2328300390993405,-1.5757149069277263,2.83229287587898,0.6823925211315194,6.725048520428156,4.093705832413186,12.70966977937722
8.416693726281375,6.836065606137742,7.321521063688863,3.8754527384260897,2.0023499550473445,-3.0422054970473877,-5.615809770705068,5.080428632906526,-3.667045376246006,-0.3709301774888693,-3.514476419699154,8.275906354251543,4.379102820795783,13.178787583854186
12.611721099088204,8.384610305235856,10.999492869639496,6.723255321051838,8.740335393710783,-0.3098003569212485,2.14373836434905,8.727387588295219,-0.0320374927453472,-0.2867453161989015,-3.684636557870104,10.300540107858504,6.160848816231128,11.565263826039969
16.58878942930908,9.169130565516772,13.104733826482494,7.473306492120365,9.517045905114198,1.1013262377760562,9.465857865536693,12.286253873215308,5.572615618244805,2.2883742661172297,-0.400777689049322,11.12413429824289,7.833387060372982,7.65713678968982
17.93143837078265,8.678012897190783,12.310379168940846,6.202844586239334,5.02191120777597,2.129169314502444,13.374329387200298,13.339177022765496,8.108492735936624,4.840926912462611,4.263595391033787,9.730589949660546,7.809422055152505,4.759144491563044
16.02957505672072,6.166126533334198,9.453072736462095,4.627577597970647,-0.5421615146283516,2.382996454657568,13.19245719567771,11.466655713949056,5.047930868099545,4.839534711463202,7.926545131758262,6.572208986660196,5.448148972235564,2.69784999486202
12.645424741216893,4.762131538758219,6.593944496014333,4.614387423268856,-3.133663490288398,1.3632785845360536,10.228033566426404,7.949799523272071,-1.9471846127837893,1.4562210636993074,8.966560280604057,3.1755941206582845,1.4133074975276363,1.433716213940231
10.36438866793284,4.264918405965886,5.155307141112353,6.422526610356171,-1.877710929558039,0.5879754768990467,6.370015185951257,4.254919505323523,-8.629288519936008,-4.009486807671468,7.023947073114916,0.9655350911385838,-2.663086394371329,1.7817635585912597
10.335365602408707,4.242142111265397,4.965051638769591,8.47699134840383,1.0672745835746815,0.2888726727431815,2.90483547491835,0.8480063992209113,-11.522990168104084,-9.238319976892162,2.8789997290558693,0.2917042029651142,-5.077145471363348,1.455528626472483
11.355596921779066,5.378651030535503,4.925779461237047,8.958971219781922,3.1272210197492525,0.8973794522070572,0.2892575243201634,-2.6609841327828523,-10.24051306460763,-12.459019345363153,-2.085420661636501,0.3729924218218881,-5.05291897362236,0.6654177810143355
11.098571446777935,4.94565513151689,4.361353797089711,7.57599018954453,3.59675507271798,1.951642964986963,-1.4027236665722356,-6.463138461869509,-7.105917778024123,-13.174598950434245,-6.525328871129588,0.0826772534540607,-3.207690007838236,-1.7911360038148458
8.30386675631632,2.92224198623638,3.580858738310704,5.652654976308216,3.553236521793492,2.7708655791351164,-2.120869780890472,-9.878136895591158,-4.822956761591884,-11.756371232854422,-9.561660536241826,-1.130847383093866,-1.0923748882994393,-6.522313345032714
3.9211936225977575,1.4760940600175358,3.222532600453118,4.50675663938654,4.016016805940711,3.6963435126298663,-1.9513471946694292,-11.83671245440004,-4.382849747329548,-8.721939448506737,-10.805460925095485,-2.8927274705438,-0.0701216476231434,-8.584150753076601
0.2520668093943765,0.083842101164953,3.2815731208858554,3.973349509889541,4.630969351799756,4.001323139238223,-1.3854915736056033,-11.968562447606436,-4.828035532990674,-4.563620458028876,-10.116821770014871,-4.298951787825651,-0.3644965996827536,-8.142548652608033
-1.0206417855515526,-1.227381564745103,2.9706974222509186,2.768711392936,4.2592574007695205,4.113821888805088,-1.2056016149953044,-11.05514181886028,-4.661658718756018,-0.10425565861666,-7.52671085496033,-4.673049784580041,-1.0519412275906976,-6.776752713817172
-0.1376271765151573,-2.1456955908172333,1.5574642834330472,0.2744810874086179,2.5975607283733915,4.837696558804391,-1.917395072636627,-10.304821388025651,-3.373135051405628,3.3417502592551496,-3.613919275454899,-4.094457379968709,-1.0385515489575337,-3.3839661197316078
1.1055929643113067,-2.6678060038676583,-0.7666840708689693,-2.362918900442542,0.8796704633340415,4.882284562555704,-3.2660097344838035,-10.23073919913864,-1.7731754095658128,4.468496466317605,-0.0010827868487134,-3.3340014262941717,-0.2036885275642501,-2.2477094678803606
0.8864515700422908,-2.631955564617124,-2.936022778696469,-3.2213138568403394,0.8324670909543432,4.929357940086759,-4.396963565182134,-10.366664818705631,-1.1094182402123316,2.7873895241442144,0.8834694419150062,-3.2614032518880807,0.3322962331410908,-3.6309121727290967
-1.30030806000922,-2.0664027920688937,-3.9171203022754,-1.711784877941116,3.0033780098413505,5.576472942174722,-4.579131253883933,-10.082347283910975,-1.953968903936511,-0.9940222138973076,-2.7387293625699813,-4.142331311381037,-0.8231872642052664,-3.776601527549819
-4.405587211678376,-0.8665295826393291,-3.5224275709051764,0.5555557955664021,6.202290494267027,5.200645174971749,-3.780916558565452,-9.444647649546429,-3.7993299272835217,-5.325079544258738,-10.086576174666725,-5.333748890142963,-3.866800308224434,-3.5998313482705337
-6.609444088524452,0.7195278402922306,-2.359192426027243,1.2798574698283396,8.565030110429507,5.703443831409752,-2.508243262440388,-8.978077534956018,-5.480776745953587,-8.521281098100367,-17.20854450708651,-5.643166232930082,-7.150776643716095,-2.784904578102982
-6.421480238662931,2.725403281848945,-1.1212521442003385,-0.1168139988746266,9.096761151489734,7.5378953233199395,-1.1104336477544925,-8.538793006042223,-5.883081250339751,-9.303186897152507,-18.897559626521787,-4.159791885399841,-8.135278253424056,-0.7785908048346478
-3.478644174306453,6.497758329859635,-0.0906358836107839,-1.7638386029123854,8.21904664351612,8.249965638238239,0.6119696761146134,-6.798443225873296,-4.425096409718277,-7.063524095135794,-12.327541634423742,-0.9882824136454702,-5.392190099049154,1.2552657128166569
1.2134983286744545,12.129541141460766,0.6627455390254573,-1.2167169530071562,7.005917427891326,10.116068451594506,2.967543401498506,-2.393004915725628,-1.255292783950703,-2.1167907864819355,0.2662845955256818,2.6657330630728766,-0.0751974984418528,3.558929091524244
5.637941721194402,13.425631257917718,0.8249074868910804,1.9311693883044287,6.098307972020833,11.162496844650084,5.565306336445211,4.136830013813384,2.703268706390591,4.034102525703922,12.361558505410631,5.164377951650744,4.504527982364161,4.455310268184362
7.668638324731511,10.180969917666255,-0.0730101535161926,5.4594747454944965,5.40506876099393,7.939557570615009,7.19368423848811,9.808972728239922,5.930785948824217,8.880678693436826,17.363265895662064,5.421400140041202,5.11532901887867,3.608671509739538
6.219310648225276,5.1404435300317095,-1.9094374748812315,6.6751409403606345,4.6800576558130285,5.04373539654998,6.841671185729598,11.227225018619126,6.956897862766889,10.004405281188856,13.313199022449185,3.536928882405229,1.039340424250116,1.3374156903976506
1.9944765249154628,-3.265278692125328,-3.43042159387398,5.119184303802348,4.101104705287858,1.311807588776214,4.987067471927432,7.677604461862426,5.368128538784892,6.725764332005848,4.370650901574033,0.6725877851495579,-5.228025555629717,-2.976839974244044
-2.80486095036143,-6.865039251676157,-2.850623442083059,2.940202531901062,4.071581640439257,-3.901811576662965,3.649425712831437,2.260943298180358,2.438527320170727,1.0237642246079837,-2.339837365169675,-1.7322464270829825,-9.688264527947062,-6.141139038067346
-5.844462616665627,-4.951655690946037,0.5599363270594164,2.427961000791628,4.440514329558338,-5.061759012698849,4.690602903030388,-0.4656187831633112,0.5476728258396282,-3.4416733576899974,-2.224276744777997,-2.8891087501958683,-9.755788350574804,-8.105566840645704
-6.224845095290703,-4.307539259012,5.278430811050876,3.26757135917179,4.104400053395345,-6.125065809894154,7.704497112619717,1.503784179337785,1.4429740890164258,-3.90268688279556,3.2563791298570672,-3.1330935567288387,-6.178427053680022,-9.734659383157808
-5.0435294596739855,-3.0057400125278866,8.098981731269467,2.5814016134031865,1.6796259469640231,-9.324421614408337,9.676545394803366,5.702050156556104,4.621528012741099,-0.7048830474284096,7.887825264508799,-3.605989367376623,-2.4843128777936663,-10.221006295985497
-4.413850878588811,-2.241411448386992,6.406008651660804,-1.946683182778445,-3.1532028771255884,-8.518787299076369,7.262198897545563,7.370065397878712,7.365777904345138,2.873216279901481,5.816757650712978,-5.312145672032547,-2.378358233151947,-10.479822835844637
-5.658588285737737,-2.9101021474778217,0.4381029794263198,-8.901352792329412,-8.862450642654203,-6.8713175788203085,0.0115656140880586,3.882281290155503,6.722960000208683,3.334528766006887,-3.650055859345124,-8.17672365101129,-7.076799330888353,-10.385230526330137
-8.162678313943672,-1.7142652698797938,-6.447660504057588,-13.369556969524997,-12.759590356990753,-6.245485178417567,-8.430742157131439,-2.6944332161757742,1.94284915204008,-0.0187474493023298,-15.42471330521868,-10.84405274649552,-14.5488647110376,-10.638531078410477
-9.89047685058737,0.9278776334006508,-9.99415789586132,-10.8750287268761,-12.8414542145698,-0.7970095172707177,-12.65960432940368,-7.357685823569963,-4.717658823427028,-4.492095451576421,-22.60554623932543,-11.504207061296714,-21.070138423644124,-11.459910276460484
-9.16245007425932,1.979297937334593,-8.147065603216545,-1.5978889027923078,-9.349083756480256,1.7960098183872426,-9.748955087503038,-6.653616823767768,-9.635293567116817,-6.477911702499702,-21.71089378884158,-9.244842762858488,-23.71186207096585,-9.826166338623286
-6.153188412954407,1.7734071759347,-2.591233340979836,9.097824148856542,-4.703680004185477,-0.0662097018706272,-1.833263885574336,-1.7827115425759228,-10.611457073016014,-4.816124950768611,-14.966799063832324,-4.905893268566901,-21.86207773849491,-5.742785650191736
-2.7751673042986718,2.3736075404091026,2.549901102045574,14.544804471774476,-1.7612596317942515,1.1457908456813888,5.311996496762701,2.4209909885016128,-8.48762195254113,-1.953868028511442,-8.039703537943025,-0.6832815492644908,-16.921382066797975,-0.6051004913965388
-1.0347847671469736,3.310603874179965,3.844173362131274,11.787620924620624,-1.7312846953736916,-0.7770431587229465,6.62661782226923,1.5786621150068711,-6.253132691966091,-1.786734862556468,-5.364560888294578,1.3234480443506698,-10.870037959281326,6.278727764558089
-1.334689285905311,2.737569444208442,1.0238230177842915,3.512103096800862,-3.417643829067819,-3.5597229377789805,1.4753188571942977,-4.735826714256083,-6.45364024718781,-6.0753442227970265,-6.965421271219233,0.5526668351728077,-5.068976908255566,7.519203912516532
-2.2659786996548927,0.7913602146128447,-3.117612685597166,-4.4808215452276965,-4.390063089302725,-3.2037273448422114,-6.237922354333186,-12.904716093789917,-9.118391608137298,-12.605885879967158,-9.114936629252616,-1.6953734001142102,-0.0347116186275329,2.358323017102335
-2.0879100920438134,-3.02552554759675,-5.202603983033772,-7.814664721441048,-3.133371511814868,-6.072737253829112,-11.385457600058828,-18.241617985501502,-11.919762189983388,-16.722620698394973,-7.908070461164321,-3.304455148107877,4.117481749031761,-1.2173422867088466
-0.5446427679159083,-9.226300305874837,-4.028161531612415,-6.336980903904694,-0.4245235457209837,-9.314350090676474,-11.462437734650951,-18.291549063268118,-12.342680261502728,-14.972955505685292,-2.632757719065598,-2.953793507766468,7.273717932269253,-4.860705972911105
0.6662852691792338,-12.005128419742174,-1.4032534694562775,-3.3893303891138817,1.2123839806227237,-9.330615155639498,-7.983456355780719,-13.970161463144292,-9.93079162729478,-7.883679765282036,3.691721265563542,-1.076966631165153,9.275199354621224,-5.342084291993845
-0.7193816152672081,-11.19047957263727,-0.5074227106343603,-2.76841802584827,-0.4030277787369609,-8.984836405056145,-4.739132884038879,-8.216298975612572,-6.629087943455275,0.3532602696505886,6.807773658884251,0.5414066253911791,10.048476581768575,-1.064506752432358
-5.413921990488099,-11.43405496807652,-3.181692529655816,-5.972171332262679,-5.110139845931357,-7.464245149223832,-4.651760420712144,-3.70708262701897,-4.9068376724996,5.033206319484119,4.653765042038657,0.2306271823474439,9.726738915174812,-1.2508588699279044
-11.51322313383707,-11.510535720751976,-8.29082450353539,-11.4472923030246,-10.147281587668015,-3.697778227530088,-7.655715636050854,-1.390092351452635,-5.335663736729428,4.469554632804703,-0.86719559647244,-2.1181069257659964,8.79578161473178,-5.10900853272097
-15.457271574616083,-11.122792707833078,-12.379387994939975,-15.827012760167758,-11.970547076239818,-1.4548817135862844,-10.896495446463518,-0.5050382472795025,-5.877576807511844,1.1377412983375486,-5.043337152878108,-4.728243276795025,8.200157518210217,-5.455835440792829
-14.40587930641676,-10.839409198456115,-12.122110904672702,-16.085469007349417,-8.850936764917481,0.3714305708964053,-10.84594802846389,0.3677882557544718,-3.6962358457903863,-0.5021614648054102,-3.62144710406839,-5.090606304089941,9.038152352770108,-3.615921319149948
-8.31658396135082,-7.297922949525849,-6.804869357741534,-11.39645880456894,-2.2457130757136223,3.845043942307536,-5.840878210908039,2.127493616792572,2.00917700253813,2.19996060193308,4.051894016040756,-1.8676251490277676,11.645026576552215,2.1538396412221013
-0.1720435756589555,-0.336733051259606,0.964253309698318,-3.739993766845068,4.192635081184944,6.504018511072569,2.578351297618413,4.558252617868668,8.758826659581167,7.788547374689813,14.212247856643632,3.8531495599250256,14.704374264438352,13.330409873431238
5.9110878542888905,3.1689998012520384,6.931457258455636,3.223782116169442,7.271258670289136,8.652002431645702,10.449948978281553,6.606406514620904,12.496838221122673,11.912579942956718,20.927811016700435,9.053376242582162,15.602249441992395,17.414829130226156
7.43364479618034,3.5215788653006945,8.18417962073682,6.549441322227789,6.523938571955831,9.39595254185739,13.933194060492866,7.299548895261877,10.961698332422785,11.11498951657889,20.10159895525419,10.869339910799688,12.438226437396684,14.391341932045352
5.155139655850402,3.291076280136774,5.26876082788441,6.075999019958562,4.304208958445882,8.226922658331654,11.940686319726742,6.6124626479684245,5.779276692213943,5.944185864544432,12.515436643072215,8.762471861978296,6.26774113766966,11.4696920119785
2.3502901694129505,0.991779293815245,1.6978254663083805,4.384972823896375,3.658796841086346,6.936490096347585,6.8381670023474985,5.507879851554316,1.295631053842044,0.5830325027166516,3.563567292777787,4.98378953968443,1.1885004228887492,5.942042433347554
2.16246667313796,0.1819874598048365,1.0586402740356426,4.363490028038839,5.736949163100917,4.89118009520787,2.472369158024563,4.982455367689244,1.0023662130711006,-0.7819904185321533,-0.4834645101688046,2.7811830086792995,1.356560261984395,4.365131013432904
5.093604852808067,1.1160271775091817,4.000913040243557,6.333495606228773,8.847292992266151,2.434636465696916,1.0163806440845065,4.904312517183339,4.587767130118888,2.332938439712521,2.8430234867986783,3.70426128416241,7.038790973117367,7.892789652280505
8.691239851997283,0.1283436615755392,7.701364725415413,7.498365742862269,9.891129666567934,0.1539226136233645,1.361737286137492,3.84385451635702,8.184511089681118,6.261599090919274,10.20267629689481,6.286346686612999,13.419586998498517,7.224092552997878
9.759801589290449,-2.082715492613989,8.386635275332582,4.59402689422441,6.950161335342161,-3.975585186662968,0.5862772604818716,0.3602319237920799,7.667791574670915,6.466614081202039,14.971804227565924,7.342190286962406,13.983611852500456,3.7758979058803184
7.264457298340421,-1.7465765665241548,4.759775752485906,-2.457115580692568,0.9206514153627784,-6.266995471312344,-2.817203763676133,-5.2162481371868825,2.2773660013749417,1.703666916756685,12.578591499370823,4.867186167722565,6.141910674184816,1.4838533473567626
3.405963510658971,0.9058097573003971,-0.7374517161297867,-9.419134501751977,-5.062929387320384,-4.206337696244274,-7.094043367165655,-10.225657147166322,-4.427246627438072,-4.56363538996435,4.367840996472095,0.0253032460668709,-5.790769412143384,-0.9968812414626682
1.8507761608869693,5.9715841054451495,-3.984948476692688,-10.656805861947916,-7.873625436093237,-2.67574646931319,-8.728082991519711,-11.239541023952476,-7.091485392494832,-6.774604039188063,-3.3794594573837013,-3.6000844465770694,-13.350270826258525,0.9570756833268024
4.567679767121129,14.41968424985171,-2.7041567826055903,-3.894276377534222,-6.525088173622004,0.8786742098363185,-5.986055409950749,-6.761887669173978,-2.6384214667465558,-1.799332343152031,-4.66570684876435,-2.958632964165952,-10.569838798419816,8.22466037559968
9.973309122486832,17.249283912058644,1.7100636651386854,7.326460417391264,-2.6449654246522094,3.574678086912045,-1.0243778595998627,1.1705312320452812,7.195586008412649,8.278549010687742,1.126288632206176,1.8046292282682064,0.9520625292121068,10.660065775564648
13.997423025815174,14.103178895402156,5.562237324156095,15.852197558031545,0.884172820386862,-0.7389214089393178,1.712284454194446,8.078881594848726,16.75591609966028,17.342830283919355,8.685889113018177,7.268040237856635,12.93968657232842,8.956339497714007
13.213233990143731,8.692285612091293,6.028713899820936,16.166976199650726,1.952929584917797,-4.379516001841972,-0.4997073569286492,10.237523758575394,20.18551244360833,19.49174326235703,11.295518089359112,9.337643234992116,16.682146712172564,4.229912037266857
7.483304763952965,-1.2874308335905316,3.271389586122037,8.43382538555241,0.4418444782028636,-8.143829781492522,-5.989093165077186,7.513601974645532,15.37914422462825,13.167872612198536,6.482096794269289,6.404511192167448,9.567052263921711,-5.816889314044027
0.0439100491462127,-5.592676147787408,-0.155168447348668,-1.8591911553544411,-2.078020661919794,-11.930292732760607,-9.93448318908998,3.5094618854135966,5.4643572794953865,2.197267338672301,-2.0719143986324653,0.5355212835943668,-3.2328855852105,-8.99902498557174
-4.925653447860395,-3.45780558012449,-1.7405576279298425,-8.138383821395752,-3.709782076388347,-7.644691892186351,-8.441445544303264,2.781159033889597,-3.1932794329754337,-6.85873277674488,-7.809728235364144,-4.141960135860501,-12.905674138640066,-5.027407398032499
-5.262646412866577,0.088347381747752,-1.004431864312398,-7.320093187495933,-3.553391190469654,-2.2530948763466667,-1.7569750380832936,7.287815359520067,-5.119333831205182,-8.994656904426945,-6.685025753080724,-4.484419182558302,-13.373267102942156,-0.2052827539318122
-2.084294559081073,7.734499796212153,0.5182572179977782,-1.2962859888608058,-2.0921272983788946,2.2241145743584427,6.145634207877659,14.867029946072533,0.7573869287796171,-3.689096739475742,-0.0384102358961495,-0.4749943325163528,-5.043510081283289,8.298501919058152
1.3903569548179284,10.206918180744944,0.9116175331412856,5.242203138185417,-0.5510002229759596,6.9976257351778814,10.95134694221911,20.899256315521807,10.522290708629251,5.289936451289758,7.049996142283554,4.9738734507315385,6.294358366878459,10.212954292058813
2.327228068547136,6.707955316268207,-0.5058958525865336,8.344637833744926,0.1242865644960566,4.518239857196281,11.166134697813078,21.78127692556885,17.95196012943436,12.655790121197365,9.97252216084522,8.187519735931335,13.872030840403196,4.339319218167563
0.132788562928237,1.5047450559290982,-2.859491500254183,6.888026806034237,-0.1398195796063319,0.0124173921296719,8.502314525111075,17.46821198434217,18.60102396722324,14.824930950542218,7.69197656485311,7.197377194861414,14.178757349338635,-0.2762385586257823
-3.5277884992905517,-7.898199098194417,-4.623385940332332,2.239604200232476,-0.7254822242406327,-2.820379916735509,5.761918366124732,11.222080882746546,12.54438327142405,11.583511595137969,2.6644980583878777,2.8627876045881,8.448974999882665,-6.139471700180329
-6.24315761436954,-10.8672508648916,-4.736547124415459,-3.3386923271798707,-0.9730749610182023,-5.529210247123544,4.574799819553073,6.990489538463152,4.000595402772234,5.566191918895704,-1.562503107520925,-1.915297620682658,1.0964443763094636,-7.317479741198358
-6.556123373578092,-6.56988967762892,-3.0805310441473357,-7.8676331207363805,-0.6865528452397545,-2.8147873508674035,4.868209393260532,6.608022567407996,-1.7629424565461953,0.3208287682011566,-2.740798655696896,-4.181769491393894,-3.3890967268014727,-2.144257598500896
-4.648467110336123,-1.4862071908712249,-0.29523718096695,-9.886147207058308,-0.1198107344636234,2.141666859855139,5.859619736958107,8.894301679032171,-1.9950045896125768,-1.7112419483890091,-0.7343133630903971,-2.755343054671785,-3.07454031925678,1.721421017174107
-1.802919263136534,7.062048207907808,2.586789795992413,-8.460439817869617,0.4140926103208073,5.581675423020195,7.032376124383273,11.009769130043708,1.9651616858381296,-0.2919034376329747,3.112020163178922,1.2054735741939917,0.6451896374262525,5.9917153482166015
0.6495492032119063,8.791249864269325,4.424074190489719,-3.6660267440144647,0.8562880610907992,7.99788288357298,8.11617447916201,10.676471002560689,6.016772971364732,2.762124950258663,6.978905119124306,5.108107930341982,4.351073723656855,6.861881737162019
2.0275908194564387,2.38948865807278,4.3297623142876045,2.7845549791442625,1.3334863417253953,6.597128459301704,8.539299693001785,7.4803270673347715,6.3246517283277015,4.7047662999762245,9.194847268333428,6.584595779021829,4.991303088595334,2.8433403225006075
2.3054229865484075,-2.0221080863077576,2.215865491804797,7.769432250989029,1.8326164468708777,3.287290905732481,7.397975925503211,2.547913593963745,1.7618506414769222,3.3600918523721326,8.499174889138533,4.799869753289814,1.7450272498348305,-0.5555617016158021
1.7102051753577143,-6.913761357784677,-0.8822351820158989,8.279801649457914,2.026614673623495,0.284658615603038,4.20565812544989,-2.693714583419718,-5.790045822834282,-1.7028916522387512,4.327612139195718,0.6729578901426727,-3.8306281143976255,-4.606195053744036
0.4094667632315119,-8.12565592214111,-3.273505357921577,3.4076955638700746,1.5116907599130718,-2.378699538219734,-0.3781316462467163,-7.441162914316781,-13.065832563861305,-8.89405981527878,-2.7899527901900214,-3.9273567596352175,-9.256499344809413,-6.75448938547883
-1.4587799207811276,-3.857453108428185,-3.7976614138734046,-4.71245712366857,0.2760877686234479,-3.939596024035737,-4.737741678622471,-11.52183155036583,-17.471833988864162,-15.430355849130382,-11.097568094671692,-7.319909250777708,-12.888727072635092,-5.984741625805658
-3.546941191839257,-2.709022433556943,-2.7683587580688087,-11.910027844668637,-1.0843971269120545,-5.478342383711906,-7.39425804503505,-14.876885873812643,-18.22026438645876,-18.91562074097508,-18.175780753068786,-8.749541116333958,-14.622274789777116,-6.176964123122184
-5.187880425708297,-3.4845915738017124,-1.6839477777977372,-14.41804252426259,-1.725377730531109,-7.692530282178767,-8.076360466661626,-17.283093060699542,-16.270953807450184,-18.789106200497407,-22.100198797278665,-8.451879138509717,-15.258903552484528,-6.492708469083393
-5.642676122106405,-3.146161512639464,-1.8258719163430888,-11.149165293089531,-1.262163896873734,-8.034784321245056,-7.833799139160064,-18.59084745415604,-13.602740696591203,-16.64141737182019,-22.43492998876956,-7.2531524410149295,-15.403276881898758,-6.120043317922635
-4.605710172554577,-3.030510517207589,-3.055377957825537,-4.26314722395654,-0.172499571196008,-5.45437549686879,-8.073949708204257,-19.050557871495887,-12.27252082334206,-14.998958688138645,-20.220422995457533,-6.057427716218072,-14.934356426695114,-5.539735131761678
-2.5697475131209764,-1.3042292894516998,-4.031532626075828,2.37199993523814,0.5983144366364499,-1.8669846345260843,-9.287705376228894,-19.169205837637183,-13.37147814343071,-15.30469035689256,-16.896782081469482,-5.428729498241252,-13.339662625866232,-4.319262501804492
-0.6602387949397546,2.366868623185074,-3.6611880557488,5.752922478408488,0.5920200254889885,3.911804062432114,-10.491185126022314,-19.109531864588163,-16.14537171254407,-16.65396469641587,-13.13928280511854,-5.352496287525025,-10.405194144218475,-2.4217957112609527
0.0647644312765862,2.952189991315976,-2.2864923925566,5.507774181753579,0.4624123762741305,7.75007859858304,-9.896904170939033,-18.26577788951775,-18.031537579731044,-16.46610176838292,-8.78255289589194,-5.286064592352268,-6.6243700013733005,-2.0718116885545177
-0.6355313310600597,0.5777369710318343,-1.3396692496874731,3.603141891304471,1.517898062412815,7.1504451988677085,-6.38981165199613,-15.6057499556447,-16.181498590927774,-12.713588135180537,-3.943695701724714,-4.578586236991065,-3.092896617045953,-3.377965162634585
-2.0026833509968576,-0.8808479139661074,-1.77249061076364,2.359927509501482,4.403896864573154,7.309896579805505,-0.6624144781398833,-10.62984395051858,-9.780770624796208,-5.84437645097524,-0.0512475620439722,-3.073157892953546,-1.0092708951470757,-3.698689301364784
-2.858670197337986,-2.349669035103981,-2.8693750532602245,2.546366004569304,8.104694824455674,6.080642429281316,5.026850429482465,-4.107828705498367,-1.2600618453041452,1.3793009672184589,0.7074603117799256,-1.3970507369283958,-0.993665304163553,-3.4468484217207087
-2.4948141706042044,-2.409866700417469,-2.72668092581784,3.192082970080188,10.363644821608675,4.520375143282049,8.447805568219763,2.143244946113205,5.079792025588036,6.082713481669572,-2.5138518697450944,-0.5443126156970273,-2.515513166473728,-3.0287764396653523
-1.1541672173996729,-0.3497571113261205,-0.0455819890663473,3.099464689925058,9.378766073311937,5.518678639263711,9.069643873530872,6.324372880167948,6.319591797717404,7.550431764164868,-7.496718347082798,-0.9716009633196734,-3.886549938276021,-1.9851847419705315
0.2436857900093638,0.1971084758277896,4.420632212170551,2.350812935787932,5.334624551269597,4.843283360520322,8.270519129325514,7.676138436486905,3.346571105366303,7.477714556301235,-9.724073152323566,-2.019780104074042,-3.168765991917901,-1.7625501947395363
0.8444274400527778,-0.3816567194198701,8.146510667117864,2.144973314106913,0.3201747210681418,3.4345119493755027,7.775308390887727,6.656173339541339,0.1445235274563714,8.021845999269214,-5.673907974462185,-2.3407465612608185,0.329761986177294,-2.380877499158684
0.4428969931728943,-1.3663779954988264,8.6643508318035,3.112633577843532,-3.369711980063826,3.0241360122158105,7.7511037196025,4.303328368713428,0.3798130205625276,9.587723540085832,3.907365958932527,-1.1012497365355527,5.1059874986246925,-2.4022922252089165
-0.5039090273092186,-3.4492386556100896,5.401276328083949,4.011357906528083,-4.996099449250878,1.4998913060460286,6.506977033494556,1.5242281459637017,4.267818238837546,10.498474697331767,13.801799075729829,1.1129745487223102,8.159360497374296,-2.075151162262109
-1.3604201466911254,-5.344266786334613,0.013972682087691,2.4766786599007027,-5.5717050858544,-0.266322781894459,2.29772228931544,-1.0930021222069466,8.521824286594988,8.817549598857546,17.841719428968826,2.633964692716246,7.177477664314776,-2.4793673549328297
-1.874041205751105,-7.094001910677817,-4.952205047191353,-2.599113518932245,-6.41536532812535,-1.3755309678846028,-4.416515647744102,-3.062166659253963,9.350632480330637,4.481376218330524,13.508077081263604,2.1120444507430984,2.542033001054735,-3.465001830214831
-2.372340641131549,-7.097876419525249,-7.850073172153838,-9.345501797315638,-7.630920277432446,-2.4587117255909545,-10.581120195667854,-3.9492380282373913,5.713376471787997,-0.3656795255706333,3.8040589822909303,-0.2556449808602794,-2.7043745384641413,-3.908016157454696
-3.408109700687321,-4.886225810359242,-8.670346720502746,-13.751659424980616,-8.096015529759537,-2.853892728545764,-12.69911384374902,-3.711512668195193,-0.019306296228474,-3.1675776466879944,-5.182243514499241,-2.818144365843917,-5.145078833722198,-3.92179055143808
-5.062494455091807,-2.806537966530719,-8.295224775145954,-12.609840137075256,-6.907402233801403,-2.4230082945235027,-9.710475315746422,-2.9650799748762395,-4.300107454958169,-3.166078066690714,-8.926777406839587,-3.831773344395805,-3.6390517282039294,-3.0323635772773647
-6.47709533207658,-0.3851989189368688,-7.205859369474769,-6.071600657867935,-4.654458566851247,-1.7797855208043574,-3.9474433924284806,-2.612543140962435,-5.263362066444888,-1.9393596932000128,-7.420307984640837,-2.8704048910774294,0.0253116368456272,-0.9331595236946688
-6.193018297529056,0.5371832152594691,-5.020432292643751,2.394512627390773,-3.072989239500492,-2.30804035864304,0.7537256433489681,-2.9770415220323105,-3.725261382096512,-1.8017852060798667,-4.206848970515109,-1.057803031540372,2.998116439388456,-1.1976988543575915
-3.3103793081238244,-0.5961488612965222,-1.3242590973489996,8.538991811224227,-3.389917106097583,-3.914116019169179,2.0563267288963765,-3.335350005548685,-1.8851429255648569,-3.628089507009452,-2.8537149601604046,-0.0163144242504724,3.854963566018313,-3.8911168308831927
1.3687085207017606,-0.2532264114274356,3.147009121510792,10.134295295084488,-5.110293217531774,-5.462291963167743,0.5467779706523785,-2.5472754806488886,-1.3514109755874486,-6.188168172591515,-4.254930422977619,-0.558291059658103,3.255475391255267,-6.363561166614881
5.374006353342226,1.1170266656081598,6.392306026127187,7.826805334814544,-6.549246934243802,-7.968530880588721,-1.4834631403317946,-0.3698474098467947,-2.285107537615806,-7.605846668757538,-6.909404647174718,-2.230696530276086,2.3295962139165383,-9.36853874695366
6.15270896557659,1.792010657872052,6.521383189294463,3.7764082232483833,-6.538723728117068,-8.71467276565356,-2.420386692686776,1.8499578070026583,-3.953396630829804,-7.464247909124198,-9.20450183205111,-3.908681357614464,0.8416164321778936,-9.71549813319609
3.138167219667693,2.3043176254265743,3.474929660237949,-0.2617819640890317,-5.4761277210734285,-6.72967254288838,-2.4919328371575613,2.0146303749780348,-5.620634371730056,-7.37697395062764,-10.964864414380807,-4.711365851399183,-2.5646926275511923,-6.76486972755659
-1.518557664950487,1.891215830930844,-0.6076642177670362,-3.646026639323523,-4.612682076543157,-5.096334937306869,-2.8477155546515918,-0.8912874782264666,-6.7945248702458745,-9.287142970652116,-12.755836028439209,-4.43769540207019,-8.128800256391887,-5.12915749221797
-4.457380840034157,0.2737056451887463,-2.9250468981129,-6.135849551127768,-4.422113129909128,-1.798338143366318,-3.909617570802574,-5.610095851589776,-6.946869168596164,-13.046475225223462,-14.126088648916012,-3.380424524058913,-13.327644299206874,-4.057326205964106
-3.7685493856699863,0.5195118899287479,-2.1927730294405183,-7.040111607192188,-3.914626586952963,0.6425801629926436,-4.922391522722984,-9.264073517386404,-5.497597003521255,-15.748742609613968,-13.160457034674222,-1.9538566487506903,-14.128002353896406,-1.4772626578854262
-0.4893656241877178,2.5956508061567987,0.4867021204090189,-5.438551091723536,-1.726038355751598,-0.2347462451137,-5.069924461308819,-9.4193716743877,-2.360518828451193,-13.79842898799934,-8.147462146272126,-0.5177356594142335,-8.438627598917238,1.9871859259917213
2.484972398559849,3.877774654481741,2.823581474894519,-1.2988703891169298,2.1638061989316704,-0.2347805316087723,-4.6597412521242365,-5.842472385510712,1.5662587285642182,-6.083844260264705,0.3361059224660447,0.6540010519326458,1.5336849022670762,6.988130568674485
3.139505985777232,4.925328768064355,3.42015373522424,3.7994913149937712,5.9822753518582825,-0.9435569160494732,-4.823466186643834,-0.5278798691109241,4.718163326736027,4.609904791157433,9.261886233240556,1.48764946834266,10.583990499684072,13.853156690914528
2.163901904742872,3.532445236239984,2.7453429144377104,7.273469269079865,7.569532257828117,-2.904565014462196,-5.986458204217342,3.871371496756893,5.889550894400964,13.370810578942685,15.293459810307969,2.259519619573277,14.499138031390697,15.259376158170078
2.077066870980204,-0.9471237569373144,2.1772123219983595,7.061479465318241,6.256679095884614,-3.912751736320169,-6.949575755688828,5.777061701391716,5.029100310080343,16.691560334978178,17.21110729178745,3.459063440766512,13.07725173661488,10.79423962476555
4.433760618966698,-4.21110416260042,2.2245104561926485,2.8083953200892093,3.336536738867709,-6.105763195163024,-5.90099883124957,5.255831537253947,3.061046814049469,14.766518062535567,16.323730314877995,5.2598107481463074,9.491191090671125,7.71682536040849
7.82364852721709,-6.778763721663204,1.817660188947896,-4.073415335902869,0.7344472528227239,-9.614865546565898,-2.5069798186847674,3.341345249082813,1.0143325611963938,10.729762533648406,14.693036550460766,7.037302548266968,6.943003932663357,4.498305312206758
8.732393708356014,-7.265355024848471,-0.5768327981100736,-11.167573605867675,-0.6721855877862453,-9.96986559610094,1.1991108468214975,1.084108029493004,-0.5807528471719792,7.769458890540109,13.168584650721348,7.559904858059543,6.055497092872693,3.0533713689243123
4.643452303305894,-4.646426139616536,-5.132770916756751,-15.915775163455775,-1.400307306252703,-7.35095205197885,2.394086515429885,-0.7778720939065256,-1.5082130684707131,6.792624099059797,11.182054437621517,5.931343850192725,5.325254561224298,4.726067787866386
-3.4265129469251523,-3.6480800241869296,-9.976981509529722,-16.340991723274204,-2.224279066008192,-4.1873348391620215,0.2252392685768978,-1.5717176653358589,-1.3826745650814267,6.509253965765337,8.18476346355756,2.541632466012121,3.615805892495544,2.562364268580059
-11.327380650468193,-3.8076414506080623,-12.3858780021966,-11.849064920722537,-2.9748566274563477,1.7971728933910185,-2.960636351587114,-0.5810819669201841,0.2966555631897698,5.415177036660476,4.87645090795659,-0.9165990214342904,1.715739564302865,-2.9197794661663283
-14.823274979880834,-3.651692566318424,-10.834759472197034,-3.953940544713527,-2.633817670733105,5.432813058846048,-3.3591640702140886,2.489795309086676,3.455840554462261,3.5113067670810114,2.794546983906635,-2.561052288866641,1.330103298242248,-5.252045014632606
-12.658736399496338,-4.0443530527416245,-6.125174944522593,3.8997466496191535,-0.5710965742136409,5.208597368492991,0.9498097194841576,6.889954473837895,6.960102229420231,2.1429784003584587,2.771292630354303,-1.713963925565606,2.810992983526658,-5.363645839705428
-7.151429404082144,-2.7752242303430745,-0.7240985339357104,8.001391863170783,2.471707396608906,6.429056483991836,8.034861245456096,10.843318631837562,9.1259272116959,2.34321516878698,4.001862803881396,0.5859761645139461,4.250919989528601,-4.860194412192056
-2.13852737426091,0.3253012877612968,2.9844172914326554,6.744095046931147,4.728765552521036,5.75428488300585,13.340884062975826,12.492768121375612,8.955052557495229,3.506188107955815,4.71445439721599,2.3810951277203465,3.01820410444104,-2.5972074722712226
-0.2740210850865257,2.0645325118974807,4.075007901498455,1.8109005113711056,4.758497337246662,5.147900022709288,13.142672338853137,11.108975420378073,6.921076777035057,3.793437131362576,3.679556655563979,2.229200350739169,-1.7551898142825717,-1.116396843145866
-1.7553644211868944,2.791361359300397,3.2037457993085825,-3.0603407875760062,2.52869128776028,5.8472989598478105,7.393537657477013,7.559948104235436,4.497542630621728,1.924558179597919,1.034653139984714,0.1485259961778426,-8.114609455839153,-0.5201443903842025
-4.878618950464959,2.992623213760987,1.7597651531458285,-4.857228351921284,-0.6189950430789217,4.091988863249068,-0.2499161036456025,3.659994037788312,2.897679895378481,-1.349071639392756,-2.1711574073200364,-2.5315916816026576,-12.559212014390898,1.7691049191300183
-7.327036234837059,2.0289137733757245,0.9460951188905896,-3.2334345164413767,-2.8895197394053618,2.599816406841263,-5.0974770448957365,0.988300221630916,2.2829338695157144,-3.524949175486797,-4.930865406240448,-4.115950180828818,-12.444164720233807,5.297368652130607
-7.14189987964145,2.3293968768433984,1.3797389230995751,-0.0029075435001733,-3.037074484497465,0.9107667954342747,-4.660449717163319,0.1138006895858998,2.1066092509080088,-2.26777946117262,-6.704664585261504,-3.519836816847916,-7.607285764868817,6.505041852246303
-3.322084547329373,3.932157617267293,3.118357996712356,3.018335566347572,-0.9520493727584958,-1.293420992341685,-0.1428232057973879,0.6214501262965992,1.9672504099806591,2.5584994468541176,-7.240359830064292,-0.7479406493219196,-0.3400198887091061,5.485709413353485
3.580467872821409,6.630140418153828,5.739849792296977,5.47626169799905,2.1964261255920774,-2.4407392471406286,4.651395178153084,1.5757143961071058,1.8588068348219975,8.368463330477308,-6.489412381042568,3.1635091605190504,5.829183208510944,5.855778623047358
11.151382910196569,11.076293647458243,8.391436113297559,7.846483183518302,4.300294181889386,-4.882459625205958,6.03624962546335,1.9170111533192848,1.5950692946413234,11.309868271675075,-4.921720319221516,6.564306914441191,7.666859493259551,7.0206757045168695
15.96029049850517,12.67160035794581,10.070353445806472,9.749877820357122,3.3481363924454834,-5.324953926774021,2.910235702113773,0.767956602952883,0.3835107327914082,8.756896402722932,-3.611569915441797,7.877265732409949,3.6201873723011087,7.3257172164958755
15.720632150536463,11.25869896716531,10.25026946018664,9.515064332286109,-1.033032063471481,-2.7068863357929915,-2.572167767624503,-2.064589435352344,-2.5010710975356414,1.2220269012548806,-3.433442859762589,6.447087859680533,-5.167681021774765,7.281037711221313
11.318807232318626,8.942822524428609,9.41970252746417,5.890539081487,-6.607857686503271,-0.5373306191503017,-6.488470169489107,-5.515371584672568,-6.383009094575433,-7.590391349297752,-3.8643562631715462,3.138411407424094,-14.750275486994216,4.72349171763203
6.648821164988193,4.589845933252429,8.836670050540212,0.1795741170964362,-9.43234159679406,4.480398314943486,-5.841737066034611,-7.364656695483212,-8.819850188613174,-12.791019933431434,-2.844515851864696,0.0643938810864823,-19.851979472084853,-0.7705087214413568
5.74926174194434,2.8275740004606607,9.368359412608765,-3.8522978494427695,-6.627226440343602,7.260253195577309,-0.7198501885384614,-5.567844129226248,-7.218758391869344,-11.30425236037929,1.5631190423954084,-0.7308892175099089,-16.739629202219707,-1.1237836718415073
9.344925662163456,4.069299489974255,10.314057761216176,-2.893853786828288,0.9492654440294744,4.647518734776235,5.59498619771584,-0.1273986410995053,-1.3564015888668095,-3.969420700942976,8.932920981574863,1.1574421671863249,-5.856089467601578,3.669671459271087
13.92420697136965,2.3450294850846034,9.513471165390008,2.675371043928914,8.676026691868268,3.4165771218724363,8.814774132580483,6.219669370929674,5.674403946257471,4.858805413166282,15.9585675849162,4.032364593715847,7.937718728871674,7.010851146544708
14.543619172270468,-1.4770028046505204,5.099069788971328,8.557352946199767,11.398802122142628,-0.0794181579183945,6.726317594404993,9.629451399066042,9.48664723720092,10.22574575502592,18.654564916986,5.402485749291417,18.223509134000444,10.47200014745986
9.159016229740702,-5.284353545838236,-2.415766710286669,9.997060566517945,7.516016539947524,-2.9212524549860124,0.8949599538670201,8.134480133471598,7.953708571046431,10.027454857410737,15.599084776441837,4.118182177255285,21.162253602757705,9.116772835184175
0.6384866097585835,-10.02138081280308,-9.768902849211123,5.92253976054476,0.3687855890872873,-0.7842770262848683,-4.458687421650861,3.402692025705821,3.0703959492716937,6.280787910613391,9.22683765937944,1.4057635500641084,17.742510888498604,1.4814683367105563
-5.517572091319362,-9.863619869918036,-13.125040036356747,-0.190817107386227,-4.471945859835584,-0.3820176105477722,-5.706548417072344,-0.557430025136024,-0.8040434290397549,3.0562176831857384,3.805704073616777,-0.3073237141961256,12.34487014098194,-1.0399404880436989
-5.8757352426351215,-4.11717179557594,-11.244643344465018,-3.678863925125405,-3.7653604004160224,0.6410402273114393,-2.6454461602152257,-0.8303703379298755,-0.8628238018628025,2.765631132199365,1.872126350001512,0.2059306100598688,8.920662802810934,0.5770642869053686
-2.033040558644765,-1.3848714999955951,-6.820287827894445,-3.085874745799279,0.9574461219294116,2.1982730969213216,1.456674107899528,1.9010484134541352,1.705709313475519,4.100425191723226,2.420540009645056,1.6549305925171849,8.10673579973489,0.961334209375222
0.8413288160567465,-0.5647750126423763,-4.475817515351125,-1.3219915465328853,5.089600267631902,0.5410614343129139,2.7025038647921877,4.143839834527954,3.0732299425461127,3.54017646112014,2.4292126359756487,1.3974729435944262,7.6133111206953075,2.135021007804858
-1.3762975548535443,-3.8793673809236,-6.889399675857179,-2.461369203960537,5.046370627388882,-0.1703361497823705,-0.101972049084539,2.9841056603430696,0.6200029849445432,-0.9517141852682452,0.0314992245637855,-1.920075337089326,5.136078323407322,-2.322770823659191
-8.080079811656722,-13.312138543693436,-12.38258652253508,-7.369048116580538,1.045158552725166,-0.6332119870701602,-4.476109330070901,-1.1032067377300052,-4.41464035836588,-7.562641824678828,-3.8713426597001934,-6.789726594493511,0.8161044311237813,-13.472397786215003
-14.415695933424573,-15.692545706296263,-16.19650707574137,-12.495507431016785,-3.616506740600133,-1.136407452816532,-6.431063052913316,-4.665474014531565,-7.965301287310979,-11.914626239199494,-6.976594352538156,-9.929044185316114,-3.01819238491238,-16.762153580600362
-15.430711814629088,-11.369415839737602,-14.435560372707076,-13.041386239476374,-5.638998182766217,1.101548029534128,-3.808135368512999,-4.485988219985282,-6.775183044564978,-10.85679686409058,-8.17223650117622,-9.07699468472065,-4.285626349582806,-13.008519490782277
-10.2135290979747,-5.197073424058658,-7.270419947466182,-7.446336021755965,-4.161076452791343,3.5117974537399,2.082999493140408,-0.5637726604197741,-1.1766294480891837,-5.248667442366292,-8.411605167155596,-4.920882588622546,-3.178677310247142,-7.644825839382274
-2.5125211699825387,5.7320685950248285,1.3153695446504736,1.017064223625738,-0.7075100406924069,6.139288624223708,7.726529205287669,3.8644008388030535,5.392096408278061,0.7842221429248353,-8.991924593286488,-0.444516242743683,-1.843934349340243,2.340403593515745
2.4600579233346123,7.837929357912523,6.833447778680863,6.879889441765518,2.624361962672829,7.213513856390122,10.196500686022462,5.149918573341214,9.323684641398096,3.3023632094870603,-9.411651823862512,1.5746459940456603,-2.2500579390916435,3.971762199248402
2.0829990730997583,0.0021567434287019,7.63021017888063,6.763944736413435,4.660189699447295,3.953727876483604,9.023118787773726,2.2135781967746397,9.31625992450044,1.499061400149996,-7.59464414130716,0.5913103956585672,-4.475882185745515,-3.931670311641636
-2.159740460038332,-5.2543085048943245,5.463695988754687,1.5508546848199227,5.175657393434441,-0.0421097988500266,5.831583863269858,-2.9509593903653077,6.375730682960784,-2.323165429071356,-2.606101793256224,-1.8123354567674657,-6.990776000899171,-8.586272009028045
-6.5890985720992425,-10.959161148287176,3.216818996696474,-4.997554880742365,4.118375264381729,-5.441215105877745,2.5331834512816656,-7.421665761181131,2.009931467128568,-5.285809982899066,3.110923967860927,-3.7202902878016726,-8.38712403956906,-12.853851774703829
-8.564531880120484,-10.88653632467961,2.1743140483460355,-9.36099072955731,1.3543316587855694,-8.4155382720529,-0.1202955225259865,-9.906801943605068,-3.1353102565006825,-6.361677267962545,4.920894470371247,-4.50399868307818,-8.693859027766273,-13.296851237913549
-8.14687147265528,-2.6587631613938147,1.3635708667672295,-10.266788736884378,-2.710822630264895,-5.404073258420579,-2.515823582586844,-11.35079270698487,-8.88514891823305,-6.620765642230522,0.0781547293152336,-4.880746862319846,-9.059192649561163,-7.659128091829157
-7.1282396517985696,1.273187604396444,-0.7603114453697293,-8.395599589748741,-6.575478893507682,-2.234656427807797,-5.082427538760914,-13.287714854265008,-14.258696962216067,-7.571441531210397,-9.17485135972664,-5.686511705676617,-10.33752701723848,-5.66794108410419
-6.845602015163159,2.592329824295549,-4.241246532720856,-4.909932503289124,-8.175122511219918,2.7634256144327205,-7.360582255575236,-15.79383279724143,-17.17773833059656,-9.547202884061909,-16.87355288961229,-6.792190557271738,-12.109743019023576,-6.204378075706271
-7.003335193900977,3.666539625893202,-7.281456664644482,-0.594337826305539,-6.335349700302672,6.117080933482151,-8.122642746622251,-17.10403003309768,-15.873735750433983,-11.601350045980263,-18.17419270684942,-7.229436620107075,-13.045142329872617,-5.629489515779183
-6.378589404273988,2.3133686458818024,-7.884613129609535,3.823868784827514,-1.8505861324843424,4.086960510267546,-6.401159280972904,-15.208368246286012,-10.725235941640117,-12.591968301883126,-13.332201341286252,-6.257197636602038,-12.10298163902758,-5.557563939311392
-4.357018317524245,3.5804740335615253,-5.785677036110176,7.096681457231942,2.923725742102202,2.9463766682346795,-2.516628194435194,-9.844361637230396,-4.582496761907154,-12.080349725556186,-7.088020069920237,-4.1868466561600535,-9.345181961925448,-3.664579454530779
-1.6466797313570734,7.484861918790794,-2.794461786658313,7.735682704653768,5.729271481458163,0.7491461259164457,1.7792618050883815,-3.0307022435736237,-0.9738914423395229,-10.26685804316638,-4.183635172328584,-2.130771875343412,-5.699456528511822,0.4410491547471855
0.3912291852170075,7.703966196647021,-1.289517127244248,5.162172389556165,5.914756774032394,-1.1037781758681535,4.2384622973953,2.274286428636887,-1.593009602270259,-7.472362926619732,-5.400810084132473,-0.9948952780781468,-2.1302882192647807,0.800112943033946
0.9142371617334196,4.913358319646513,-2.308533364753912,0.6228916273675544,4.558421910909205,-0.1649615275033005,3.515521956491928,4.1756292102762576,-5.170033041461083,-4.050151275916237,-7.710334450654139,-0.7790501511433066,0.849994560708959,-2.39926647772378
0.0879565480395792,2.071429312488811,-4.897777903390137,-3.210711484121448,3.2621000671171805,-0.566288458730106,0.0590266849675096,2.929256677042683,-8.603942130570966,-0.7578835498721377,-7.848970144827242,-0.8475651792623058,2.970608049859022,-5.7087487287856655
-1.349725359953747,-1.9061946642151557,-7.08027875948919,-3.922698464413303,2.8230940895211623,-0.6247244603958372,-4.134096517910267,0.511818704592605,-9.286374836913357,1.2510183030180424,-5.415412260243886,-0.7626576140404975,3.8212047111786847,-10.321047246032856
-2.716973917950438,-2.0505958067671206,-7.382789495084262,-1.103111214352893,2.918192576455992,-0.7038256430958574,-6.732654014141469,-0.743186044349899,-6.691528655969093,1.3141554631053736,-2.5587254088779696,-0.6978381310961792,3.011591291013941,-10.641901558584005
-3.5226569292566765,2.3928313798617906,-5.6226015234073845,3.235510920389636,2.820411899128078,-1.5207469732299514,-6.416468192652083,0.5549821715926564,-2.175498353459296,0.2836733403134719,-1.1412740641024408,-0.9800621819448248,0.8456083616957404,-5.799004958029881
-3.251911026714128,4.829779863100298,-2.581921422502815,6.026441825723318,2.2121360638134373,-1.1557516933894376,-3.474856027957242,4.257120309919393,2.461230262606476,0.3719040825890154,-0.7077439681676867,-1.345611303481082,-1.3160082603632697,-1.360881839969055
-1.435875188600864,6.356934248900351,0.7962233829470371,5.397300608411937,1.2865293058280662,-1.4065359673671067,0.6376117777966135,8.906083681547512,6.257889304826856,3.510448425166051,0.7104813073000678,-0.8678854753245848,-1.696054828833236,4.112438833327111
1.8360456317548997,7.396750855553975,3.896564351603343,2.158037500212796,0.2608160142697784,-1.0478780846753668,4.344017455993842,12.612746308590484,9.31578433687418,9.559444724956698,4.189862307504844,1.2141054928453738,0.6013275274931393,8.037334229059592
5.587532300885504,6.80164536767716,6.406770960583825,-0.6519903307030344,-0.9377191916453632,0.3566494146032462,6.804769707326271,14.153138029046715,12.129309062186763,16.12396410177668,8.695317741849973,4.581351678713185,4.823656533146638,9.445975218798782
8.464205231380618,8.808201399834289,8.145623886911508,0.0366414001379826,-2.389534971415837,0.8936325700117201,8.06362043624933,13.641267082237851,14.797923303574024,20.28387817232304,12.202610321486173,7.836153848326324,9.14708305148939,11.653066433257884
9.82455342513023,13.367037679687073,9.089996984618807,4.908703697865832,-3.710594564210874,2.7138313402055623,8.538945969009907,12.236628929592891,16.707773999156274,20.66239958921753,13.626540261938658,9.521916838478536,12.097189655708316,13.78873479022355
10.342040300039836,14.116974498433516,9.525189309149969,11.468367867734392,-4.10087342599733,3.5160379478147603,8.393112298120325,11.01422687506316,16.781723736049756,17.955965093143156,13.340366588271465,9.229119320768437,13.434977082637982,14.179738954974995
11.35591817324974,11.511652588528396,9.985934968316334,15.616443344165145,-3.029374444663925,1.5372475950537237,7.337941563828573,9.924751709833584,14.109575428711524,13.669539139202346,11.96404873970433,7.773573699395352,13.69810513949971,13.04376723951042
13.45526279761012,7.232515733636593,10.85780098705838,14.572981018581412,-0.8795226906970521,0.1216467281367075,5.020220507544389,7.841119769949239,8.669615992721841,8.612147909744518,9.19588163339885,6.354209532069709,13.048636347599691,12.107608524669542
15.661457007803826,-0.0767164245854485,11.926526537373505,8.959423504194413,1.1769692168003465,-2.63733894103371,1.602707633326505,3.747105390660588,1.72896821037063,2.7717294685155567,4.313873172272371,5.547716829250821,10.843659109276167,11.163406188195331
16.103758395288285,-3.258132789913313,12.338207099201922,2.3523041211725566,2.040205455759349,-5.004458996384532,-2.0390081286009973,-2.0040677513819114,-4.508939404723401,-3.4989929151360197,-2.1574014222085056,5.044695924696682,6.526969929197046,9.734916176973195
13.656284423168184,-1.8555819709581265,11.14839757872578,-1.4391200920201968,1.4900576678640751,-4.286715387609582,-4.7568205781027935,-7.584707932955013,-8.038685321575237,-8.598969963623679,-7.703179266161292,4.229590037119324,0.8850352728516357,8.149355018554385
9.0461359161782,-1.045254668512973,8.112339993654132,-1.2281994293777163,0.2231339377451648,-4.214305416634115,-5.879855554367161,-10.91713975477982,-8.287411687944005,-10.425959075881623,-9.262944785055597,2.916799676638302,-3.8631208693360257,4.612310327104977
4.401295108067383,0.8473045984517591,4.06082176251931,0.895371099791948,-0.8363201252398271,-3.777931249166532,-5.657831407329654,-11.176312942107325,-6.459603115389111,-8.275870459366347,-5.774156720707325,1.5115006415226049,-5.568516185800518,-1.017557063574225
1.6276319892547502,0.5867472868796464,0.4481313866647554,1.6214382590412448,-1.2753883931730066,-3.211577031923074,-5.0567784894689565,-9.307222498977056,-4.616772070347763,-4.030010892179766,0.5830074091247663,0.5064388161993909,-3.991384962479708,-3.6030099703575353
1.0267753782519031,-2.637105829145608,-1.6687680758401582,-0.6456191492276249,-1.3847793199082403,-4.627011150057832,-5.117500729833993,-7.21472144759134,-4.20765946227748,-1.2475806882914269,5.712520878160906,-0.1162251482093648,-1.2190715686902005,-3.184578484687544
1.2793751686645285,-5.204426389781787,-2.397991440137001,-4.551573439089159,-1.787742380343511,-5.568876965857816,-6.364817924264065,-6.3718214564180204,-5.237169563414563,-2.661825167870357,6.431974590252784,-0.9287374599250722,-0.1291774758804109,-3.578633424883712
0.6830540393667448,-8.035943897903987,-2.811931236916829,-7.25543810614178,-2.9155145925308883,-6.387380651917916,-8.55707990825945,-6.88426753557259,-6.599717072569608,-8.03116225384942,2.539080506867439,-2.438267868091798,-2.126760841643001,-3.765412226532761
-1.479825104329619,-9.659567319432288,-3.874187308175808,-7.119220674805409,-4.697613570421662,-6.764118529761371,-10.7436282315586,-7.512777227676088,-7.024683427780683,-14.036356537490816,-3.2469024163837013,-4.360076973139472,-6.0117746595769965,-4.48884784221146
-4.531169210660909,-9.4699487464734,-5.440207267337637,-5.115211540533494,-6.56396186200687,-5.245817066009535,-11.553530862277206,-6.482470207811693,-5.739993781189973,-16.309929232311205,-7.049917111829675,-5.542314861397358,-8.839878126857151,-6.317165110827521
-7.120526528404589,-9.426552933818558,-6.324362044022624,-3.77294276609545,-7.704015051869481,-3.6609118282100823,-9.782470237602482,-2.6118861402661957,-2.591597622808429,-12.183514433498605,-5.980775212153368,-4.800237389035036,-8.040004748107261,-4.99684657337303
-8.357460509077562,-9.014906147132455,-5.49160552731078,-4.829450352186567,-7.514347450175463,-1.469856157922882,-5.237539860981822,3.733006547143873,1.9486906692074013,-2.42149132693077,0.3370635549204195,-2.07390267488222,-3.226165004278407,-0.5760878897549835
-8.435749809996857,-8.630325140922928,-3.303636991627327,-7.819406490009633,-6.075281632771656,0.6967449875171616,0.6566069378892037,10.373574063395212,6.593913978503135,9.002128124394977,9.280751589069611,1.131167885827768,3.450834744528928,1.6325168838973356
-8.348246343572477,-8.54232425967522,-1.5390276886816323,-10.72990542545714,-4.306311757077976,1.2162684548291658,5.236541093232816,14.158721009968383,9.293149693914758,16.915846426258952,16.10796241322562,2.615716569902112,8.524118327831957,2.22262167562486
-8.984088827975622,-8.584249836447746,-1.9476295292986483,-11.816547757057318,-3.472074276487485,2.200278528108332,6.153336649097174,12.782376205465052,8.144233612290272,17.74695430566522,16.372147578589995,1.162948461856546,9.261034322124337,0.9593691522078388
-10.279270302869271,-8.979974461536079,-4.519733000711884,-10.764367217509529,-4.171918372053694,3.286947924299774,3.1740997457603424,6.576344513052252,2.9540168171449146,11.686354209844346,9.021596242963197,-2.3119907200394785,5.439887395770887,-3.336484929489986
-11.028522138885116,-8.928749938906671,-7.1024538006213,-8.316857368083769,-5.569801620685098,3.347021498585348,-1.2898244752938697,-1.1569759128488943,-3.836985686588479,2.8859026425729297,-1.985839525314578,-5.202791068412683,-0.1892491121373254,-3.4607707808228008
-9.582780374055396,-8.441448082972702,-6.9340093955370605,-5.137393023598438,-5.724282406602666,3.964456188941376,-3.682816135545732,-5.966100887213631,-8.122598981735077,-2.822247414931597,-9.545654607674688,-5.049582921855105,-3.3081365346964064,0.6168609813977262
-5.1046144474447885,-4.639709437474294,-2.948432546497944,-1.3005306000092052,-3.087934754982398,4.394184197182523,-1.899305655502797,-5.259448597422932,-6.801148190638753,-1.6473967684201885,-8.2434980634245,-1.3831786510115285,-0.8048111854279689,6.060791181584773
1.4430957481195144,2.9810394959763302,3.1209739075147223,3.082539643409426,1.9137166646572477,3.588820048711601,3.0699049652018147,-0.2806393982447082,-0.2706135320394152,5.418841970134436,1.3485733792472434,3.885174351034342,6.779461383699589,14.564675011923889
7.459721929712453,5.450855191834522,7.900136640565602,6.970188991324664,6.716751300679252,3.715628046446466,7.870960257279977,4.701869218737209,7.411266287444887,13.103432372515073,12.779705053973217,7.840791121897746,15.141082374409928,17.38874450312378
10.221820973192774,2.9417803470310453,8.923238992340956,8.48777396292851,8.357262336233969,4.17150637621819,9.39143154699602,5.620133173933497,11.2081469756182,15.657703451568333,18.670737229225555,8.620942873653416,19.05052802589646,13.804687033150325
8.806498755347778,-4.853530341694758,6.447456607115991,6.282452619545682,5.8769899089094295,3.611985147175505,7.126405936033393,1.7650223092154764,8.772127706225522,11.243954459792922,16.496448269261386,6.577028192834798,16.284322964189098,10.586804213198167
4.847674784056094,-20.363561381429445,3.0114504933461115,1.005930474249523,1.305251597699726,3.9758181492886937,3.3794258654853646,-3.752602690310459,2.197359177011384,3.31660461410545,10.100531595783591,3.749467372399118,9.421949175746096,5.641349956351948
1.279266338493744,-24.506058321648894,1.1893859988467348,-4.593229380628152,-1.8281077011924995,4.495576907980047,1.2137969249904774,-6.678509875755051,-3.667894056160204,-2.310922707835962,5.613055127164035,2.2019140430310413,3.688030806732725,2.409528170127601
-0.0445183322056301,-16.780269893427146,1.5624572011786313,-7.381243829546439,-1.30281704248075,4.452926148646744,1.9709911550338468,-5.137477040533284,-5.050316158453995,-2.3075723422870613,5.694310160053901,2.557343055069089,2.448512412648304,1.919698748096812
0.212127090687582,-6.32360857218396,2.6406593421905304,-6.1049016888920224,2.103023826262049,5.3573971646311564,4.462229158934338,-0.935411168482994,-2.034583582005544,1.6064590230846312,7.577780808615626,3.7714178935754954,4.326744796292887,-1.3197585645942256
-0.2823720982360687,11.454347756588636,2.599400852584938,-2.306181022240392,5.5300263469243625,6.257716053990749,6.383702859636317,2.4092014919026568,2.023200456125908,4.540411355915264,6.543150256488584,4.126709896427004,4.6511965380569045,-6.417841468553578
-3.16716790931689,17.49721578882665,1.036663655852723,0.9505967186501412,6.63116265159895,5.41085213259016,6.5140141184062905,2.9422439385358627,3.7652435706096217,2.89921649989434,1.0106320618265676,2.534782656023636,-0.0714697910525616,-10.200482137790916
-7.777630708267706,9.919401868155616,-0.9031724035698104,1.4771144923420394,5.378467588175252,3.5981599209639743,5.635854950638493,1.7472859200240105,2.6719096548851518,-2.6907406937149,-6.030853890863932,-0.8359076013759541,-8.905768010962596,-13.327188841016545
-11.79092364628453,4.907769122263788,-1.9561573637085456,-0.5418708976147792,3.505279424558847,1.4543395027559922,5.423583890755851,1.3554547119980906,0.8860924115747881,-8.465131519335193,-10.544059633145336,-4.895188966836659,-17.51620395215766,-17.343934700903574
-13.362776924314938,-2.0856031259891545,-2.0957515515584,-3.088572579620405,2.4152655300734684,-2.2183690680845856,6.50221585387094,2.86525497521024,0.4789851434974044,-11.208783845154048,-11.919990631012988,-8.441475571434301,-22.26934147086098,-21.853928818352355
-12.556698539034036,-2.834626579357437,-2.4060489446588225,-4.155737226580446,1.8489053558993331,-4.112333035360147,7.6351469535352035,4.738543212061279,1.1412434744554876,-10.880636788952266,-13.4643845883547,-10.746443941185468,-23.20585621398125,-23.62625598576369
-10.769917391427,5.371081786312515,-3.717633965885205,-3.137263215294636,0.638256057758328,-3.071805705617764,6.835153584492229,4.420006264212443,0.7041348645318752,-9.931284696505148,-18.329065174103945,-11.628172750947709,-23.06057494986517,-22.56639725670033
-9.05420340820923,9.048743043839362,-5.569521572457549,-0.7393581622825902,-1.436761444040256,-2.854950231280931,3.2927228738200256,1.0080849083120178,-2.189864603005187,-10.473991943549304,-25.33435725706089,-11.245656065852636,-23.76776423525996,-17.800081592827606
-7.2801454511388926,10.45652527470997,-6.658116828409509,2.042023430284797,-2.875495204955154,-1.1334415829152231,-1.7527347031663787,-3.795230097667635,-6.2633915821020185,-12.346736983718454,-29.36717849612603,-9.96102548486095,-24.430602582095432,-8.258126879520196
-4.914191498338035,10.763101069896138,-6.29001849186294,4.603285880976637,-1.7813697013158336,-0.1110363655682863,-5.996432637813903,-7.34417346700798,-8.694336783301312,-13.76924153169988,-26.219497827509105,-8.311236478215214,-22.86433890925445,-3.124403736060533
-2.221995530827325,7.716255351859571,-5.257572930142266,6.530832926591593,1.980311484944946,-3.466834918912874,-7.92876768175428,-8.501760775464502,-8.019869411408301,-13.471628149454308,-16.989729833329413,-6.872806520187897,-18.694022237684862,-2.4846450473744643
-0.2674841399191354,6.859205522851322,-5.155447741826505,7.158050413194575,6.042620395229294,-6.0760272400178845,-7.872063572392504,-8.373275723271245,-5.7563109765555325,-11.871151419456671,-7.529679456243587,-5.933406749066863,-14.24245746630288,-2.141625792058866
0.3855836630439846,7.909974424826061,-6.793757403401669,5.767359071808311,7.1492771865821325,-9.042320848698616,-7.409196593758914,-8.744605850456207,-4.944872435635361,-10.2258296589689,-3.43229743778347,-5.233613778216288,-12.02397244419855,-4.241271141233217
0.673722934204493,7.171873477010554,-9.306093347021813,2.4244529381609663,3.7771309178470656,-12.290901532817522,-7.926334504158346,-10.052388955646183,-7.038726339049326,-8.980834308273076,-5.426369089020231,-4.132134568490187,-11.653253053662803,-3.460158821218323
2.323695987451936,5.5561516292548445,-10.86011808178887,-1.5043610695623215,-2.554481610508935,-11.11637923974742,-9.618763923629844,-11.05630802892274,-10.279612950409945,-7.260092432312465,-9.366551940172762,-2.181814639931101,-9.85770602315299,0.7001331395782424
5.924061677060738,4.024246414754593,-10.295203813011058,-3.9695851672259774,-8.409593451932716,-9.595282301162973,-11.637726748923315,-10.431258613357487,-11.226623156651918,-4.042822279912489,-10.318006303616658,0.3552437637790717,-3.965939961487656,4.332874842997789
9.789160117703103,2.144072877089384,-8.133999676225821,-3.701428911783793,-10.96394247672019,-8.682071932020595,-12.95052000265693,-8.433588743308636,-7.982014403440257,0.3176366623130029,-6.545689622177717,2.5608199506397007,4.69004537125554,8.715967795765119
11.02717791499547,1.6675353598146605,-6.046655406272787,-1.28953310965014,-9.799773722952578,-5.607127108551708,-13.021768960282849,-6.77886357767002,-2.0510697538237253,3.934007850643909,-0.0125189415543989,3.505188478206911,11.244574750685215,10.014028240296431
8.059717007734424,2.840354811042036,-5.305256387175341,1.159209819038761,-6.649519388850681,-3.5283843506824986,-11.848030458649326,-6.824201366721219,2.858744734026768,4.870266468283521,6.159366852046606,2.964181835288077,11.56901222945704,7.487273715260621
2.302478547902997,1.928140493393977,-5.6529844584043225,1.6368318143069691,-3.603154958802396,-1.648000235535472,-9.589051496102435,-7.957863367546277,3.9229466537494737,2.901052702161646,10.178156027066256,1.611823310404045,6.311166704238264,5.402440184407064
-2.6390773733745547,-0.8414055322213496,-5.566927662695889,-0.1586318234329553,-1.4737448722786155,3.002122039839514,-6.339822510935814,-7.9198397939325105,1.379936814419661,-0.1107489874896181,11.860832295917024,0.5352336805697817,0.6986426119474558,2.758842230063547
-3.694755903869268,-2.2917696292202123,-3.623455565352703,-2.582004740903866,0.355362135745267,4.55809220540452,-2.308565490381099,-4.847154735614829,-1.9834837508726544,-1.6234887176750163,11.356979791144912,0.465297445977427,0.106272197333471,2.1295909469473284
-0.7010232797611096,-3.003195178331603,0.2482828411627551,-3.415308622696937,2.711249390622374,2.7253999325670413,1.840757432280448,0.8850332599303528,-3.337921904054617,-0.4488032159210853,8.413535430996877,1.3005753857803128,5.403109094892056,4.372610528378703
3.554164003471328,-2.307371525839488,4.662801730479433,-1.7204139028705328,5.334893344911372,2.0337532937624228,4.981186104452206,6.8033502464586135,-1.9664849721155733,2.286235229265049,3.116540530997181,2.250631957737898,12.26583293076282,4.56390922424538
5.616642459417392,0.4357938762962545,7.834267193174476,1.427652147028752,6.781672665197405,-2.0858983416967924,6.107442280729618,10.387778781508716,0.6957193692753307,4.065643544290108,-2.9791745082577634,2.476696091152043,14.967634998856289,3.36228755746912
4.075079769495854,0.8218897380324164,8.860850395514817,3.969488740570174,5.659178972070535,-4.823882538142257,5.173045762714011,11.18266041638842,2.826536478915901,3.0984841429171084,-6.979894248493615,1.7713955053466677,11.197806972370614,2.488447167705372
0.5075839422314203,-1.076443416814518,8.213093493517668,4.696020164592582,2.097566256523276,-2.440151499562929,3.4093718051418342,11.046588956606517,3.899105651671949,-0.0754098803069869,-6.358845353574196,0.7749872618081568,3.7933711862578328,1.152363694870223
-2.019506052929895,-1.314760218645078,7.144720741440938,4.168321385136107,-1.9355230965371,-2.406445362555945,2.6054382385490484,12.311646932737451,4.717408450971044,-2.8635158449926195,-0.9150842146550991,0.5101387779809556,-1.8157231535791356,1.5897818138803117
-1.5787015548777212,-0.652653785263891,6.626621896153552,3.8716897809264808,-3.9149646280844337,-1.1048567720772406,3.729084775147143,15.529758813526886,6.016016563965856,-2.689036668249173,6.674996435400626,1.5176577534529372,-1.9944509701103144,4.093619923357445
1.0602066521477838,0.1367951042589098,6.694599389155371,4.491386346597636,-2.6644571470517957,1.9068619311078288,6.0522609064276764,18.86996666215404,7.268777254127329,0.7892830626975709,12.262998038044504,3.265971341982944,2.5504191824042195,4.680706898700006
3.1866375548349133,1.651478174809218,6.643883600299617,5.086928043081148,0.7171105459614253,1.6604559303179554,7.707200003146447,19.72379323750898,7.047366192075472,5.241880951765534,12.693411865855456,4.411848217168519,7.827491176789067,3.699421609806128
2.5048592866472568,0.0706505684462182,5.764474334759228,4.038874424363868,3.7509487438303744,2.892842307882145,7.329098118532023,17.034621213030334,4.586609785362271,7.540004247140949,7.74158147854304,3.8383619944797154,9.923654906476711,1.03589371328805
-0.9523521524970242,-4.909937823886914,3.928014185755721,0.8130390174044226,4.551187498625801,5.739875249255394,5.274262208324377,12.17605639232817,0.8857619330300395,6.3834019166916605,0.3021508747443384,1.6560087080472383,7.782812700330382,-4.227648704404272
-4.958555974196294,-8.892366622822177,1.5648258725720223,-3.297910583993953,3.1386401575941285,4.896960852009373,3.139175804929046,7.545652965295659,-1.9288964198724443,3.290897854618965,-5.3502502223689525,-0.7619568937166257,3.4073264241630223,-6.835462258340745
-7.07600680381942,-12.642590634640378,-0.8466393036487609,-6.2984047803701095,0.9466717506053826,3.2025712013655068,1.9461967691037536,4.213766489503577,-2.50935038253785,0.965992513089077,-6.250703606807191,-1.8734714595248287,-0.2261508727044621,-6.7859430387615545
-6.686625784122555,-15.037962430480093,-3.2229547338885567,-7.424243626820086,-0.9046529510356612,1.9719908904598415,0.8527967642015568,0.9318689035940864,-1.6280067633934934,0.5886634718595651,-2.707475634326194,-1.3055354901492322,-1.5436868304899605,-6.047737738083855
-5.277038786999778,-15.179118943855144,-5.760776481462379,-7.930401581239568,-2.744830030611297,-2.7133316530953926,-2.064826367187784,-4.411961156425456,-1.523372117314267,0.7956950411116566,1.8864894202576077,-0.2088404978428002,-1.135086172709336,-3.3893114828653994
-4.77475890248304,-12.717468872779495,-8.302221122047332,-9.799991320081006,-5.62267790970693,-3.43087820824396,-7.454054091613273,-12.151165154230547,-3.6639023626880913,-0.4494763976503861,3.525442752972797,-0.2018096094360508,-0.5361255015544479,-1.4614823996691233
-5.48505718791538,-6.824261856767122,-9.798990182837358,-13.441419257545649,-9.39135463595025,1.3599243576731368,-13.08800711534136,-19.557623223622464,-6.932349854486823,-2.9254394415572023,0.7818608086865098,-1.772778322678505,-0.3378574940902759,-0.3873133048915576
-5.542762239025855,0.091318739346464,-8.584520792342346,-16.536322849913667,-11.745863755207315,4.579250994952884,-14.977288021738875,-22.398334980866228,-8.054667102701504,-3.416521473513537,-3.693077348663479,-3.600536607449211,0.5872036577817887,2.547504582796108
-2.451026951434393,8.39318847296222,-3.546778693795084,-15.336705253896517,-9.667190591754682,11.669048905637856,-10.624195404905084,-18.257955688933663,-4.197232176096737,1.5043964129392968,-4.816606094931657,-3.516969352614989,4.001155705631382,6.864644444878937
4.584098904701534,13.957720298699735,4.622260967323523,-7.598390209802048,-2.3203455063599634,16.060825666369134,-1.556986186638504,-8.80818448517006,4.35410222701967,11.532238779297934,1.039846694472228,-0.3692657133100923,10.329166587029274,9.369124840617395
13.546738927986546,15.92979564326722,13.276303337970344,5.197804645317245,7.339968887585233,12.381996344679791,7.402813857226686,1.06321179298682,13.83064688387337,21.57655533811209,12.829608463588675,4.818840981383818,17.664618082888282,10.21561779650203
20.72454151867358,18.64036745364244,19.19566324675198,18.27055258970862,14.17905064143445,10.536245924539656,11.788125641470234,6.686094981471232,19.50058073141049,25.271698369366657,24.956364978343235,9.421258733782771,22.80903355298471,9.53868810520936
23.15734036547646,20.90661672472213,20.582415974326015,26.441216840916592,14.69894853486166,6.047869800888335,10.892004112151753,6.780007908256657,19.121703712655417,20.266051328715736,30.871396783890805,11.060679316762185,23.53081819722005,6.521453674024138
20.473421074828664,19.601960036233287,18.065827720323647,27.327067394912422,9.788068386225234,1.969968291932621,7.8629674325941075,3.766127908933278,14.417983251532512,10.3994929405489,27.413013599334533,9.211564222932276,20.03940772292238,4.633467042079569
14.805900894611264,14.906489276092042,13.89451776929932,22.434785748088004,3.8930776364626105,4.190775143235856,6.4778531857746255,1.1634215283153342,9.303752928779776,2.514482062320517,16.555108121055707,5.337960741586766,14.411789482976449,3.8108516470500464
9.137081241867786,8.974769357319342,10.107624395002222,15.564793178948833,1.319806386863644,4.547174892723871,7.707641869455664,0.556619902041195,6.467064775040264,0.7021566415488305,3.4882673210443755,1.659179920016472,8.700519450534426,2.553434824157512
5.531358731119911,1.1991326256236092,7.336509702223701,10.0922633921793,2.965457270329162,5.327741486718828,9.286124815733125,0.8038510350718617,5.393944026736289,3.2724974684521,-7.0111105305929975,-0.315838143820633,3.646440944534387,1.606820368768905
4.408071090793671,-2.0400291749774198,5.1038554493295685,7.279313453800592,6.232012453302689,6.147463025392537,8.440901704599238,-0.1399572141381537,3.5006627922410534,5.079249093350218,-12.93684026544604,-0.4372129196857131,-0.943165435276434,0.974169096696986
4.859304772950599,0.180601231610524,2.9211197725253766,6.454721476295449,7.794055382590269,3.6837435677373502,4.83548944886455,-2.882687526575774,-0.9321909947290912,2.650957390374015,-14.839697204925852,0.3939747712206793,-5.001171651922245,0.6569588242266386
5.337403186822357,0.2419003502967134,0.8492306597343529,6.189310462445886,6.391090873477765,2.177341836592281,0.7614314783357639,-6.061930309311196,-6.925942308786626,-2.9040670430338618,-14.177316900509284,0.9452798360419844,-7.794949674550226,0.5605352973287487
4.3293571698217495,-0.3505319120284083,-0.8920115987136867,5.197398840987658,3.2383895282105524,0.1794779398447771,-1.362768193521612,-7.839480380779871,-11.657223392171502,-7.635660412108681,-12.09103782894997,0.3134823869975154,-8.690478334586281,0.7111836603722037
1.129171303092134,-1.72483829551769,-2.4158012967914644,2.6471724279012925,0.2660340578020284,-0.9988932314585908,-1.335788945049682,-7.548278685253757,-12.843960727991515,-8.770889321249308,-9.231778827368306,-1.5645935048123842,-7.862148697330884,0.6636050514450393
-3.398417846865648,-5.132000757473427,-3.8957803466776912,-1.60346135122513,-1.6398053112833324,-0.2722814563237899,-0.8969680902633641,-5.749757679283485,-10.244706839453308,-6.75240231541612,-5.919370395101661,-3.6416981818862846,-5.839885425885287,0.3604506576080444
-6.841504042842985,-6.903068736196602,-4.897430169698815,-6.6585650513967,-2.7491527380335654,-0.6486880555090409,-1.3871849979131348,-3.0077553829979102,-5.199756590737778,-3.72715644683889,-2.051822841416689,-4.116667662149695,-2.528283641534585,1.3370558003721822
-6.723997981380219,-7.340584428340039,-4.489697875602051,-10.742075711443055,-3.376434131724384,0.5511688045254022,-2.154238639791437,0.8213207452340221,0.682436048816248,-0.8791040643704768,2.817361215078943,-1.6430996541938327,2.6247091325261955,3.594944853278982
-2.7394033635383157,-6.403896198670456,-2.448938800917088,-12.324790418060338,-3.1595368207871,1.4625824796133622,-1.5064885110403026,5.799085855209484,6.098322112782579,2.2006358398093298,8.694377879646698,3.266723738985128,8.977631300224154,5.922473481546793
2.3155827604254284,-3.288910342842132,-0.2275058993682464,-11.446601957921168,-1.5452588182188125,0.5533138507600321,1.0134483321335246,10.719696976154337,9.77482986724388,5.833013358451822,14.257422679675,8.004587787724507,13.565738456847658,8.624179721641198
4.382405227650963,-1.0944987536020407,-0.1033051405958431,-9.728796835879592,1.293698311166814,1.690916676674699,3.816366362993232,13.380778100640594,10.57271920910133,8.893892875410916,17.248231682892282,9.533661416875017,12.7145776509131,8.91200568138447
1.6712196550718943,0.3164636204558237,-2.805287151913035,-8.658369909566119,4.346416323107327,2.115933890221287,4.9790231916276255,12.506106734184115,8.551899811523533,9.818381100708097,16.43066011851162,6.913902711940413,5.749220569587635,6.332579118643467
-3.3321248473718725,0.3367397017095797,-6.017873934951503,-7.748145723147857,6.6162409115518415,1.1943931013180489,4.528087658768598,9.332348450089818,5.797961858491448,8.772883529189095,13.335378673644216,2.4177738356527385,-2.903704371932782,4.215789129323113
-5.719217394566627,-1.8509421648429385,-5.870963241715252,-4.744739635188964,7.89459108675775,2.308383927064305,4.535815292985163,6.844312903474034,5.365043265616492,8.01518301030417,11.530175305212154,-0.126785340081696,-6.313102414657031,1.87711512289352
-2.645058732108652,-0.2430535214415725,-0.6095352482145913,1.8725348816492229,8.532740924421546,2.4940463298188,6.688602580043934,7.071176910972099,8.580748450787993,9.4590548040739,13.39801776993646,1.3855659962165916,-0.9646228461284708,1.9322789091868369
3.643538372815229,5.148075557961395,7.010158298320675,10.463260286378931,8.547691927835785,1.5885933247617705,9.975364351492004,9.12014743410402,13.214786827164318,11.983752875524104,17.307977983891476,5.33919860353447,9.327541527760076,5.174078671800667
7.357842382768503,6.651804213252287,11.38195939967742,16.593767079997512,7.269408709371405,2.3237104679908818,11.275547360438424,10.103735004552632,14.815318409006409,11.825276247565448,18.338935818967315,7.659203791195608,15.7825267367974,4.679879300711639
4.197235856491417,5.119358369465504,8.779345630326134,16.346262258495422,4.142461490348765,0.8842312592377606,8.589595919151499,8.1886936046335,10.577899151570923,6.226731956113298,12.562979282320278,5.383374537216199,11.866445014515818,0.892120427871677
-4.67081556863198,0.1786926914552464,0.9202912486147952,9.700580917815143,-0.1289887994178542,-2.127217624755215,3.6466806391143294,4.729287308066908,2.3103935967376046,-3.219564449499813,1.2145939294138657,-0.6063624297461772,-0.934790543660803,-3.995159917331878
-13.378974222613252,-9.876993714245817,-6.148015958248706,0.8213719066090519,-3.520639648392411,-3.43448702691183,0.9450646246431732,3.258395370039814,-4.522984684443685,-11.20638823855488,-9.350503779752811,-6.175702892212328,-14.114022900695538,-11.410748455805434
-16.191611372824298,-12.623270013526389,-7.097699212449335,-5.098111477294097,-4.136422460391671,-4.805573866415548,3.7729558597671087,6.194742074870987,-5.170240090705747,-13.102129700622378,-12.430119233018305,-7.358225158621174,-19.11799458649828,-12.563879494815088
-12.022623761046418,-7.820005749122216,-1.8057861142764509,-5.638697723381142,-1.9354458330392816,-4.26103134754569,10.905052393280576,12.361075638388428,0.4020671196817815,-9.00117343505169,-6.63145753228175,-3.591866694923638,-14.086058424786271,-6.728294142820027
-4.763899828583462,-3.3623990844428686,4.763013581649176,-2.402007407507256,1.0165648099556537,-1.2055525788240369,17.23363721342249,17.62662374952607,7.429527518583626,-3.530381025647003,2.521584567821705,2.00271881169445,-4.594368606994216,-2.4203081970397804
0.4416872500298154,3.483304883823178,7.049321873427026,0.9575075331404364,2.2179491123805377,1.1202892520897303,17.919336781327665,18.07872094498486,10.242451645745554,-1.5997486410281496,6.6656037272185245,5.373816400749128,1.6663674531087054,2.2998458544950062
1.3274144300927233,5.160716704616658,3.5742386090056755,1.753425441651359,0.854446441420599,1.7230228449908238,12.32166615591914,12.93648169080246,6.693299929493612,-4.1393334862938005,1.1901169851545248,4.766430236807416,1.0604022276604042,3.281430026864033
-0.4699640907240976,0.2457806399212416,-2.3174457634994,-0.2627456658796419,-1.6473838736296926,0.8163016649189173,4.2070717876681485,4.848011580580383,-0.5785719541537304,-7.717573834205702,-10.982671220517004,1.6660309816251555,-4.237244825757379,-1.1539076218235205
-1.750509923867121,-2.880417433218475,-5.904709431714686,-3.627330307366925,-3.18235567233544,-1.2557828049327364,-1.7654854554590216,-2.3962063022950915,-6.76286867809263,-8.118245438971108,-21.49499391204764,-1.0533038095557643,-9.492385657958168,-2.8772185570273234
-0.7928395036328553,-6.162979173777463,-5.216859114004954,-6.678176128263615,-3.102519968908709,-4.174460771640081,-3.927827513558277,-6.630680848244765,-8.799715714501282,-4.322267584355188,-22.86935427983264,-1.7952807206993595,-11.80727110448833,-3.085027250546562
1.6056574628009983,-6.345606600047121,-2.1556266550097973,-8.3045904202745,-2.8034479505731227,-5.588679395455823,-4.428603665077645,-8.386773952877427,-7.32113917307305,0.7020700761820606,-14.090404834799912,-1.2849893722017285,-11.63208587031626,-3.594522144545592
3.448618970812049,-1.9151186025734812,-0.1414633841923631,-7.827925577850721,-4.189031080004845,-6.15671804056268,-6.629794619842357,-9.755317742557692,-5.453817049211423,2.7475704882720398,-1.2086683608420188,-1.3506350318495066,-10.909141249862962,-3.070286908691501
3.4672842162581787,2.352619342234952,-0.9853353601267472,-4.98062727926996,-7.561164551829684,-7.755033358394955,-11.801284088418932,-12.30850627633815,-6.024790547757547,-0.1714318039642819,7.283799533021217,-2.9472053212821905,-10.590090878847796,-3.422659596014417
1.8741988625173107,7.653720774992434,-3.852439459976658,-0.4328916182631204,-11.027557521493428,-8.389995983431543,-18.11417148243252,-15.842793641873229,-9.613799747927295,-6.657427680924322,6.542089919297091,-5.366902708076196,-10.13640919224946,-4.6518316114763065
-0.285440535889883,9.47673873125278,-6.689152174427193,3.919592478164049,-12.00480506575714,-9.33081665724663,-22.46214673798865,-18.77249336500552,-14.650000343591088,-13.542629334402278,-1.7362664845879578,-7.139678166979401,-8.943863817654758,-5.89278298227366
-2.135693072586747,6.768338044188711,-8.200173564889006,5.852340310232023,-9.410399863189769,-11.02420020281469,-23.077066404578296,-19.622013874634057,-18.91409232111274,-18.298874753678906,-11.498972791751363,-7.472858895198208,-7.625576092552642,-7.531455396839791
-3.380407789206899,3.744133445781911,-8.529771202034745,4.4931574649258685,-4.621382979780769,-11.527116911197488,-20.613455619760707,-18.329511605439755,-21.022584091264065,-20.1644652794078,-17.437063270958284,-6.828739637385894,-7.66723942433142,-9.7097471902469
-4.1137464494306215,-0.9742090705751444,-8.574341908891142,1.1292498696602389,-0.5256609999658046,-12.399138464976122,-17.196441275207185,-16.375378974227736,-20.991327384253665,-19.7066063072394,-18.739419764940884,-6.349721375347102,-10.018587475916306,-12.419546481783383
-4.57475441719167,-2.50145238749517,-9.091367474263492,-1.935413197267593,0.4093831026606658,-12.562456112423591,-14.723990511310507,-15.686095971636377,-19.877344034656574,-17.97960950782945,-18.69037536500114,-6.915521191168935,-14.233272307202729,-13.450420730425616
-5.104943299999636,0.014157815212647,-10.37107045798994,-3.4844003058991184,-2.378078539125162,-10.685276514911491,-13.869577136140007,-17.135489658816365,-18.960287178652923,-16.148501235376912,-20.900619112124836,-8.640540149519943,-18.89006140429653,-12.627809604156564
-6.077364512218139,1.2790755654598105,-12.217565553259284,-4.234184897987642,-7.290773560797227,-8.473788829176394,-14.127799765217766,-19.749727054361205,-18.93288823139769,-15.295482499897416,-25.68730610695112,-10.934691589744112,-22.573309862581528,-12.8944576543072
-7.593620699870826,2.5422675858197383,-13.84481413790438,-5.455294820171083,-11.477872495796824,-5.138746498162444,-14.378196765049395,-21.27561649837002,-19.499779999160182,-15.850211782624635,-29.76863492418361,-12.830611009923956,-24.389806743828387,-13.83278853474421
-9.21109948846696,1.7147325185556788,-13.991864966649954,-6.953477044796749,-12.398468870223214,-3.3232322578406706,-13.528084386959604,-19.82194127211922,-19.66647375197779,-16.991463322042158,-29.413421078487097,-13.418624446359818,-23.916742423889275,-13.493311218284187
-10.136185345075097,-2.15313192376406,-11.763545093299776,-6.918685544113064,-9.358674598118458,-4.163048723579058,-11.173844111604463,-15.405783965831333,-18.60154374846284,-17.004517742137754,-24.105488718300457,-12.364638662958177,-21.187188195175125,-12.255307033899223
-9.855342562316876,-4.632987062702305,-7.768075168239124,-4.129741621598807,-4.150347623870532,-4.68828990907662,-8.084303432853543,-10.125341013362732,-16.398985633825234,-14.750447220910791,-17.30183346034412,-10.237827392575884,-16.922315515402683,-9.0419282108444
-8.584914974755119,-6.339611043902269,-4.211997144220463,-0.1247329588914993,-0.0889875297528481,-6.817129597588685,-5.934342885223432,-6.638578519072746,-13.971021760545195,-10.915792182587316,-13.439331916009726,-8.187689791630703,-12.435526292023717,-3.392150081399825
-7.001397583275621,-8.087997775623977,-3.2541875823774578,1.4364984674675854,0.2768782842357071,-7.07882246137294,-6.022343706535475,-6.052603508276365,-12.044392539602695,-7.535206842166509,-13.787544223298989,-6.976593681797809,-8.776322139111334,-0.3826951822831466
-5.498905464687987,-9.113154226723228,-4.846520328557773,-1.890405074312513,-2.786085168409259,-4.011303663183222,-7.800587650849126,-6.998569667929125,-10.223808955052458,-5.9943626158748,-14.993870133533456,-6.188833085412565,-5.767125802053176,0.0116818192892244
-3.8377044023386455,-10.509947813986926,-6.345410539463398,-8.567561661145792,-6.229252086832773,-2.4507826957401475,-8.746929366265121,-6.79927588082807,-7.227922242541534,-5.535300931655809,-11.944449902551668,-4.557035070699136,-2.167896019883705,2.469368972518305
-1.6893936260040316,-12.21185164399092,-4.779167444332276,-13.989554076856368,-6.675330782434833,0.9930109942462162,-6.24445448184433,-3.836739948233728,-2.322759081585992,-3.993096476546005,-2.6716853863827525,-1.3332865139968488,2.7874907495104937,6.0823091955466895
0.4687551821073814,-12.308657499530677,0.0983316412665518,-14.56122067105506,-3.4210857043213823,3.6367159672296414,-0.1766784883766963,0.8979316448767154,3.3530440714655523,-0.1721962171270128,9.0576132313688,2.575293477116058,7.919976364189331,7.652520942774278
1.2310941806129083,-10.83798066284516,5.029023469536195,-11.024322778495794,0.6889429021586642,1.8024073297081835,6.1822461952578855,4.440274318648079,7.046280760653009,4.598154839179609,16.083276172383282,4.9845820839403,10.49202013374077,7.647486944201849
-0.635040337863134,-11.37527534997223,5.8805123883649895,-7.629777997872814,1.552205233514968,1.6384003837140846,8.27219880288327,4.177433299766332,6.379823328134881,7.481279043166795,13.488942197642132,4.210233510873717,8.527086557803244,3.3610680751581485
-4.736678338304035,-13.770698221882126,1.4830897531912637,-7.82592127710473,-2.498566081600954,0.5384448401448347,3.998278700453543,-0.0099400422022526,1.580200358956148,6.858275637342764,2.900006355581949,0.6954723514752796,3.0082629097222764,-6.158219242229636
-8.708864953920633,-12.437431892332413,-4.900807048001994,-10.660661896155254,-8.772063359008635,-0.4414416154656725,-3.976510334261453,-5.40217628780605,-3.967626473562195,4.129439515012173,-8.219108885720273,-3.036367077606437,-2.27476571747669,-8.39949010754034
-9.56065610900148,-7.7204433720544285,-7.964140402591115,-11.47718081328863,-11.891205451396711,4.909314892442198,-9.595428190175538,-8.029524081818733,-5.514560851367083,2.84234587733237,-11.78257288196982,-4.143847396596033,-3.30453493047375,-3.355847919198067
-5.759570238123009,1.5990439745651286,-4.5351187660923,-6.310577361389591,-7.887558167124183,10.407777530144884,-7.667217762974339,-5.012557823088429,0.058873481757864,5.933221777312063,-4.652529958594361,-1.4762156914634446,1.3996724304050367,4.126551989671443
1.6225801548163972,17.0250450266739,4.086244196971851,4.187758263859678,2.534797552270824,15.864007004290473,2.235220165807494,3.7883188612983463,12.120124105290888,13.484916900319831,9.682969744953455,3.778666913624552,10.153418939846151,17.021301462538815
9.599927031854763,22.787114798266774,13.444277265261269,14.988165766069075,14.220022433526776,20.832046795919204,15.322504842445738,15.629114118035265,26.472462520251195,22.72253379715846,24.17739246621185,9.170167553919438,19.782037666946167,21.80911192498403
15.188784247585922,18.446052517062487,19.40754858828147,20.80191068950935,21.15587115720753,18.70881556799238,24.92906815866489,26.20983160102864,37.68099251627636,29.94003178049852,33.14079856686082,12.738849703089056,27.71400535026061,17.43419009186735
17.06992540530184,13.32893012987404,20.71501110455223,20.231670091546714,20.662427729276907,14.833736458275116,26.983867825906632,31.773129652029866,41.98145042674987,32.66789035986021,35.121646493801805,14.026617428663108,32.69697174474804,13.012209506037154
15.914059056592857,3.787168329268172,18.818669038416942,16.277276619744743,14.947298466791697,11.167935027719562,22.1918155860396,30.89996463290916,38.96815575634004,30.63208912173365,32.13495475464936,13.74506691541128,34.17052329299236,5.220748336484145
13.429955298770995,0.4170832656166936,15.879869181776415,13.07592647705781,8.93148346956973,6.999321558040287,14.564689834231633,25.01128051256142,31.21140841924223,25.281299497599967,26.823156469035908,12.688867109603647,31.70765537779484,1.733777680888461
11.06253507781419,4.826700788220188,13.097960203402824,12.18326170362478,6.248958578785508,6.311054791888235,7.963635636620793,17.297775168892684,22.36702348616348,18.65192713294365,20.478861044449022,11.002770824786705,25.45499004159559,3.956830094710684
9.293580791987427,5.140517602018571,10.623730173475536,11.823254870906643,6.737968079152203,6.103634936027513,3.6881995869682633,10.832840688157576,15.212050105714518,12.469045081189956,13.45630952483832,8.407599117902091,16.977600487194096,3.587722671030673
7.857396809199038,3.8602071612976254,8.474813463740777,9.46347394358622,7.374405696914557,4.186660833927556,0.8145408258049756,7.17435347774185,10.80783082063051,7.871905594920332,6.908886129370842,5.004893366353755,9.219251773676175,2.5750448865212103
6.453364505402757,2.3388323544678244,7.070333770829471,4.898121084017216,5.572686892702066,2.8920541754524285,-1.661624142109531,6.260498022263768,8.945228729424219,5.57274290064737,3.483368146757776,1.7414883779113346,5.161355158635505,2.012975243531977
5.229916610567511,-1.1174524884355217,6.796132751613236,0.7350633627284964,1.7384428104215497,2.0746685913997536,-3.2882676971480365,7.2744104854353395,9.064132319401772,6.000354445520966,5.734496342683915,-0.0037934401731014,6.11678688414619,0.8594216505502597
4.600349940725664,-1.9073515560929684,7.276335944094701,-0.1274323081279149,-1.251480997900824,0.7187162384315048,-2.703106515348196,9.456295224837596,10.707848944705244,9.126074451934496,13.4787142775462,0.6314245813801058,10.957003377201977,3.2731488293600464
4.602436207991886,-0.0283727472261057,7.351870003481199,2.4907888748165306,-1.0296289992389518,0.4969178722263621,0.5063208368877525,12.197008988469126,13.26155638941506,14.054736151092431,22.718305357822327,3.34407478469414,16.72760472349976,9.484695117725758
4.491248173809314,0.4098330802792735,5.937127313357323,5.498479866920562,1.7755380386756343,1.2691936920725344,4.707674245206967,14.66891628116932,15.527666359198696,18.806833285475395,27.68282208584318,6.821764967433257,20.10944609209324,12.216294502324274
3.108541424414131,0.1995045284877832,2.949987040685425,5.022043284124383,4.006109812927612,0.5777458402533046,7.170501873542737,15.735304632962986,15.879923747341856,20.757504743590516,24.796878446263804,9.482034519272702,18.92064493425078,11.969895641030922
-0.1411732474598821,-1.268420458187424,-0.5774746846861767,-0.2676319319469193,2.9816490929142745,0.7225664595369382,6.314956909378527,14.49766111503752,13.1805328096389,17.842802045394414,15.462565192109402,10.21660017121875,13.163471549034018,8.653580834512427
-4.5255816696767575,-4.7584037516046696,-3.285531776680497,-7.887883973021898,-0.8453179375386348,2.189776767475288,3.2512443423276203,11.087326927622447,7.841646176488517,10.038133388030609,5.285394575732045,8.797145458260463,5.298533378100849,0.5116446637466527
-8.180549256690057,-4.407308492362022,-4.421800685961006,-13.365303550581954,-4.158288349514411,2.3211856904506742,1.1827326661237336,6.957954896154512,2.070266066464793,0.117163482507383,0.219513211864097,5.947147724601283,-0.6267791793092385,-2.656507464036044
-9.232310109095064,-0.1821733584880067,-4.140060347763146,-13.559080038442074,-3.751596692561243,4.559092827987772,3.0494114670376327,4.261138711986792,-1.2046874949616535,-7.2328108664259965,2.5892233092098387,3.107279408159968,-1.0501397692750647,-0.8462597555289029
-7.022397531485728,6.177365482875462,-3.073367802549992,-8.791029925668976,0.56212082325845,8.199338800509476,9.218970241601149,4.557119733354501,-0.2302773901825787,-7.9727958702327,9.919881969509856,1.7968144057087478,4.736840965569122,2.829528883659021
-2.545581314601918,16.121868616774304,-1.7587075551840226,-2.257532453144604,5.78445980890757,10.210331219811644,16.97399676082746,7.622576779760234,4.11949183477358,-1.6109619288169768,17.11846326028529,2.6716154747870604,13.60825840789684,10.723357579348876
2.128494900296115,17.90009900202761,-0.4914574079163181,2.526141446155396,8.38615873894559,11.720951194402362,22.16701817688973,11.184799109625637,8.500485889830998,7.713550666835285,19.96156719299567,4.8638747526770985,20.14731881983413,11.72812536188899
4.950890787978512,10.642925582424525,0.3907252531569991,4.04564437946139,7.287765586960436,9.113362491668694,21.84827656394809,11.97000804402553,8.97311126075368,13.315731674499917,17.2121496862044,6.310847562790462,19.975599722697645,5.168592161960393
4.8128869791879065,2.159753025529596,0.3065744641352754,3.1347125455474,4.486529470376908,3.4316468515619274,16.04278352201829,7.654602946818461,3.451145231396609,10.278589791264428,10.242938180988633,5.107345081844304,12.49668734739982,-1.8975076052078648
1.9247564881596373,-10.473541930208771,-1.2589849310084649,1.46348638077305,2.9187933477820422,-1.9362310011508128,7.540736332148791,-1.4366166572494563,-6.900198511510137,-1.020110111305886,1.175295613443723,0.951744116865182,0.9774597388540212,-12.138764228927052
-2.329393288110067,-14.006551900188562,-4.093874089937943,-0.1470587709511228,3.6859869767287847,-6.264202258733461,-9.827808852058697e-06,-12.129736034994444,-18.242310225361223,-15.002155846322932,-8.57432584370651,-4.494252851619475,-9.948707293514389,-14.795783645818013
-5.921570525547901,-6.5907201359756415,-6.900925214670828,-1.970530940848956,5.234184840622351,-6.594131902467224,-4.218699286737999,-20.08422900513548,-26.20725436080684,-24.72363822785909,-18.28230577921101,-8.675007795810874,-17.192467412033498,-8.33277540486157
-6.976742292552101,-0.3729936842790815,-7.780336412563548,-4.158668638704043,5.125161553796394,-5.343027555594247,-5.040140233842404,-22.39222038042873,-28.222881593724416,-26.49664438384698,-26.91878554832141,-9.80720024121782,-20.30347688603108,-3.271560593209073
-4.623158287041431,8.035966025672606,-5.403158629957455,-5.604069031562778,2.5741414967732545,-4.68039845430472,-4.054001377306928,-19.320867496661485,-24.64269832826796,-21.7111204272972,-32.48096787613413,-7.8890190013151,-20.4082118656666,3.0785338745848208
0.516216611388927,11.85815572327989,-0.0508914294751496,-4.387802606032209,-0.7189807074688543,-3.8753637973201913,-3.0358204367136903,-13.926697853174485,-18.147413714431,-14.743639509320964,-32.560535294707634,-4.441207012896114,-18.52839944662192,5.935537074816336
6.589156757498977,9.003912268434712,6.345455799457116,0.3550457564538067,-2.19266286405703,-4.31702809463208,-2.8028263730024854,-9.81535977832658,-11.934312876954175,-9.150939375680936,-25.897337637807645,-1.3739993375218833,-14.93734901354081,3.4586116500397512
11.50908229088862,8.75206570660526,11.324842072551432,6.977201283629828,-0.8625635069038244,-4.80582984098106,-3.081758592992482,-8.720230034800483,-7.877868481663636,-5.481302254974281,-13.780898508233804,0.125324006327733,-9.762793657624604,4.001810104094266
14.071468125270696,9.118980169496018,13.40361395872133,11.984811655743975,1.7828450975506156,-3.8948649699088698,-3.183713145671739,-9.695693875086729,-5.81086493214266,-2.1646413053445914,-0.1541307573205468,0.0297535975588671,-3.760888608962156,6.156439732435272
