AF3,F7,F3,FC5,T7,P7,O1,O2,P8,T8,FC6,F4,F8,AF4
-1.67626817346133,-0.53637304010741,2.3458999521179003,1.0262486498270391,10.017508874965396,1.6416425811962982,5.1485997867108,2.737441617753888,6.545498034482836,10.706238402962631,6.795004363110365,2.449907605141327,7.921300582145428,3.749616105243034
-0.158478968959144,1.4451985610350595,2.260762938084614,3.748233826982787,8.503485109281408,0.5713897771002204,3.724257187924177,4.631390948830738,6.568823200255817,11.097319810420382,0.7457650319118224,1.3673386300326025,2.014217794891843,1.701549707933492
1.5331896759818833,3.474796143209929,0.4955989296830339,5.316382055539854,5.275646275598527,-0.6623405854715906,1.8520807663522696,5.230386058397205,6.240732653407992,10.332510722849795,-6.2384630836036665,-0.1582362715306509,-4.982918092799007,0.1787462373929741
2.1349319674687046,4.828691190411618,-1.0205362846724633,5.086150559200043,3.679575804374245,-1.4819295822520948,0.7866397611179927,4.8781707354334,6.561139195368448,9.640679150210708,-8.509152153741892,-0.6409570170559178,-7.660909258301342,-0.9456949272234888
1.4061650540114563,5.162344285693333,-0.7670285544578022,3.685298647949807,4.246348084522697,-0.6635274485491851,0.9766423237144471,4.376527028245377,7.128780144665896,9.348957068142488,-4.009887435210677,0.2483856525198398,-3.297962651625056,0.2093301271047642
0.2146127076944153,4.5759390982777965,1.125017631885921,2.328675334378289,3.466514685125436,-0.1486338749908655,1.821963864061672,4.578296966857021,6.922983371777395,6.242218742356895,-1.076433814693342,1.7021433932549357,-0.280916396293475,-1.0414782966675873
-0.2849268486063522,3.429966998651373,3.189905447938692,1.844358090350532,2.146863221950784,0.5383433178075984,2.2616860811489907,5.987319666717724,5.732133830694867,0.4533294889063495,1.629925345387653,2.7150968970696177,1.8319505464465464,-2.686500163354814
-0.2003158493076553,2.074829935797748,3.94616900827312,2.169622622172561,1.2045826334369771,1.1314820102747178,1.6191631421614758,8.468900464768396,4.611621590565239,-2.264977551437709,3.112358791936101,2.946838944158774,2.216651967115673,-2.620090110399475
-0.0835729117068246,0.6800814678912523,2.925766465832133,2.5597632998681377,0.2334210421786008,0.1738143345118802,0.0685712790113441,11.18745828252682,4.831880388019179,-2.1323391761191144,1.3582334965349203,2.7658414610198427,-0.6892315897601944,-2.2611472390314167
-0.3741066374113494,-0.7752959817539953,0.6995769946482575,2.2130500713086008,0.2560122161303803,-1.0572180054928637,-1.5114147810943876,12.91102196160939,6.434401667123016,-3.3322648513954345,1.8699900224279813,2.6392903647693053,-1.3002813059372786,-0.9131903477574794
-2.249448224692984,-2.3901066654367185,-1.7653491492229634,0.8358983618212683,1.4405182760431918,-2.721545971893108,-2.112392267830632,12.664889973893713,7.979561985149935,-4.799527638119248,2.785802379660156,2.6109781959375624,-1.0435548237544483,0.0182386066896058
-3.5487783515597084,-4.138143816562966,-3.67035192848558,-1.168064537503625,1.9886615529341904,-3.594321480099901,-1.2291749899027664,10.39403364531946,7.838225886513275,-5.850720656468444,1.8527543142821028,2.350424315383272,-0.8472030884565902,-0.0180157524176465
-2.234527095654256,-5.634867023544743,-4.54129277812207,-2.930502526354399,2.0796529732251607,-2.1630479019097484,0.7962132581393853,7.114380058784324,5.745716935451782,-6.992528459588412,1.2176819823107508,1.5855099390882472,1.0263087081333175,0.4817200074085265
-0.2377799544247972,-6.081096642268587,-4.195108760318462,-3.608711731576367,2.2774658140847257,-0.1311527425674681,2.9288310544480254,4.295274032664846,3.035141497028743,-3.9560777093259474,-0.9352237082022116,0.4123853634155168,0.619249419254668,0.5288303288302332
3.405640383489398,-4.650618180097226,-2.7860199916484447,-2.8631282765576422,2.2452557832981213,2.6776415994087213,4.045728652100227,2.8217933061091465,1.314553244465106,3.649911235189892,-3.489331249817876,-0.7637194743175293,0.1866927148908548,0.9443066760979182
5.500537549732648,-1.275558425684629,-0.8623512756011706,-1.0567975497427256,2.261866617767198,4.342736258121088,3.6314176990731006,2.3248657565073145,0.935845522032956,6.913476064254262,-3.1330612284951216,-1.5032309662259389,0.7797802345415735,1.3761444078985643
2.856259436067992,2.766880620699073,0.8052224210747383,0.9475826665170182,2.3304577167211136,3.1458864864116265,2.069642686347464,1.4769368709124393,0.7811308846691247,6.315571438326644,-1.7144533506601043,-1.5827671853438403,-0.3448489377153151,0.4822535654224267
-0.2670280394217291,5.230409266115654,1.6268934030059228,2.281498503436847,2.232843081790257,1.7544115913875074,0.2943224986615966,-0.8961794378199386,-0.479170327171861,3.0671503956318995,-1.0220162788762202,-1.1353306614291654,-0.2445770668732078,0.6393268740326121
-4.673590233658411,4.332560308743901,1.5182057286006874,2.5517163509947167,2.011152862842537,-0.1500106163211245,-0.9160800561057664,-4.734689663791972,-2.962341046132224,-4.916742333451516,-0.383980544108458,-0.6561344158809739,-1.057653924306412,0.6590351586695063
-7.1874139330206095,0.25869206265995,0.8661642228924684,2.008163539280595,1.149036711822801,-1.7756735797158527,-1.399091144016957,-8.573143237409724,-5.369644701763001,-8.04602795011119,-0.5435374135607309,-0.7735610987462955,-2.5633491257666168,0.1335035948225008
-4.332632709185656,-4.641740455200917,0.2123365524086828,1.3118240287337422,-0.4437330758553938,-1.3387700864107257,-1.4565526606936403,-10.459300676321902,-6.111902884888966,-6.160622741828581,-1.0926647760976562,-1.7602591625925896,-2.0224408308700466,-0.0819143869548633
-1.2360841188331506,-7.410230710553016,-0.0207287313454322,1.0808808902661688,-2.288451014127271,-1.0950085215183198,-1.331709481155542,-9.290617440541276,-4.621378694646195,-3.8511265116340847,0.6121149402900671,-3.0856070296638407,-1.2377407169272083,-0.8017359067105264
2.5871076158859254,-6.6486760151307,0.4291476816059703,1.5206269733117157,-4.530322923014429,-1.0745636428417462,-0.9194428547988984,-5.5839016044762815,-1.685581392352134,1.0976113582555629,2.747669366096198,-3.5125988572879816,1.1480426264630776,-0.6348096578665299
5.242224187988383,-3.4609781912508293,1.7184548352979423,2.354903726461764,-5.102661207610794,-0.1432007836980653,-0.0241334202207852,-1.1445769477983987,1.3147073943774927,3.4248626393686563,2.806506411037511,-1.8930892755479665,3.259429209101477,0.0711697117855626
4.154465578619218,-0.3290096610039761,3.8114939113917625,3.069464855912816,-3.7453151979161463,0.5226432171721881,1.1826151002716845,2.0812476367686443,3.42685535052248,2.57112600883212,1.8030478181279157,1.879375255660028,3.096042142073285,0.3961061530810114
4.225250562501282,1.0446703651997362,6.2606512876342695,3.291639260411385,-1.7932522917853193,0.6372448260542136,2.1439961076930043,3.145181489750388,4.560027684052011,3.7937577541170096,0.3268754175241913,6.607866165880253,3.301386042486188,0.5878020687251637
5.511698180264743,0.9551289757554572,8.154231423136004,3.051654756386567,1.3380028104209567,1.1203509200243322,2.5024624357013217,2.4866671969702407,5.190430792942086,5.939827599062644,-0.4722660857406467,10.539141909093289,2.91407162620328,-0.204643158524953
5.3252662430201045,0.9494739498944664,8.482068851520678,2.737286916960194,3.275078663988496,0.5986170422612174,2.6713675175852654,1.4039572563999396,5.789153096149493,6.784226261140475,0.6186464693672986,12.515874241888358,1.8128927057831348,-0.8051558305289432
3.610582823092177,2.0095165610928065,6.781647814356202,2.750713216803387,3.744220451635165,-0.9922825535513162,3.6078509101278886,1.0425744057208777,6.44006217196392,6.890554901019804,1.8431925305223744,12.54906578141162,1.202878560828723,-0.0568442411916442
-0.3134456210937401,3.533836074698094,3.574985216738344,3.123929683967888,3.424298527985128,-0.3636527569497182,5.775622379616078,1.604498329068817,6.7892077145473335,3.91026504374114,1.2177901934887914,11.398873041127697,-0.5732920016914682,0.5522996614332605
-7.26063577077815,4.075060166193241,0.1792514438036896,3.4460391809482545,1.589655068974682,0.3875503899585272,8.278485729858193,2.2933736390957438,6.2458319458999565,-2.754644507942308,-0.8735897700817539,9.699223332191286,-2.944522148592194,1.4797057530002171
-11.234755198268468,2.9568993435344124,-2.0570817691934344,3.2301881893663125,-0.2908940510418655,0.359191705431211,9.226777073354194,2.003988723018334,4.335383644593543,-6.88203590316162,-3.2805469871931834,7.519431872755881,-3.782876276629272,1.4651318869422272
-9.047743460903122,1.037258649217287,-2.571211288356792,2.418423981187457,-2.302037797857833,0.6793362977105015,7.280048915647147,0.2435046447628739,1.0800406666023488,-8.805910134147037,-4.43610941241927,4.704953009934259,-3.667539459970558,-0.7173276580692607
-5.697060346919168,-0.1571260736827165,-1.8639149313002012,1.4936691214123607,-3.2778380302218117,-1.358261118824085,3.021205521105815,-2.4209618294525077,-2.8264575467516164,-10.090147346284574,-3.550718682586658,1.493405602633963,-3.888178331850453,-2.5496608464058723
-0.2784191607290305,0.0228035475795154,-1.0425325470157207,0.9823488319511396,-2.767615570870356,-3.0799672471393738,-1.2542125466524023,-4.766316354843913,-6.276751505988022,-9.366945325948135,-2.5201233846286435,-1.3551712265354492,-4.451261301978699,-5.12434066151039
4.091890313394128,0.7480602143319932,-0.9727392934311636,0.7883210901364011,-2.749074939442365,-2.2592684439029043,-3.343993565806934,-5.873719175491392,-8.379978732311695,-9.437808512288283,-1.3088266106846058,-3.108765105586049,-4.275744391304159,-5.939325586944782
3.4513732329947318,0.6568387420230384,-1.6719347903086172,0.117165810800488,-2.8453225466313024,-0.3354398695762077,-2.954277199228401,-5.844916838693536,-9.025530873213611,-10.265397873077536,0.5452809370093917,-3.7234879386906856,-2.25107943919786,-2.504151333466519
2.16714893385179,-0.6640907178549607,-2.391433268164274,-1.7391553004055251,-4.138238319633954,1.5829081385502106,-1.7904838844909432,-5.623728455205683,-8.887212784587597,-9.896464894418232,0.4644335732728152,-3.88709530728431,0.8338391262910672,-0.0049561864782636
0.9714048513115408,-2.1786338132067704,-2.309445708859693,-4.422545651089354,-7.05870738903175,1.660628720530128,-1.7761312059174963,-6.031380437487988,-8.796683049510225,-8.83222567281126,1.7680928188713518,-4.343872552722462,5.441252746592663,3.840951411639515
-0.022341529983051,-2.347696244628133,-1.2727074054098626,-6.4024299272176695,-7.823154753243704,0.248490994736852,-3.096346654656121,-6.870686170398917,-8.978451437086651,-6.916275368977289,3.8075205474276874,-5.155332036193695,8.096057085818591,6.8263920951708
1.3821599652460397,-0.5397690627452825,0.0305103722806476,-6.112684897974387,-6.574264311247861,-0.8426518889994231,-4.019175656815253,-6.968681272699701,-8.816989696751426,-3.8683113862763663,3.534663085020308,-5.657727740591314,6.334779096432661,4.824398591563956
4.544063481327416,2.4437350677797856,0.6294090650170201,-3.450294303156236,-4.857527647382652,0.1417624198270629,-2.76227599063502,-5.216350749186332,-7.414252601734716,-2.068796855564801,5.041817681660692,-5.195947476033059,4.743794470289885,4.396394575257929
7.014934714356289,5.097464345866677,0.0962111669742755,-0.2054512133435571,-1.8710390006221904,3.6282526224295153,0.3724465500057228,-1.722144412762428,-4.512501556061697,-1.5820381773158343,5.003574810802268,-3.912469841191929,2.17008772690821,3.392807290414334
6.753125879860386,6.360726421574175,-1.090171047410995,1.1714847761468752,-1.2039660075416525,5.961593571400622,2.75673410952625,1.9894237463221245,-0.9873705132081936,-1.4279822665816635,2.262944138907084,-2.7796580718346666,-0.6911560639900245,1.0405193546664555
3.2274001471692646,6.129060598180413,-1.9915602159768275,-0.4698989709231025,-3.2088314614293867,4.281232748253446,1.520885639280987,4.002705259610157,1.5953549983159352,-2.197813284118233,0.2215453567608344,-2.7956832229101947,-1.2489917992423187,0.524704570746359
-2.0520312399453227,4.8954252761532215,-2.0901198539924994,-3.998336168296509,-4.444396757571761,0.2923419876750495,-3.8277086501068176,3.432882905034946,2.0979718680664625,-0.8959733697174279,-2.2014879535332894,-4.101740490620801,-2.074863498133168,-1.3594648562419025
-7.160914010036709,3.15301701332976,-1.795254028586344,-6.907763921641591,-5.728224283593333,-5.645030013222808,-10.63865864137741,1.03856875758376,0.7140123841232366,2.7208804106433773,-3.694825258524412,-5.870668973661953,-2.968854217723357,-3.979618491284632
-8.283645638911032,1.21224835252354,-2.078334806695354,-7.353558797287683,-5.670794652485241,-9.11253417668016,-14.951090336043263,-1.468476325166538,-1.152639801429526,3.313856144170879,-3.3158720083985527,-7.064145490269806,-2.522300888400938,-4.89036038587203
-5.183968566579061,-0.584758796962487,-3.5250345829064305,-5.559089460324251,-3.64550380412879,-6.336584303281169,-14.357435936595223,-2.7572524414566537,-2.0207175069727423,1.2859649815508012,-3.000227152801205,-7.311768644013061,-2.039811239464468,-4.523628385489503
-3.037823996917543,-1.769734222237224,-5.65375479631384,-3.4202022124045444,-2.9783912310989886,-1.7465166284107383,-9.51068960421225,-2.6752962981687087,-1.5567756310196206,-1.5478710949057115,-4.196406806833973,-7.0744549695948855,-3.0519603552279357,-3.6203682189756985
-1.73870263361242,-2.066593099811712,-7.144276796624411,-2.7557901280513883,-3.301958773197502,4.0365164643204405,-3.2355074400148176,-1.912650378105985,-0.8071203207710678,-6.25861129708594,-6.452917090225638,-6.982120757816705,-4.106448941462432,-2.1861216663675136
-1.160090278768576,-1.7935260997864209,-6.82452411396707,-3.8051936476202983,-3.372841225881644,7.5867715701126945,1.683456491231012,-1.030266864832459,-1.1738329241296697,-6.504123306527818,-6.788947978625313,-7.043626372574854,-4.0453683202695,-0.7099208499774904
-1.5677657615846552,-1.7758673880974296,-4.593346242039666,-5.249055866048739,-3.758374158030697,4.91092411807074,4.089350967873871,0.1067552522441257,-3.002399462853356,-1.7143538996777543,-3.777259740840317,-6.525305871954905,-2.4451533001689114,0.2533620790140896
1.2780734446869797,-2.656924320280483,-1.5137967321297854,-5.589796191642574,-2.4498465627920583,0.8044335837051768,4.437518958265708,1.9664722810906952,-5.049877841225451,0.9747007572521036,1.246003114249738,-4.625277812452609,1.590462361741743,1.3471493109612482
6.257895997526799,-4.186759072932954,0.971042340445864,-4.537491262982414,0.8018926150804172,-3.701410916148145,3.780021650730464,4.528031954265565,-5.3595366264175,2.884839213201128,8.28474327106613,-1.307228333236087,6.316285139512065,3.583396545258302
7.678524661555346,-5.24411172593199,2.0240747726202777,-3.158229959851812,1.954628483518697,-6.449622256848195,2.9422316707307195,6.928911104993138,-2.8420636923726743,3.6453184380379,11.323784614039871,2.4825744005337755,7.4291996172464,4.470555916700891
5.028924616235468,-4.738455569735633,1.820836800882112,-2.761979953456972,1.2722077995959022,-3.931457646535721,2.3810288517953992,7.996237553181976,1.7374146564608337,1.9947380736925735,7.621949780546503,5.4181424681471455,4.325590805565638,2.997933994547177
0.8916612741260981,-2.6830276027565816,1.1479019912127422,-3.64272370439792,-0.2809621612114799,0.4187065507590845,2.313405203395911,7.170238388018487,6.144661090942736,3.5071665396531904,3.932646435932967,6.691131634202928,0.622588475884472,1.8877052281963516
-4.452575154936849,-0.4435881256130694,0.647461140156186,-4.81719618229105,-3.5784650266289835,4.710385526049941,2.6530946355679106,4.959578257459978,8.105663989697259,7.993654913820031,-1.1676692506881032,6.456434964919419,-3.08778907655006,-0.9798744210543062
-5.888864267974241,0.2080647121154237,0.3815640340951258,-4.907865988212525,-3.9066640903247376,6.5964217470735695,2.911076042373775,2.5557578949155557,6.723587708958801,10.114301913020954,-4.621441646882283,5.521701619719893,-4.020598579093522,-3.2982101359877323
-1.903781438286252,-1.435761247215095,0.0121509752214246,-3.296167182922113,-0.9957309944035364,3.733487137126644,2.4916795629991584,1.0128602838227936,2.956778090281557,10.718513780021867,-2.640133392925481,4.643714449702782,-1.411188242632113,-2.2921887460013077
0.1495068615412816,-4.2460510323385945,-0.6754449582250777,-0.5506704448141289,0.7599463607247328,-1.0546903562069914,1.2998677866314408,0.6881768688794225,-1.0573433018527871,9.34293898517982,-2.2680440817972274,4.076386560268215,-0.4761901363850113,-2.149709816053365
1.3693206360841894,-5.923656612644601,-1.4304717132932918,2.1137130546772367,2.345039057411869,-5.394452533769536,-0.0297737404216196,1.2570964330617431,-3.337140959173213,4.916537246843449,-2.319844776630675,3.6903095729829234,-0.4575469112886924,-1.017655520692084
1.5493785146912442,-4.693256472565666,-1.6688836890995211,3.761482017548391,3.143837609597109,-6.105391587319436,-0.7338406495955043,2.0751431471484088,-3.2212040241655235,2.15476918845364,-1.0255935355681935,3.392706775830287,-0.1261444924376635,1.174083330361269
-0.9664904115496252,-0.7354863143172059,-0.9375911230194044,4.278120979995255,2.433308219250028,-2.172926345929867,-0.8359781797473893,2.5049113410592048,-1.6534153097858284,0.8411481607059061,-1.0862635426298477,3.310288691394426,-0.1297571876366844,1.5295088212013823
-0.5193160459320197,3.7859122026309207,0.6800884204556159,4.2224901683277904,4.578426655826813,2.2464796465306374,-1.3122291057585365,2.081317112928178,-0.4001742631856508,-0.0909748106528303,-0.4450507633848647,3.511903340866423,1.4469763596930278,2.236454997162551
0.9124541162033256,6.1775298603105,2.517339037645425,4.257321233181642,9.488559834390324,5.616961074873831,-3.1134807977981205,0.6261834514428766,-0.7173909145804056,0.399667996427858,1.280601943552909,3.6045147193188094,3.419331837561086,2.8929276331226363
1.1173781262988849,5.089882012960633,3.657908063709269,4.644229412796332,11.63536070159994,5.433360374606923,-5.94595678579707,-1.6335437088734523,-2.4345724726492675,0.1722318724113279,1.5733751023193108,2.7497296773369264,3.010115935956753,1.8763891145957303
1.5393828549353978,1.431011405785422,3.4441640034766943,5.122896475266012,11.59024101679492,1.5937314123262265,-8.170108138188098,-4.083371190395876,-4.1630679160103465,-0.7091787679267931,1.1126452898349846,0.2648190661410998,1.203027619250602,0.8453168463714236
-0.0840640470726638,-2.3372113660466054,1.8777566434827249,5.19158693416292,10.137610592796094,-1.1131183147541874,-8.147790319146715,-5.997111645627212,-4.439883289208333,-2.8176829771068443,0.8159147050184135,-3.63848153895246,-0.6215538318525472,-0.3282815556853264
-1.518534797831382,-3.979457354677399,-0.3045641051213188,4.56342063242988,6.127932787500569,-2.985873302966111,-5.8257351243584266,-6.925732069271152,-2.8294244578473737,-6.728824456473005,-0.3424942639804498,-7.644969750412585,-2.3893949112738007,-2.598287603460612
-1.176984028715813,-3.020846212100169,-1.9423088861976223,3.465576900666823,3.6318495972598255,-3.025667827322637,-2.941089431989997,-6.86748893331368,-0.0879069231933324,-7.3987215320763235,-1.0564366188683088,-9.9308440959519,-2.409456302873407,-3.4417560985062448
-0.5974063472167069,-0.9114801308382924,-2.015168236939193,2.5307579699433003,2.659236228066433,-1.0455142726762965,-1.5066678303562302,-6.069508822997413,2.5933643263375603,-4.794397541552367,-0.7865704234247495,-9.19805528278586,-1.4686800456761786,-2.6303759364105117
0.9222169034603318,0.2588750537159798,-0.1768693282354263,2.31499446489158,-0.8003740615878167,-1.3521568502093462,-1.9570089647577555,-4.699153686837855,4.42734096541192,-0.0514946252737737,-0.8236115418810352,-5.460640149548275,-2.03830043686558,-2.1325415444126685
1.5949754093499493,-0.5379824319488291,3.0236488848865384,2.80792914726407,-6.064257737720942,-1.9778387272942843,-2.754454948475745,-2.7750926237086277,5.2169556112126685,8.12142284193382,-0.4247204153358349,-0.1021531467175806,-2.415883616115506,-0.3199349567991465
0.9515817199112208,-2.5093365386495634,6.350714222246936,3.375610886068821,-7.975963943641852,-1.7215312079653065,-1.885865208222656,-0.4411651600818698,5.002774327950286,11.933887577642768,0.1978730033515718,4.800764774980278,-1.7660382836240458,1.2854389846418637
0.2784708653600785,-3.8157072023537992,8.420703966454976,3.2423097273251784,-6.740777675085779,-1.692828189072886,1.14989439493267,1.7795226196474303,3.875198852381973,11.003265465160752,-0.0607079274047771,7.511574464685983,-1.0421095893510035,0.4011708846955445
-0.3277417220303229,-3.200089952603898,8.331485212404713,2.1293897205037644,-3.0645321884421057,0.76019191493138,4.756360198969888,3.166339074218481,2.291493289560567,9.868003594855832,0.1450377655353392,7.500560037148144,1.2441681142898164,0.6269302569346213
0.0511969751853922,-1.0743326017418455,6.109876897555036,0.4960910912179388,4.342043102160672,3.5478610189714725,6.611612069514307,3.3699991225350465,1.3810216299932931,6.649368110434609,0.3825576935368537,5.671008067096617,3.2562747179482976,0.4261645822370744
0.0916849983247087,0.8605077017583529,2.744955904508566,-0.825735963412841,7.748465484908744,3.787473650455388,5.701814460376415,2.8146696309083703,2.468154624775399,4.623928481193269,-0.1278737907936493,3.72737228527765,2.3335233771649344,-1.1162351871468787
-1.043527720772682,1.108984897284147,-0.2946046171809859,-1.2676978230136022,6.886742877972407,2.7892617197638048,3.137691285595188,2.4242611332065627,5.848565376090985,4.313944738571517,-0.1091218725592076,2.9551147946954908,0.7251727902315409,-0.6190841691680233
-2.098981459164548,-0.3200260443627325,-1.8882434971543005,-0.8802703163450722,6.642281376684555,0.7902694511228483,1.0842202794514262,2.795223199506558,9.922187927110468,2.818399695099329,0.2059508748554247,3.201744335147314,0.1915193222666137,0.5640673139963215
-3.94438281893994,-1.920405164813446,-1.949406275754784,-0.1582301525407907,5.254184466444139,-1.3352158683553816,0.8969922923367437,3.543982558425164,11.8494190418447,0.969976694420886,0.7391500790625318,2.9134767536366013,0.4265273662647202,2.815260112645092
-3.9502089592812575,-1.9558645315910912,-1.4347124171886216,0.4246954919697985,3.736548256918586,-1.9717211862129045,2.18126308923549,3.497162417746555,9.625754162039678,0.3540959660637053,1.4730942469490291,0.4033843998030852,1.608144567251486,5.203287665459246
-0.6422699966262182,0.125203765567575,-1.5716394374213565,0.7305686285761852,2.548636790778296,-1.5561231941165017,3.471058047479014,1.6733213085261074,3.9755562755384855,0.81845961200263,1.4259219069275946,-4.521804152478324,2.2631235422529645,4.444505392266263
0.5811014061882883,3.307927055320531,-2.8651821549830814,0.9040011295923692,0.4250783796028104,-0.7726650694860474,3.678487931440895,-1.721603089788824,-1.7275414961863396,1.573429987167523,0.0975288067435064,-9.94476432373381,-0.3855780117795845,0.1076175180231415
1.9724015062275744,5.91633583599554,-4.715432259577737,1.1030486078105457,-2.298748828473097,-0.0555214265378972,2.9045588190120863,-5.136057513908641,-3.7832627481269383,2.934255164082188,-1.898542194882341,-12.929169489660616,-4.077074525020612,-6.843776547391261
3.207940297241684,6.977718576199261,-5.989337518127683,1.3187040030464665,-2.5805440165603253,0.590911018675838,2.02968336309971,-6.572719774591096,-1.011310264597538,3.991839000995851,-2.765143939659334,-11.608480956728569,-4.825842574313168,-10.22381151922799
1.7523735696911118,6.879116139655415,-6.011289015183103,1.4306971789626464,-0.2499899123608745,0.9645234370239172,1.7287090447110045,-4.957226597810479,4.232965865688386,4.603718262025774,-1.813850506009926,-6.629063109916482,-2.512646982577428,-6.57127124291611
3.477109572792206,6.795359543660275,-5.0362378406598864,1.388486486909005,1.479496436410275,0.2595304537856631,1.9449004426500085,-1.0126154696419585,7.816060784252657,5.015571315221933,0.1650317278026844,-0.7490638833997085,1.73174925525428,0.6615660846782863
5.190091156146575,7.434169002930322,-3.798786076156363,1.3008688410470115,3.243799884168159,-0.3384529020490284,2.185027974207517,3.0292632168701514,6.986550154343537,4.930720654409104,2.495447381320319,3.1034672162500803,6.065805413167849,10.266669961739543
3.709017614475883,8.24326838669408,-2.6820092774870368,1.3360448708265,4.0117709675957975,-0.8234377476964215,2.128748011386872,4.789896198907321,2.3767579615732437,2.1476424212579293,3.1755213231967345,3.762024953765701,6.263350674325103,14.088551883116022
1.1622301354169002,7.837635090741902,-1.4256250536474928,1.5370555761558458,3.145652600723253,-0.9277082676587476,1.873831435681342,3.330215396352342,-2.7267747167003087,-3.667057168758576,1.6215241242556528,2.275804268684828,2.5023857440430377,7.776947255297459
-2.708488801008471,5.320395276526032,0.3215688773643252,1.748160369810801,2.686695479587029,0.0775729486229794,1.6839472032359095,-0.1482902720445991,-5.120017429052002,-8.086935496954712,-0.0904066770468559,0.7101394693005387,-0.733717962784226,-0.3054444854560854
-5.946878893595524,1.3160657583212845,2.263956425893401,1.7458617244843193,2.221045240164852,0.4561280016576037,1.6477359752777567,-3.086345975265109,-4.10030078669281,-11.478210682360247,-1.6141702255229016,0.4449636911456682,-3.566112010553597,-9.374191053484662
-5.541128392305825,-2.283570099569609,3.4489549632298653,1.4621772345573287,0.9152507891832844,0.7398210667877583,1.6355137753391746,-3.374236906482497,-1.665630016454859,-11.21209746965278,-2.127225984058968,1.3675533784328957,-4.343306870622436,-13.005089723997347
-2.2430139829987352,-3.727529204216588,3.1295982345124957,1.0772840507598662,-1.008796497321905,1.0214150556518056,1.5155258004143848,-0.8636520450986294,-0.5508539621657222,-5.999554182003346,-1.1691419806485706,2.425699595515556,-2.439485725100115,-6.580822065532408
-0.002539666143325,-2.7636880371738552,1.6444118871769846,0.8667048490138609,-1.908712692868326,-0.0390115057529248,1.3151140722207335,2.617593527505006,-1.89433035140176,-4.411881545389624,-0.6595534254643494,2.81666343204405,-2.222526227998399,-0.7686173287449704
1.3213418480261494,-0.7621099715537767,0.3131401068070198,0.9351281655419434,-1.7419094119301366,-0.3766685956537421,1.1535468588704294,4.784747155513376,-4.437035758173035,-5.875006184285987,-0.5517556226377927,2.669562012727339,-2.1666461294087065,4.220069100836052
1.336947442701732,0.4624142876173645,0.2884704732639136,1.1034387296395551,-1.4990568161426625,-0.463470855353369,1.0770478141650677,4.693420614373903,-5.727666903684868,-6.256236880974079,-0.3013791459092703,2.700515882687181,-1.0664406243933633,5.962328632653663
0.1654269731342912,0.0407045267673062,1.4156878384614702,1.0784038170757495,-0.7865540957666474,-1.3257052075842934,1.0141699161218662,3.309972871952957,-4.181305356237257,-7.149748458377616,-0.2736596627855676,3.324816099772513,-0.6295677745622239,0.9131264664700584
0.6879585198853619,-1.5245273109563375,2.272231068996611,0.739666816963648,-1.6711153545155988,0.0840641278079833,0.8839225312614425,2.441204706385625,-0.3220764352751244,-3.376510514519418,0.2439611700633495,4.167116367251191,1.3160384199938329,-0.740129673793056
1.7631127036693004,-3.084361624435568,1.4787197857340062,0.2346059298626102,-4.417144179554041,1.146012299107872,0.69893356359331,3.0721928213211736,3.6363269783879657,5.873952096626807,1.2321964489186472,4.445075203943855,3.549378396436119,0.0412207922509674
2.0726435296401258,-3.882798932593602,-0.8989434641111056,-0.2417288476988814,-5.273899086980006,0.7899465124721039,0.5373487030648385,4.617232342649261,5.385250614333277,8.47182648974786,1.4219760716643397,3.79792191701824,2.91350157791738,0.5020934307243543
1.341483641834692,-3.974538613996106,-3.226284130994993,-0.7568676432786683,-4.5682029875408166,1.0418786756331648,0.4354130941547676,5.642317375559585,4.031128523499952,5.011418891065404,0.8992711119114758,2.6840309594226253,1.2139726776947986,2.5393172816494003
-0.9096245105108948,-3.851430063399285,-3.669211386616169,-1.6766503386278355,-4.008511653636689,-0.4082264925762709,0.34390892638265,5.2238628983082425,0.5071245321594273,-0.1488415459934186,0.4217779656391163,1.9232518054460372,0.3287667072559234,0.9945246142077095
-3.6968707429451286,-3.845619252425359,-1.8288389756796644,-3.307905956784504,-2.916273385742735,-0.9191392116762638,0.198405654851437,3.628653960499552,-3.2139549848061915,-9.589369228613595,-0.5572938842315692,1.863047212538029,-0.3046808760236567,-2.0230722706025697
-4.664793460732636,-3.901886040313944,0.8922742606235903,-5.4425985012201785,-3.729351144830097,0.3880282486633452,0.0061000979615339,1.8098947273875277,-5.396575452455785,-12.510975059894198,-1.2310662380599675,2.061177369771431,0.4511872820455079,-2.518866415608322
-3.0773591439801926,-3.788263452794293,2.549840714713646,-7.260987622627767,-6.806335347915869,1.01661472746712,-0.1638809194310821,0.4029764561676976,-5.435799792196857,-8.022874213872887,-0.818538622717748,1.836016861118894,1.9845394668457064,-1.3197823683545242
-0.2102312755855242,-3.3952216105107915,2.3495107742014287,-7.7834980598503645,-7.381744813655054,1.6422058166678883,-0.2742970359029444,-0.7253720836451047,-3.947854403621876,-4.764115704549166,-0.7406003280901841,1.0817520281751012,0.0510464267963742,0.6823142320529528
3.533896680995048,-2.81910929350863,1.1747719423897598,-6.575783647445044,-5.822758512504765,0.6482294695616961,-0.374124425203874,-2.037540661384152,-2.231432315952406,-0.2028699217751015,-0.1821139470953397,0.4240047313681414,-2.9330463571101504,1.5196746939982642
5.456669235406332,-2.2230603704865457,0.5206533038501626,-4.148916224450331,-3.926181655082724,-1.3166845065012276,-0.5378855027960574,-3.604748655132856,-1.5385815722210738,1.5530290942268816,1.0156227895271377,0.5101622675328281,-3.613131216065527,0.9758682787758112
4.042904963044272,-1.6531499592274486,0.96921074478744,-1.693880406878662,-0.7650320792779869,-2.102075566458054,-0.7608688985290921,-4.915552449973006,-2.471331372379836,-0.85956924799042,1.276361559554659,1.2341157088376788,-2.665378109506705,-0.1171347191590288
1.689478101617128,-0.9540827854873012,1.7403487088425953,-0.3045938627397866,-0.3129565186197113,-2.681330927586677,-0.9495967672152076,-5.373849565966658,-4.633711693373275,-2.688016490133196,1.0917206475383576,1.83091290222332,0.7124792348465752,-0.7642400402372085
-1.2872348479464493,0.1654369581821437,1.6918404092623265,-0.2609823913037183,-2.971597011853785,-2.8253087318482244,-1.0382107377544243,-4.915928167545296,-6.671409119203158,-5.257315391360713,0.5081398978678433,1.8008149513008096,3.927600116770089,0.1837346523417242
-3.25422515939113,1.9252855846240124,0.6447301337621691,-0.9159211058361296,-3.3136850847692565,-2.2613918712741343,-1.0991961115015012,-4.115056605684629,-6.873413902057007,-5.754641699617388,-0.6497725824871238,1.5991761137746798,3.388428174163168,0.8782809681499325
-2.526561996070513,4.20080240767234,-0.3786835420170831,-1.266097895694144,-2.08255582731447,-1.6925434446146514,-1.2961693906097511,-3.711244272805353,-4.257079046614638,-3.3746282007396817,-1.3609458734824182,2.173652336081706,0.1602830606404727,-0.1274311822208555
-0.6593076225701329,6.364640929115062,-0.2331344018582632,-0.73931015606385,1.3114831134326577,-0.1021846795602008,-1.695396883635119,-4.05080175854149,0.4755190533530811,0.4059393600379421,-0.5185293010829394,3.706568108495503,-1.5796819030341118,0.1224404149720028
1.061744978654032,7.444583833986752,1.110408470753252,0.434418622941811,8.010332169396047,3.0370565733180666,-2.1350661188390734,-4.920863135182582,4.980316621114158,6.623089913090219,0.4187473153604771,4.944970231528571,-1.0904051312937848,0.5520950414651967
1.7401511383126371,6.622530270768313,2.463789909944147,1.531354677739908,10.352933075502431,5.1787771143686845,-2.3339495453377275,-5.832546433402499,6.627995615412007,7.8922423857149,0.5361272515516844,4.041488797619518,0.3931620934685627,0.3208574453463481
0.825346450143311,3.8120263797288536,2.556413559055407,1.9938398785070968,8.333339249605139,5.063550343239236,-2.187652120818093,-6.429779437321459,4.362799719338455,3.6666332115500735,0.3270809839979689,0.2583531723107195,1.8991828878404748,0.8937048245349275
-1.0515640796941863,-0.1009028458341858,1.2445534432282757,1.8404477223522044,5.739486207474107,3.6432951346095246,-1.9731716071683063,-6.691341351691638,-0.4187618906453456,-1.364130097789887,-0.9242121675055556,-5.135456392825754,0.4741466876239278,-0.4359571529138709
-2.05007402289375,-3.6096408685866415,-0.3995068382792688,1.5217020759760267,0.8596772080685181,0.7468427174058127,-2.2055402209935986,-6.8332901198759295,-4.830028514236992,-9.054632757995106,-1.4597439026835144,-9.746525151141505,-2.8244378725688115,-2.4856091921875323
-1.6150682830157623,-5.402002928992112,-1.1524925102260732,1.4608535607976971,-2.165206362448492,-1.7524045869258875,-3.1870870890864267,-7.040158357825645,-6.615128237857523,-11.632424770534502,-0.4753560387403587,-11.935849251286914,-4.047672766484607,-2.52605645696832
-0.1754201917517146,-5.150890790871913,-0.7691605074625328,1.7511002396545057,-2.8220403224839195,-1.6391649338173324,-4.6167480326873775,-7.23170798732794,-5.685215092225871,-8.063819558015897,0.7586657885042005,-11.916715458825283,-1.9928196851867723,-0.7984065755044576
1.156809959540558,-3.728908296566949,-0.1004858649585027,2.203696242952702,-5.31697333587926,-0.9021205642153493,-5.675004877676169,-7.041590097016335,-3.8276142235090993,-6.8911773365449545,1.1412916697541025,-11.102961225963291,0.9305232912287672,1.229692029627511
1.5085117056184365,-2.627687138757844,-0.1696024181555964,2.531282888824012,-8.706544946799097,-0.6054613210840294,-5.640882695653804,-6.065438583727826,-2.981527793007511,-6.307539315528164,0.0394953209241951,-10.491522116621706,3.711053045643392,3.005695370342031
1.1930208227954735,-2.9291298902468714,-1.1572203050267744,2.412589172116459,-10.093554925530446,-0.3009662957983267,-4.579763390093564,-4.230227496946344,-3.683171157360665,-5.140006892128362,-1.2772868934282509,-9.751376523252947,4.353913763464399,3.190184170552936
0.300750695550051,-4.571798056662499,-2.2461675004395776,1.5105243166548243,-9.798914776122388,-1.3426892469640823,-3.42556764353784,-1.96358800494976,-4.9407702317635565,-4.587877265560356,-1.6251460235749906,-7.858177272970284,1.3286468724898544,0.6620174847963476
-0.5866640532162567,-6.496317979423261,-2.4003621566531246,-0.299776389538282,-8.19987930257077,-3.701780861985943,-3.2057718289093806,0.0719769566027053,-5.356542841274,-0.6628597742753835,-0.4829163801955342,-4.495005008308106,-1.4726571014327037,-1.841802874211348
-1.3821789272709166,-7.554943840836806,-1.3073162943117305,-2.535556646456656,-4.661560258710532,-5.2275382628588565,-3.9755939877352895,1.52702762736305,-4.270101351219738,6.773962011066851,1.7662817078057171,-0.7113415242166532,-3.9365491212046897,-4.385885155322255
-1.904960682374827,-7.395442894723966,0.3536711476446212,-4.03391124839735,-1.7454572236699593,-4.994897128390806,-4.499078408014273,2.6890059955892536,-1.981377076897126,10.33107711090414,2.820817246568172,1.842725095954836,-4.955678210994296,-5.432578187515807
-1.609113152093927,-6.5411448755128845,1.4834060920071988,-3.612686079952773,0.5261977936681671,-3.147770827247186,-3.2090475813657147,4.195094861996503,0.7981157990791163,10.39138168832526,1.5321383001044868,2.3395187689573107,-2.8332560256630206,-3.2517258185434863
-0.5517161280715869,-5.65831575130696,1.4119135594128664,-1.1422685947394091,3.00970062645032,0.9358357725519614,0.2354314483792163,6.329356585246431,3.4629181243571363,10.433629043829107,-0.5843958760120216,1.474001285200397,-0.4609558178198569,-0.3611093737644415
0.9031545491760876,-4.815715667761416,0.3105918112892314,1.9560994304872064,5.090612636246483,5.449876722564961,4.268140242610662,8.581397715388725,5.553886297359041,8.965601806215265,-2.862517020160703,0.8130077511358154,2.601071544191334,3.614374391095241
1.803851625807449,-3.5357951298653543,-1.082614099821181,3.5074472739649165,5.373868223388959,6.709398983401407,6.489320584314252,9.959482718504908,6.612849058861034,8.40898297435913,-3.2746055662551456,1.4482251700055566,4.60930388951665,5.868051987795445
1.7730340112410272,-1.5605860604156927,-2.0826358471687145,2.259195559419305,3.604806509430452,5.150181117915243,5.733737219173431,9.814404667635529,6.327879116311967,9.15620180607215,-0.7139036639609578,3.1757051542271446,3.688152071864492,4.376304597660313
1.3198330251588155,0.5884867724575491,-2.4698226832512544,-0.9410122679747186,3.158764609619143,3.2287559639129357,3.2387047090661225,8.392954822501913,4.932062717714912,8.975812459726168,1.871583526688497,4.833990138162654,2.721880675471421,2.831719818037396
1.097421471250791,2.025185759623373,-2.4250588537124846,-3.590874161238264,3.818020898300331,1.4162978191593392,1.6662949957239874,6.5937739146719645,3.3227067473943306,8.473154346507549,4.095845063899379,5.364459320818011,1.3646465149477855,0.7810307855323771
0.7569651795145906,2.563881453704518,-2.16518789129986,-3.382354411814257,4.511469584733871,0.597123157921805,2.7184799157146,5.192915727711151,2.549422403286867,7.181380407920033,3.959964798881092,4.621195054512469,-0.2620795023974121,-0.968363439180021
-0.1166092449001282,3.233846377057782,-1.6704462304894818,0.0065441690073448,5.940548664216001,0.675428359288732,5.512346754790686,4.30511173704649,3.0025648703480243,4.789288261959056,0.3545035241723037,3.331137640740785,-0.8818428349850775,-0.8228362042955998
-0.5957458842006786,5.429485767737063,-0.7431407410421276,4.625849698173518,5.372200547009406,-0.8986327562833847,7.272178047471881,3.538613335312822,4.040263859244984,0.3483748773090486,-1.2894831760877816,2.4027330757968937,-1.1218605194848918,-1.01341768522858
-1.5962008256475462,9.30777332517368,0.6852468943773342,7.678131122694976,2.61444820142585,-4.401120290461353,5.759305646288009,2.5599448702360927,4.4587278485505895,-6.519694396191537,-1.9550109165500105,2.2436766570856594,-1.7046811122383765,-1.88571746882349
-1.8669927211635355,13.058549437908114,2.295761121530962,7.495114127929844,1.8671604855729904,-5.801408373405224,1.2498655498631344,1.4249103684865592,3.450358562447626,-8.49258491762452,-1.7463001600064667,2.586141941279763,-1.7463863105525013,-2.100859828766316
-0.3343167941582161,14.080273709091887,3.429791929495808,4.569672920380072,2.718145397592425,-4.071979185009631,-3.671182357067323,0.3982183343197683,1.253438105071881,-5.312968386220842,0.480009777758943,2.8282802632750954,-1.1065125166196492,-1.7666101579105862
0.1458026745745071,11.26321699898546,3.472597869290928,1.0010108816101493,3.690385882977998,-1.598814597580402,-6.2042764871337255,-0.3976017988139979,-1.0301470498493457,-0.8475249340451053,-0.6590761891023651,2.547438753510928,-1.5488071915168964,-1.540552359994246
1.0465890037513976,6.287633485427072,2.3387068892631966,-1.058310778789135,5.566984764632259,2.7863642014451164,-5.3998022933906,-1.0136843768616028,-2.2597065882346623,6.69074053738875,-2.703144164945824,1.8159616446886897,-1.4622340826256086,-0.3370433503724299
1.6685435275596177,2.526601270592831,0.6910276297236937,-0.7558259369673372,5.584919835841574,5.101336450834892,-2.5078257014242364,-1.3544574935719442,-2.0295771139669885,8.856663192669496,-2.8920218209765176,1.1364765524513043,-0.6842202131526366,0.8177217410108277
0.6360327226628928,2.3323623980488364,-0.3609776554191342,1.1558836993948205,3.472806572693331,2.908957733060121,0.393722003185502,-0.974385137421674,-0.8089698057511079,4.726474874515253,-1.723824557895414,1.0534497736569612,0.041402813851457,1.028531946000988
0.9187640395686972,5.101253325839522,0.0124066685639014,3.0553334855762277,2.0115037125852337,1.5301601478409943,2.061708488975359,0.6121538834104499,0.5580042931601774,2.284036268421798,1.490688873206202,1.7096949045248948,1.2950162636128184,1.1160451049821647
0.4957090031204466,7.880950209153784,1.6942382507963316,3.5666828202236225,0.5928141822052307,-0.2289749132851124,2.6465140955762703,3.303868160944157,1.4808826571778475,-0.4643725514359031,4.214607472698362,2.697613695285625,1.9439783095963776,0.5617832348070475
-0.924225918837259,7.928177885044354,3.5762526373638157,2.3192959059137923,-0.4318039424674801,-1.7671672799223743,2.9763276096886546,6.126330444651858,1.8525033925379264,-2.631644250427689,4.273603306976384,3.374338191474301,1.6381631875066889,-0.1474330673384015
-1.6090007792549872,4.843608803633824,4.289237098281712,0.0001528917955715,-0.6048475166776904,-0.9203540648073112,3.5186301632329213,7.723231315199185,1.807579596321496,-3.0646925454785228,1.5922511587143244,3.410574411581133,0.6716104499218685,-0.4669767941004299
-3.1384703144061463,0.4633639847939097,3.212472636269716,-2.1935163436883496,-1.590119043413051,-1.654153379050672,4.019369791775377,7.329369512565854,1.3998663285941078,-5.280577467256998,-1.790886239340966,3.062842393188032,-0.4150625840540261,-0.6845239715677686
-3.648527251604452,-3.0470003293095864,0.950609650920052,-3.317021536798588,-3.22725744281762,-3.511348797594239,3.9724812950431385,5.406414121248799,0.6088174060472475,-8.82634094040992,-4.030501103834811,2.861689124196568,-1.3438320305732123,-1.0560774897035556
-1.7747167109316035,-4.837229035447098,-1.1492184823589735,-3.219040022285718,-3.5215075180824296,-3.771879567950053,3.271867362498755,3.357605608339133,-0.3473365227843494,-7.983338812696706,-3.8554590143845697,2.993795942485715,-1.8105822767395476,-1.3432410321176518
0.5162980376157535,-5.318261789052672,-2.0482658828910623,-2.556819591613685,-2.622130081388056,-2.757628502537812,2.3668964678125164,2.526215983717252,-0.8271636446557178,-2.838926935285696,-1.7678810409906,3.031893148933385,-1.6929576670830593,-1.430298278712551
1.7630238850055446,-4.981094187285329,-1.7361887748743872,-2.2689627311172416,-1.3615411185701838,0.1853178005691783,1.849753880490553,3.2873723700832223,-0.078000305355502,1.7978307894133876,0.5951667692761561,2.360980850016025,-0.875432934641449,-1.0201892428939
1.876850886301665,-3.759284102022548,-1.0272934982015425,-2.849102463001456,0.6568242980683213,4.949218638565279,1.9468308110410568,4.907152182448755,2.107684187360327,7.008370549512183,2.344995823430306,0.9049767677236816,0.5137021166029625,0.0510023991212989
0.7561826685076994,-1.6595841134377238,-0.6997795521337444,-3.962809034687208,0.6175201402840521,6.929084174382689,2.367646694661598,6.148053691399905,4.9798674277879655,8.112113724010827,2.256212088776374,-0.6258167693013981,1.7824645708429754,1.2967721847711244
-0.093006856240381,0.3688278684839012,-0.8283522885775909,-4.749639911572139,-1.7836322602399908,4.677550436346468,2.538328704089785,6.037000903935716,7.13159946035114,3.889967067248411,1.4122003254836508,-1.303174849357131,2.6729811761984124,2.652349668595384
1.871690105730539,0.7705572758180548,-0.9089817657117614,-4.6036041258188,-3.351555103781918,1.491553452198537,1.9395210783965169,4.256620408503334,7.372018517390822,3.235122479853053,1.5363362903336644,-0.8565931007231598,2.71186859312344,3.937599131510773
4.496021729185714,-1.0873994734887784,-0.5565005102210119,-3.755974185795475,-4.703010867459069,-2.597589905967721,0.3437989376978265,1.1075101837724368,5.504885926499615,5.103422205323909,2.262695599648186,0.0033207696337616,2.5628198522122703,5.534587793115214
4.81624896331316,-3.839666647061714,-0.0096489979524481,-3.0784565392765515,-4.629275379972909,-4.3447225714579965,-2.039186193503447,-2.6734037475198544,2.401373346106425,4.948535331336992,2.6507638437843686,0.1500767412313361,1.841685770375429,5.408570843546201
2.2421534064504485,-4.961098202277826,0.0631786819825883,-3.2053252636802405,-2.4747135185522326,-1.5791338959071082,-4.503142280138739,-6.068715177730429,-0.6601003502475766,4.147539403970376,2.047080844829683,-1.0253322694074516,0.5444839855050807,2.760168602523465
-2.0727437832497264,-3.0225520878038648,-0.786503049354252,-3.760807612840287,-1.6478819100699231,0.2908106097456532,-6.034117419961763,-8.043359601827298,-2.8347714609310586,-0.8616112226649115,-0.248278210059173,-3.150680813028384,-0.0056078986802416,-0.1910393086139724
-5.967149314183819,0.7805939538940958,-2.3681005953391754,-3.491972066268289,-1.8147374424417204,1.502138470928562,-5.865104000903873,-8.045211393953092,-4.100390820724947,-10.98451803634506,-3.3882294456842184,-5.233769754798782,-1.4659488417852709,-4.684112192548432
-6.165327517334876,3.453465582533509,-4.047032977441557,-1.3324809913330853,-1.1674046899157255,1.8401135585405564,-4.116197226073362,-6.501531761501287,-4.996930914479099,-15.225653064319369,-4.498126362372924,-6.45477549182891,-2.63267316320776,-7.0919114471024205
-2.6281434717829706,2.7523684910256065,-5.273219103243713,2.479823590744868,-0.2560239150779043,-0.6513461846729109,-1.926002471996533,-4.788067155773424,-6.046847230001065,-13.90637142098724,-3.5217860586668883,-6.700193119775424,-2.66783799826095,-5.565088928073999
0.1163332470523519,-0.8750291397619279,-5.878708963628998,6.270913228361422,2.250401069618551,-2.21813391111145,-0.766734407388622,-4.428434912157538,-7.353751394927777,-11.981796072451136,-2.629285585394965,-6.486877330307749,-4.285837423544216,-5.616870527082007
2.0645803595176653,-4.732446155118684,-5.937116689514863,8.023330713947232,6.698009266764589,-3.5183788814131107,-1.395273842869667,-5.986575746790546,-8.610676453219124,-7.100067968471491,-1.9085405453264852,-6.474215836422555,-5.231031322229104,-5.183030018656825
2.395200053726565,-6.220061711722899,-5.503282793724079,6.848259743204952,8.40023377835781,-4.207292899473308,-3.33617153680672,-8.549313341729082,-9.35516274196522,-4.379061513496325,-1.5878750909572743,-7.01288332779632,-4.051296371948815,-3.357897864773022
0.8094170992390087,-4.898292472746725,-4.608185535064436,3.6233936951217034,7.420445093821963,-2.3926100994367947,-5.337573460906739,-10.323250171326734,-9.168256077934087,-4.410085350646489,-1.4544468043947116,-7.999401288797991,-1.8875260640827904,-1.8982740475044344
0.4836149882971164,-2.5126006349139622,-3.446315815387454,0.2917492870770495,5.863602025052382,-0.133453363268514,-6.30197634182656,-9.93443749784772,-7.710047304945839,-2.5417481414093115,0.1616123778327081,-8.975126346155545,1.697628993630626,2.068774206313321
-0.0455973645074635,-1.212166441186369,-2.361044824471921,-1.540979687794266,2.6827503927156973,3.623894704668071,-5.792251724466404,-7.382849933809986,-4.754716549570901,0.038898934339654,2.726832601661049,-9.263624672746904,5.586719923717612,7.260336120424054
-0.731964999633339,-1.748964967227927,-1.4869758609085082,-1.5479885293282258,0.4281896843797314,6.082455092518294,-3.805341986721089,-3.900100297476868,-0.4016931262089436,2.7124183070753203,3.758885422489254,-8.083704228131293,6.327508847985864,8.313651643994111
-0.3413105877809285,-3.1924408314616493,-0.4594711224814709,-0.5300008940268874,-0.6408348881844175,4.543334787863896,-0.3920409173953985,-0.9347076146142008,4.635087116352988,6.016646059068638,3.172997776208764,-4.789245541544084,4.0055864017585785,5.384248621766016
-0.1136933944105911,-4.111361102427111,1.294468505157731,0.4521437302449982,-2.656927217231216,2.483495418210282,4.180952821256579,0.779420481338363,9.01267428863709,10.154036982914787,2.910281345113789,0.6416723410145124,2.0460955628771047,2.3904696908327985
1.1279130910609174,-3.9063443283717056,3.782703310651165,0.7829820585874856,-5.023943839457191,-1.0286419938241835,8.85465190452621,1.3186754710381638,11.267985818812342,15.22367315582384,3.2880925700093138,7.090129167388042,-0.2673535535804205,-1.282159724650248
2.3316658229035543,-3.123871962843843,5.99048805026753,0.3574419907142818,-5.7962870970025335,-3.602781814552737,11.6846947704492,0.9751275447450958,10.653231486424122,16.573905881082354,3.6553018450548063,12.31358139879918,-1.8427060077128727,-2.858199862144644
1.2595318697993536,-2.7328034343835874,6.431576680690778,-0.7246415866139841,-5.020465645859692,-2.245497067500539,10.84198061155498,-0.2155944331825914,7.712524158236416,13.86402057024624,2.6932943478749727,13.911331852552753,-1.7460735004318404,-1.3735145271124525
0.1721276950740214,-3.235286715273689,4.425966758944989,-2.2944306146435487,-4.4878003139389735,-1.1176414476614638,6.142834633726933,-2.2616542880683816,4.096889521627308,9.533121472190585,-0.4028146252582135,10.906784015417625,-2.2344215776111547,-1.6233696565184372
-1.3329829825636894,-4.36547732095436,0.9458101054884284,-3.9478964706314494,-3.835578962093345,-0.1659105478679213,-0.2759743630655631,-4.641781099224616,1.6556391689145595,2.336623582943064,-5.616691941253887,4.82689920686062,-2.597794157813943,-2.4471926893614726
-2.50377312196021,-5.385339536579073,-1.8944332368060088,-4.94732650685118,-2.327425392567728,0.7345661986934706,-5.0199677437866,-6.241699241007007,1.3902165121537138,-0.5626551949609608,-8.301084799857733,-0.8254272795521125,-1.3303895150354093,-1.927393090719982
-1.1607020694188983,-5.511646331467102,-2.392497382460908,-4.530272500097086,-0.1857032607719512,-0.0855804937860763,-5.656181492508894,-6.207566111995314,2.9520184755424506,1.5318068615440692,-5.409346802874422,-2.717378271951881,0.9279147574097166,-0.4309748220712883
-0.201459370989683,-4.162618856623357,-0.5116351949273259,-2.4608077193926245,3.405211514628117,-0.4767207542841628,-2.423555103751891,-5.036589817607192,4.948329656671749,2.2928422540004734,-1.085902853762016,-0.0466846501535602,2.6260861994369,2.460135876530382
0.2268496487775754,-1.0929258114353058,2.268616872058564,0.696858502768313,8.625862697116242,0.0090952075819606,1.9254444040687329,-4.667805391456611,5.777259269593218,3.4200413496942166,4.158722057331982,4.745983342237892,4.627337367381818,6.275325113893656
0.3701227848531545,3.4374476144232133,4.290039996010261,3.8685518251575,9.243247498781916,0.1199331214736695,4.067734013804358,-7.054982806011283,4.462209130726611,2.4010559001943497,6.319467130945413,7.66507168822608,4.3727998491841085,6.858913070986349
-0.5003609202282276,8.545641651606942,4.952740963802242,6.062440407118685,4.937509579854209,0.1551865687190043,2.3942498785413413,-12.187484381642184,1.0884397957305367,-1.79760149165686,3.0216584211050685,6.088178081223969,1.3800677575639215,3.643313789426613
-0.1721543491548221,12.882056300385557,4.779460737365928,6.764511761734852,1.778438965269158,0.2762968801336854,-2.01189576188764,-17.35846050467788,-3.2780093318181507,-4.632131223309081,0.7018075916047697,0.6655190275160177,0.2703660325851654,0.7849117693483098
1.429945341815823,15.101391107476356,4.46535470056827,5.948008505502495,-1.5331362131243498,0.3190028267011063,-6.309993677823522,-18.67997483782751,-7.110931457337189,-6.851389064853663,0.0625355634002685,-5.333460367685667,-1.3659591720467008,-2.268800816045796
2.733540943351763,14.417811793436382,4.026828850554402,3.944220521691329,-2.134429288716176,0.7147514978693826,-7.936340982187096,-13.92958959193554,-9.185157916603131,-7.459916602083174,0.4304853253267405,-8.675883528593378,-2.2981584553918943,-3.9892669022933487
2.677858470639083,10.95910012758089,2.909372850250974,1.4396181639895458,1.217561822666713,1.1259159361579971,-6.215851645301958,-4.469653692077674,-9.235639363049318,-5.554281896588782,1.1608134337561469,-8.606758887455564,-1.3751073752276124,-4.097146199140374
0.339069927600471,5.791766352032067,0.8125266941149123,-0.5257736634844026,0.962832023239494,0.5816549633219987,-2.497252698270545,5.4649695801880105,-8.086009263105133,-5.076731266721379,-1.9054109806449129,-7.058921606145059,-4.302335145376921,-7.530087082743316
-3.593421966012844,0.614721077246827,-1.746865043221966,-0.9246355023674332,-2.22393252140668,-0.6270742521398908,1.051690486502462,11.69522897421456,-7.025142214306376,-5.672775938677545,-8.476659799398208,-6.554729316026911,-7.860900346910391,-12.94487585517362
-5.84685902821441,-2.855592004680501,-3.739527043336951,0.5031276771862139,-3.490644595033085,-1.4336049365108612,2.920052407141464,12.949891483110951,-6.757317910142467,-6.67480947139288,-11.66272693446051,-7.727517786790608,-7.978111390761534,-13.540706491070448
-4.055690140761738,-3.676572369366223,-4.4138769264064965,2.713138057142372,-4.01825903109462,-0.9350429402185684,2.9477953334071465,11.388994815426823,-6.738173445658132,-8.877107806523094,-7.847811269577742,-8.688931503688437,-4.79724282072819,-7.401106912084384
-0.1606889795773234,-2.2593341286913717,-3.7144106464421256,3.78336613758513,-3.1505508242685214,0.4982243852049194,1.9865212002728008,10.49298843149137,-5.573973681613037,-8.368610532650758,-0.095718856585,-6.789295648407908,2.2071376042681496,1.940609965933847
4.517678579227056,-0.2391905653182569,-2.0063762856976908,2.3079394323521427,-0.1003227707476174,1.8884285614481149,1.0722037990235211,12.171480156784709,-2.3233551030862287,-4.996020845363883,10.480583607787372,-1.1623480647437674,10.453315716936212,14.615828447305516
6.7499467649988185,0.4854313962272734,0.3667603241972657,-1.2920204488826954,-0.5484547329558253,1.6635856988980084,0.7979472150692732,15.452866661984716,2.338580908505918,-3.319962008214972,15.15906808785507,6.233975213528719,12.484211054625687,20.06065599480443
3.8385628369535034,-1.019998593218677,3.0473357288505785,-4.83053642441913,-4.500822012730714,-0.688323284813293,1.1469227363328311,17.636677083574547,6.195101991995742,-2.6609990283268816,9.145680403493978,11.98416612041708,6.650948545608867,13.161657415714574
-0.7013668476372742,-4.142133560790152,5.262273314848927,-6.017278925151473,-6.473617226218216,-3.04962876299672,1.6302072960970406,16.71359477714879,6.948427849642476,-3.994377697306354,2.063585356141369,13.75068388210354,-0.3049445091362653,6.901248590643508
-5.287948947950631,-7.233622462117559,5.843710162418253,-4.402391145739792,-7.464347975548755,-4.530990436705727,1.5538204644360496,12.980786340118447,4.015301108295433,-8.3062542473883,-5.41714423089697,11.806583322389583,-7.451020428121971,-1.4307166890305834
-7.271497710098235,-8.775492123503994,4.093928227002603,-1.809176902242152,-6.017708131359621,-3.51725946779101,0.4084559792769386,8.680986721607,-0.7797715540542534,-8.293706722242726,-9.100905036280508,8.433533507784812,-9.614232269258542,-7.801772754693122
-4.725689192453575,-8.2433715164107,0.8007524530623868,-0.7072600187998905,-1.0135835307942018,-0.4472933994236058,-1.667901796634901,6.199401657555711,-4.256625132334474,-4.01000391452326,-5.141549239927474,5.97620755982329,-4.577465658497336,-5.493332712622565
-0.5153182510046066,-6.111931453779277,-1.8404246769047543,-1.9271747364422585,1.180235139322092,1.310556228353864,-3.68325274940334,6.362101222950326,-3.987668618578069,1.9060832636035607,-1.966951483565131,5.329338177670312,-0.8743290312017207,-4.930741610623257
3.754082778901082,-3.254305830254758,-1.7708609770978212,-3.853852710162287,0.9098103276181184,2.710720867593118,-4.232209347459776,8.042744435507101,0.0326003372560568,11.157386986082344,0.3307576382662421,5.921156622867692,2.1555479246111298,-4.057677349730797
5.725535219478407,-0.4048463086200162,1.11471929356274,-3.910526031780025,1.2032843915546865,2.7936378172474097,-2.520719734348975,9.13948323940156,5.350264669009123,14.335078933101084,2.609811335789023,6.756971425489926,4.107589401611217,-0.3081352236611208
4.49413415255827,1.9674760342625204,4.647358764554629,-0.9548868897751142,0.833580182946177,1.6406589034483128,0.755400659625864,8.057984198515609,8.689346197893222,10.698628881791484,2.646813693032304,7.310928890704325,3.1994183421883973,0.9738868827155316
2.604813324457159,3.5873062170615,6.090424976840067,3.67017044544959,2.5067792748925526,3.05893126051434,3.5602770586183645,4.6910765590018855,8.13674706467823,7.180045494328121,2.9042519629196124,7.565457404374701,4.382621235247269,0.8742690952762439
1.579219866524952,4.423523972027425,4.445609003773766,7.358102101767855,6.667605889207655,3.920817207652245,3.870622862674223,0.3739564518258973,4.360631686075218,1.5074407937102847,4.021423033148319,7.52039214752928,6.436250446912333,1.2781006723685646
1.132592659034246,4.797767902059297,1.23409870482212,8.453525595276217,7.352501508684451,2.6984511501659023,1.3216986308553942,-3.0432623494487743,0.0164353965487666,-0.7950532868587767,2.8681613254496328,6.904628242093317,5.278227695802712,-0.0117988225246814
1.1117468822550096,5.2043239656218105,-0.9969581449274312,7.332080769510926,4.904516419146402,1.0312110307531457,-2.239897908684606,-4.384470721364789,-2.204358277690142,1.4574337761114833,0.3810143929296184,5.365619331620996,1.9100853363824517,-1.1667602912440491
0.5426109648421925,5.784756465314366,-1.0290909332520233,5.515835871639959,3.702173774096568,-2.10601755806751,-3.9796620958895215,-3.851220135902338,-1.4268449978269864,0.3819679735294664,-0.5072266772185119,2.7982414894400325,-1.3865141359005402,1.425042188367026
-2.452936637105778,5.957246618371975,0.0444888808000047,3.998014777236929,2.738089484883065,-3.970914068781512,-2.30322208632156,-2.782208480814484,1.0116871520379664,-2.7107695260065787,-2.548229936477625,-0.5753115018847872,-5.137957715119565,2.751520883954254
-4.770762720988419,4.765067066159881,0.0899114006864163,2.563387084488932,2.6019654918734143,-2.674807782277756,1.6850972231865402,-2.622405084382354,2.8097001452033474,-4.045421085676121,-3.377121468548605,-4.330047835375385,-5.961178471378532,1.5707530084999408
-4.548536168166814,1.827374789469841,-1.8447154931297332,0.6080949445022465,4.024943301709699,-1.0726758137339067,4.846780135555498,-3.830300865582739,2.4841285044897248,-4.644373639349263,-1.9817455224947151,-7.864306894877519,-3.7608370989590902,-0.266314192803728
-4.123331214407559,-1.9891761103213312,-4.535240019350516,-1.6995752191943971,0.0448545794334524,-1.3332530610385922,4.472604405241478,-5.536128688389166,0.2689436587701941,-2.070222172614298,-3.623395578912042,-10.288994342665896,-5.19822026349317,-4.549421676802569
-1.4469179632674891,-4.975994589530719,-5.744089253523121,-3.317951297028266,-9.518722426497307,-3.603356072154818,0.622499557840138,-6.213464473311952,-2.386122340257634,4.4649862038330985,-3.627408616875389,-10.53376524417958,-7.390376962955732,-6.868049602223159
1.7543544467255825,-5.857342910605464,-4.3579060721994445,-3.378004990715993,-13.265944935684056,-5.521086423513182,-3.664848270993696,-4.839043530227789,-4.015263333105443,7.144127609515044,-1.153536723994108,-7.9304409161066864,-7.012586007924463,-4.427369012130351
2.2359646812408798,-4.783933337282425,-1.4285267566204034,-2.1482476228328995,-12.047205484714384,-4.035189375569437,-4.627397741255358,-1.6459585782833877,-3.9410639596732153,6.249205458258022,0.5152314017910761,-2.952328870715945,-4.210949146001901,-0.4503055898080286
2.9581662433513225,-3.077905158154106,0.8189656040912645,-0.8165956214002819,-5.784843430613906,0.7280211023462096,-0.7475029571823057,2.064186936640354,-2.2577353418918253,5.270523569713429,3.960628788085863,2.618068719712193,2.8266562339897625,2.825785167206193
3.4763185582333547,-1.9777815243791483,0.9664557556958472,-0.3357544184247221,8.236168518304897,7.426366619495478,5.994360802294704,4.813820142130988,0.5485226366761538,2.569882137576229,5.907210527339815,6.47944436826694,11.792987584419487,4.828465929709948
2.0035497924942023,-1.6309929099900575,-0.5355613466915567,-0.60086777290641,13.701500805540023,10.37146576393646,11.602723834821877,5.804187834855895,3.729531872235542,0.946532697720629,3.856022452866197,7.094241371252137,15.012570431639771,4.426694751225611
0.5494391133505734,-1.2883672354661415,-2.1086913540177914,-0.816237469629673,10.463048800371125,6.551642755051813,13.022732069624595,5.144273473162276,6.159925271410321,0.7471111656371928,1.0822918985599683,4.4943341471353175,10.54294683154113,2.872897190116083
-0.6417848422773182,-0.3546843015721741,-2.676204682474408,-0.5641992156915059,5.890333241722884,1.1270691934991124,10.145819597418868,3.466495274159916,6.531556837251788,-2.971200281318099,-1.319976573987502,0.0310845755869912,3.880929315181512,3.0446197016599426
-3.967332362107367,0.9472403524457284,-2.513107837581272,-0.3229991683190238,-3.7976780897112383,-5.030064726014985,5.393216010394985,1.4108068352690797,4.158885526675421,-9.808983568251204,-4.124731815381824,-4.592165464476199,-5.25294081958597,2.2033882663809545
-5.935808884561739,2.0425983014761435,-2.5934908667436574,-0.8266136276822209,-6.338766307418191,-7.494072649154978,1.5261816104440236,-0.5903852105001786,-0.1374357211914016,-13.056951467334786,-5.0624587359723074,-8.13633515064478,-10.917170569178712,-0.493229805335152
-4.344280775856866,2.988023989514854,-3.2875946524367627,-1.9910019491298807,-0.5651375325280438,-3.5681018506124214,-0.303603476972528,-2.226062340784047,-4.063190857900967,-13.168384631592108,-3.745277499258179,-9.9715914463097,-7.818092364493832,-2.6881961494638693
-2.156492594198588,4.672307027872746,-3.843111723514607,-2.6823766573260546,4.510215640608987,0.1809476120112937,-0.7650415360516423,-3.242178252981006,-5.223981618437504,-8.077184929327373,-1.5617147672548994,-9.828736107577164,-2.4429424854825808,-3.213087435288581
4.0947902073090265,7.749260211173997,-3.172835614620423,-1.7451463214884022,11.89411542859855,3.5530520435565376,-1.0598366322455384,-3.608184106234983,-3.0224726020164443,4.072701265325576,4.402556593116545,-7.789108760769562,5.739070528180945,-0.3227159357668703
9.81171983691096,11.328242770490668,-1.1019887314872143,0.6667733457326595,11.886121186106486,4.278549446117522,-1.645336018171328,-3.732639443695637,0.4960381903525181,9.497071041462352,9.449109820637542,-4.67282740770646,11.541006401275496,3.974416586626944
8.23296938366631,12.992525660766368,1.2036748135649624,2.843385116616876,2.726094188375941,0.3398831919275307,-2.1765751240287337,-4.35821748468085,1.8460761441164664,8.39484051673413,7.68246833745718,-2.2368199262043387,6.905992415184189,4.498441728377484
3.588278644957481,10.556737622756856,2.070410253783459,2.7496514871505457,-5.16891432968608,-2.544763735047612,-2.4651511983723715,-6.040549004065412,-1.2767249929076776,2.867200945283763,1.3129637426100262,-2.485814206440562,-3.613198801609552,-1.489643148029702
-5.2870890438070965,4.163497418864036,0.6667133452686436,-0.3116212348546305,-14.31547033237008,-4.901006455087737,-3.190491012077357,-8.591633659208927,-7.92465614022028,-10.540456150085198,-10.358223073152098,-6.218374561315606,-17.535202443229323,-11.550081123195843
-12.38881959595825,-3.305070856840969,-2.2838569628097147,-5.080720020222676,-16.44747355334327,-5.109830169455745,-5.407941759057069,-11.017058458199264,-14.157477434793533,-14.920657928158706,-18.123309961629392,-11.93144793193028,-24.34052946913977,-16.929918629872606
-9.246802980249557,-8.174964069656014,-4.978967541409676,-9.265969191492324,-9.305893645597386,-1.1367795763218442,-9.22174052999154,-12.081756635034266,-15.67151046728315,-9.904341207425905,-12.874272895185442,-16.28267206135323,-15.257682960820972,-11.440166281814692
-2.360098620601027,-8.796680558888262,-5.799743218602524,-11.130526268158466,-5.418300621362166,0.8048514122152064,-12.98989370236987,-11.08338706122407,-10.90590442866819,-1.6774701405285244,-1.965079972544408,-16.14741737923754,0.8452008921788687,0.7860245670096293
5.842822550538564,-6.803411331651495,-4.424974388654297,-10.40941657725044,-2.58095134999972,2.870432278321037,-14.087428288146164,-8.237701241086725,-2.2454734257031195,13.921328212950604,11.45427868936347,-10.841729129735665,19.364492526017266,14.837790868002774
10.854421729982263,-5.655392033913349,-2.0321957648579465,-8.0142457663368,-1.4302252243113045,4.67271029954714,-10.844562917445858,-4.445784548801608,5.626797783843903,19.9359271697453,18.44696847994635,-2.709052947414041,27.02589991402156,20.433663047437296
6.78742263121111,-7.698461337007483,-0.4503511657788914,-5.094434225116821,-4.187775619683331,3.046900091962121,-4.102095223490175,-0.7149990085137183,8.967358787573165,15.27473319751627,11.925925687673915,4.499674323585008,16.579860310342497,12.4645300522161
0.4338825790381968,-12.274263701984896,-0.8207372920085607,-2.372959570544702,-3.078383775766989,3.2714488716059607,3.008473544060326,2.317491275936799,7.355880919819858,10.0335757617194,3.306101790763294,8.198380818987095,4.27307302690304,2.021166102496041
-3.765380589511297,-16.433413642862583,-2.699849555763647,-0.1212193439943591,1.3539010943319731,2.248218011315471,7.0472749473965735,4.518526273335177,3.542905902675008,0.0602996588612503,-2.782530687183164,8.452695289316498,-6.563570175981506,-6.790340468090372
-4.923424038786616,-17.455644774014278,-4.313982830467928,1.555204766671456,2.266239928481602,-0.9357037834902155,6.551198928444537,6.084247983886666,1.0816002428646518,-2.8437073582215096,-4.823452872864284,7.326867472735483,-10.779050966565942,-9.755548807254431
-2.171280203783473,-14.877716846082334,-3.8713834053159566,2.56603818734526,0.7245831246484805,-2.2038310778823176,2.8966211235739383,7.210355102822966,1.6766542048108253,2.95222178160886,-1.3832273131495496,6.873404821268971,-4.283629804890597,-4.713862325199181
1.1025798370573288,-10.409321063329475,-0.9688451657959796,2.893844872215112,-1.589901412365083,-2.91780217093193,-0.8729063792000722,7.779207478954521,4.218270279145761,6.715277585063612,0.734341656272346,7.572109167609402,-0.544240102960968,-0.1901676280259024
1.0935504330706691,-6.186993800535767,3.0515300164541896,2.6490193773553834,-5.842275668037427,-1.681562659312576,-2.303018902687434,7.278906733556258,6.037069615113674,11.392807480389347,-2.140936866208358,8.396138563619836,-1.0778974706485975,1.1605126831379933
-0.3664243965087278,-3.2037490039430345,6.131169671545841,2.017250605707682,-5.82817158359104,1.061410277081181,-1.1458181870959838,5.135555321118525,5.210302834857746,10.51523346323352,-5.2899813781606255,8.134951150071238,-1.8968759937922857,0.5428438701895892
-0.660647060859381,-1.212478770844526,7.066138004137805,1.2130388877255402,-1.0524403705138925,1.6104823560442685,0.8090912231306278,1.3538958197309692,2.0529300817367893,2.1595325241322887,-5.519078558091232,6.608139306364093,-3.740017539464967,-1.290154435176425
-0.6498473218135571,0.2975757900283975,6.292938951367939,0.5196036690909631,2.299203417390044,-0.6717032399490679,1.4112895450315892,-3.037093667883707,-1.3064555477138324,-3.8349723344304794,-4.419387047206628,4.745179450349758,-3.570552779322558,-2.2365591286059483
1.591171638571022,1.4352814922724648,5.276778273275374,0.2849452891202588,5.560647711103374,-4.353343444026458,-0.0843608686834151,-6.285898702201608,-2.7813404212574597,-9.232929978586949,0.1202986325223006,3.665181770139716,-0.2548727005348206,-0.6036319721717588
3.1902935327335453,2.267123863029726,5.149534692358326,0.7302281894016529,6.917516729659475,-6.285258109830632,-2.5468497971774484,-6.965121349575253,-1.991006968890499,-9.725357237109431,4.0467803719731,3.7211790675341136,1.9000810813384,1.088780491387639
0.9631638004764668,3.4997730098958724,5.8554065472703485,1.7039710703068804,5.23004194046381,-4.083896865613555,-4.03386388683784,-5.010460583042356,-0.3426385200437671,-3.201374071911561,3.373997577156196,4.328674336935754,1.976431656222798,1.0453693497881344
0.2546116145091752,6.296986891735548,6.467125033751086,2.706391538048333,5.098455490523973,0.7433399769315716,-3.363377706579639,-1.8364698962060464,0.4419889631641132,0.1409300445296997,2.458979337176153,4.589807011281602,2.021651267345451,0.9916129449001236
-0.3616311721313618,11.057708643372257,6.1839506755170754,3.2753938270593013,5.898217920022927,5.741229922788816,-0.854608383715485,0.6660427979515733,-0.0468386374302989,1.5842653760820544,0.7365133111494298,4.057077084548375,1.2572638525966475,0.0705924340763491
-0.8690857458806163,16.359273416711453,4.979731369457977,3.3835806357537104,6.35475983370207,7.479097472157278,2.2167284453780915,1.4527829381915796,-0.6290258048295598,2.2134229424071967,-0.9117849462563118,2.982193231074586,0.5664845635537745,-0.1006935442318803
0.6966849556861363,19.42415985058863,3.4007983496153384,3.4094257604630025,7.219711198578445,4.9201959953940255,4.715966909089612,0.8771706760572595,0.1770823891743767,0.1057693982084869,-0.2540279370062881,1.937503871061537,0.6922493885325108,1.5428647444897907
-1.2531344477633426,18.09658472898144,1.9529973162670284,3.697181890074399,7.187547661927697,1.8471953253394648,6.213036562867102,0.0962844566846392,2.564494870312446,1.3569503753995626,0.1465039972971981,1.2510843115307215,0.2907600852348335,1.7914367014081465
-4.586970567276037,12.740336072460206,0.8297123914561579,4.208308083998244,6.166023341197298,-0.3217557078277866,6.685286714366404,-0.0183568504044391,5.073544110296044,5.8614026203663965,-0.1193349894157982,0.7892654236905532,-0.6356883563561246,1.3531608553261405
-5.366458877183054,6.307661056701042,0.1506223039211072,4.671677640419734,5.4902006106363,-1.1526199841611215,6.019321611905991,0.524009274460945,5.792069698134605,6.639597799107829,-0.1770207380442454,0.2261042048212473,-1.2659650384682906,0.1424130360560365
-3.485813156722757,2.328891404307118,0.1738460945788951,5.026878141944491,4.912956651922661,-0.3694414191822038,4.090203195728757,1.1141749784706263,3.9842533199454095,4.535738929438585,-0.4481016986811441,-0.5444926393506773,-1.4771798855217722,-1.4777502285728947
1.179112890023727,2.390990150361276,0.9962979044426216,5.554832460554821,4.791875571178773,-0.0655929946380892,1.354194794130153,1.235370556639328,0.6755089924052111,1.5776085456658462,-0.5208503205556662,-1.3033257688290547,-1.0105920125919765,-0.6595861603030451
6.289709412780676,5.14107919062532,2.0300642383845897,6.4433621460482176,5.393377744216346,-0.8988672826165626,-0.9053518326987248,0.8641730265102403,-2.223274400759853,-3.508850748414104,0.0595594092137899,-1.7920040441266298,0.232259267110838,0.7284633079063002
7.593828198372504,7.55673465305229,2.056293861876732,7.268052314372522,4.470457790108732,-1.574197079478307,-1.2975599343063475,0.3524246536655955,-3.336672075694546,-6.360737639457337,0.2362001250251592,-2.0342626358782088,0.9530294454634364,1.4210195011351576
3.677612528560013,7.334481041033033,0.1608561503637497,7.095675408655663,2.032795290234509,-2.1677703685005287,0.4640658331713556,0.1081389398440375,-2.5537336071790424,-6.647505314280217,-0.3298971230649687,-2.304428347311207,0.4639614473388241,0.5768455561955685
-1.5231383812542847,4.419898507773965,-3.224856932426679,5.278769917723999,-2.118555777982339,-3.656640638917412,3.0655221803532813,0.4159805411504234,-0.6906249556927948,-7.975246919961771,-0.8176056037620798,-2.772925581300606,-0.6943075222147823,-3.679086534825397
-6.06642359847301,0.5827710148697758,-6.3536960628682735,2.1769791422605858,-8.617111323235132,-5.047661648313231,4.49409860404819,1.367811383470066,1.2736991751790736,-9.360406974088816,-1.3231993647081812,-3.250214443087078,-1.8564210322691,-7.954166782031916
-6.870111166423631,-2.338701264514877,-7.512896011243722,-1.0092222431736737,-10.845775033999043,-4.885390135477098,3.669571609094796,2.7089805887843053,2.608518401768288,-8.747682976189969,-1.09314927892607,-3.350670019385655,-1.8841894510317896,-8.308453973614235
-2.78833047982624,-3.869826930813355,-6.528142288570984,-3.223972483426328,-8.54016030631822,-2.730021183689857,1.3318054750263348,3.6956319062956826,2.8075472409860875,-6.361718425208927,-0.0627659765702533,-2.911644469980617,-0.6971782102671382,-4.748813424345053
0.739069179675134,-4.830653184833773,-4.898732016210939,-4.388460088453774,-5.244550825360374,0.995763678541954,-0.6722062902272068,3.354196082769165,1.622037650185785,-4.495677633114054,0.3664009241971472,-2.1904050827948005,0.0999328846724558,1.589750944398219
2.9234791398041637,-6.038181770755591,-4.294617227762405,-5.194730003095717,0.6555350796228975,5.676866381327566,-1.0678486045719628,1.2635317017361274,-0.6014166167884314,-2.8914811034660803,0.3771595109779118,-1.5956415099527683,-0.3109672971515438,7.898591569265691
3.321680191028757,-7.1371924767159545,-4.825109084902678,-6.046939446605096,3.2929558800968857,7.78533415815733,-0.251681978725558,-1.7206555211020031,-2.7176461531760525,-1.9153084164920549,0.1549986037593939,-1.233127373249534,-0.6040745046891725,9.52610651094416
1.7589934146735562,-6.720317523016013,-4.833081527129495,-6.298303782009857,2.001745882952308,5.936638745463364,0.180199248149929,-3.676822787737498,-3.3108468347799613,-2.1117658504442502,0.3551287100190463,-0.7625264907023439,0.7291092673631083,6.891048213048169
2.529685352964432,-3.6770178505491806,-2.523173543700418,-4.731612653511846,1.9918076623432743,3.78254936633263,-1.0221234340255254,-2.955580862140369,-1.8125435008672983,0.2000725705500979,2.420333748135219,0.2501227339225362,4.1550971854440135,4.479503302397557
5.141221954597135,1.433943407593718,2.0926338622944423,-0.9731117416067754,1.846733784636743,0.9669747717131802,-3.616206036002871,0.327218326702245,0.7835209154134537,4.997555202928527,5.519320105505035,1.8045467533638888,9.669748737214078,2.912839020372972
5.890022896737122,6.27512321646846,6.817108575840887,3.549957394213028,0.9324954186230012,-1.5084666781399887,-6.151521617988016,4.033576433068822,2.488243114770204,5.16065434497721,6.734258322980846,3.256596506959641,11.342040810049072,1.903070608999576
3.5665614783362294,8.142455749981725,8.880329697523257,6.254744598169539,-0.1920230219421083,-1.713788814359757,-7.326689501537344,5.43087455702949,1.8777239907482235,0.951890422456476,4.747212474762707,3.643206630458706,6.179088254670353,1.2723547813538731
-0.1969806347155278,5.871549182752641,7.118224879803656,5.337016932449716,-1.9659337769767704,-2.0218008426916,-7.086040050495837,3.2309891707019336,-0.7117632535489076,-4.013165402258482,0.3788569717523641,2.334402409076392,-0.4036659060711682,-0.557408436210702
-5.00978201354412,0.7322022451039891,2.826518499560016,1.360805760745147,-4.358834353881715,-2.741905649671183,-6.456255882918843,-1.4474557305400366,-3.4920610729903707,-11.212519056375063,-5.289006271159174,-0.4342550644142773,-8.703549727745605,-4.013773497721441
-7.583738784928888,-4.450014423052042,-1.3441215518032372,-2.998003181897724,-5.153680332076014,-2.2801464806038894,-6.3682231087630585,-5.948616286504732,-4.776674426157966,-12.950669219809296,-8.48346755229015,-3.539343866923684,-12.724662565354432,-6.010148931026583
-5.933049412984089,-7.301738894174345,-3.3889628077463865,-4.979063313235472,-4.202494122140204,-1.6353059159599312,-6.639941804957115,-7.950565969531226,-4.328871130106487,-8.25136709661539,-7.703822105749254,-5.566071726501221,-8.94674778546593,-6.073280457778465
-5.2016492704256,-7.46686241764104,-3.180909149918629,-3.8604978719612353,-4.332220436127725,-2.2702882186530178,-6.084182348749224,-6.788698813508636,-3.2867656096726217,-5.96404513195246,-6.292608642328737,-5.726133897446035,-7.376273107862233,-7.524596392472448
-5.237258471681999,-6.503113753445685,-2.1233088835087,-1.3702965776558007,-5.125642933851079,-2.0265022183484893,-3.638382216060315,-3.397155083088044,-2.8595580747171727,-4.350390134188569,-5.1964311739101765,-4.462664282918285,-6.282909798135216,-8.515689013214399
-3.820961853764045,-6.2698668632968815,-1.766096466624341,-0.0741886610835749,-4.2653542400511135,-1.3442542817276628,0.48578281715697,0.6836592088845164,-3.1320633324150577,-1.9500310878883296,-3.300247188729581,-3.157802810973043,-3.69396871070207,-6.7021652686091935
-1.4330390681277467,-7.231165249844253,-2.5824938580479357,-1.1806435773513804,-2.0616845203843077,-1.085784165592682,4.637261262519223,4.215056891322787,-3.0836644967480784,-0.0606742796246124,-1.104151781993443,-2.971149041810637,-1.933804921688068,-2.5971580310678952
1.9495161710928317,-8.132617612442857,-3.723767270451,-3.6345275797962553,0.569281079605037,1.0515811348869166,6.751202481267056,6.554464104716999,-1.6546855853691085,5.280351249017746,1.315100607360703,-3.661175052767192,3.0024077861003606,3.394532016575677
7.108218845619583,-7.268668063646391,-3.730496895142425,-5.153935239421916,4.026027401507045,2.4258265294385506,5.860535373000352,7.569486535719514,1.2671717842466053,14.230744895922925,5.876705068967394,-3.50031717270506,9.958292397876164,10.37779413676794
9.070859381070392,-4.14719604062034,-1.6055858330175496,-4.183573967643536,4.42006161438978,2.038867178288798,2.99675597115972,7.577109580693744,4.817768835181193,17.67315062724676,7.842749941609779,-0.6278653795075182,11.47743337807741,11.76072911390166
5.711963922783751,-0.0561019502460276,2.4052388638157574,-1.0954836439308675,1.3069516340212468,2.0755000496649623,0.7260885657915486,7.296783514371582,7.911963703375801,15.811814170442618,5.920017432936585,5.116213563517852,7.567972493638085,6.867209582414304
3.5155630902140147,2.9196797878784864,6.744847967654046,2.211509164430145,0.5915559282005601,2.0059692037710186,1.4552528501997737,7.5169789810240255,9.907569290828794,13.08663089110918,6.775683501660039,11.486117725536602,4.532186561166763,4.148000712213269
0.1370651506751773,3.5005849398305875,9.287348911491794,3.775263870581576,1.5548886709830625,3.279386740784787,5.571698892347697,8.470965553885602,10.605458039288632,7.518783110195073,6.73869739271639,15.096466392705524,0.8647153109405779,1.1856402067070628
-2.6526104120457386,2.050973046244019,8.590783920429965,2.848741743306656,1.8313056094813047,4.401499892286061,10.809425424995508,9.430940549832776,9.85644774422176,4.221140530521909,4.963484777730286,13.835194981309089,-1.057566571892877,-0.5991533549440977
-1.6442418989609395,0.0701699349919771,4.941268208470008,0.1495381794851322,2.404505267089972,2.7552804547027607,13.536306109985894,9.05159171863443,7.451619665919547,3.847224758418556,3.368279870154984,8.496341312932849,0.0173768845946267,0.6932187902569207
-2.572511348366277,-1.0535971107322224,0.3711670172852317,-2.822057742572229,-0.2825065840799335,-0.1666331014821925,11.25078185219962,6.361549526744363,3.5331612766354468,2.064512404529853,-2.9165461645899797,2.2323802459125845,-2.393698944440044,-2.498353366745352
-3.141679998090531,-0.9336177849705436,-2.60298902719061,-4.703712190272069,-6.732014539095983,-5.044267585919618,4.505476847414534,1.631289092600702,-0.9775434456000128,0.144113247159628,-10.338104320821785,-1.78741815030945,-5.536841514138221,-6.274565587176036
-1.6634069316527156,-0.1516990300928613,-2.7551486004964927,-4.842642880004305,-8.022527845582305,-7.458610710465413,-3.265000017098968,-3.6306206875823657,-4.599289933003214,-0.4613802030040663,-11.76939098135594,-2.610637525861023,-5.620022640881351,-6.153697704343544
-0.6814584045662366,0.4087612227902317,-1.0471344459233407,-3.399316139808451,-4.475537788183549,-4.560352946232696,-7.982303308708382,-7.569872511315689,-6.178838252278132,-0.0637254249235757,-8.083694810829194,-1.8300319442788424,-3.940370099145548,-4.352681985442351
0.7930980729876801,0.2071365999594085,0.2089619035538641,-1.1667829139443835,-0.7566760340290286,-1.7990719547511111,-7.5845827654772515,-9.05022864558275,-5.6928889105289056,0.2290932940936952,-3.08120377399638,-1.8452340732539476,-1.189140832169198,-0.8671534496198675
2.029769859382364,-0.7131585031649097,-0.6602322352596,0.7558983437329783,4.951933436741891,2.002602925906785,-3.158968989904163,-8.122779490103838,-4.176421725918578,0.59148928666733,1.8517575561180333,-3.643419967411013,1.1669784731570545,2.093414291131348
1.3859116478526472,-1.8401392583219511,-3.2248739652178635,1.4330684139658594,6.078910924379953,4.1748558509172735,2.151132717123886,-5.7285176113304495,-2.8039493903224955,0.444323601214146,3.0903564992294914,-6.0124511451965645,0.9023881459127102,1.8391908340680785
0.4825795463948483,-2.496234992671612,-5.327649296473044,0.6194160676686167,1.660052398837896,1.825117120619588,5.446712544528808,-3.0478040358449423,-1.993683423505665,-0.4979330518588384,0.8753092212296492,-6.758571335425437,-0.4169448079466239,0.463023888338176
0.360702717854453,-2.2484562892193205,-5.00434583791877,-0.9882375114568792,0.1369724273046205,1.4053080471956556,5.804494162405161,-0.9802283106101104,-1.3673377773226836,-1.832537429579865,0.8998051152354538,-4.723874502931029,0.2304912570177349,0.2601127347673411
0.4881365587900569,-1.304851987804966,-2.26039782028088,-2.1358518810302645,0.0674648813217123,1.3963613817838203,4.331152889450596,0.0879389768512535,-0.498781656677334,-3.8354431397688673,3.0107290512319,-0.7844952416586235,2.3266172623123325,1.3726545282132945
0.8200014673665375,-0.5726977434819851,0.854466046186733,-1.951758528831096,-0.1787329853988226,0.3546775361143841,2.811725860351036,0.3115842429421551,0.4250950378799629,-4.79296366772793,4.167207690877095,2.9429568722872155,3.691165077046328,2.464608089899161
0.1963644833001512,-1.0909832569493876,1.9053849519242985,-0.7414120244966238,0.7335426565623043,0.286976589487634,2.174193926530397,0.2340095484878297,0.7544441750278548,-4.5861622297594895,3.5949134579964137,4.805465981929263,2.7776305718333605,1.9181872293386024
-2.0642413094619365,-3.0729314244248824,0.0109603424961122,0.1704105660086607,-0.699468273651266,-1.8343922979338476,1.9219476093117736,0.4001700428923769,0.122419259025122,-1.1535198087552283,1.4075980698557196,4.650733326904426,0.0238252561764922,0.3365156252279122
-5.109163844793001,-5.381969685296772,-3.5178553819088423,-0.3792334885495485,-4.600939199872228,-5.151993339671572,0.8319041548092079,0.877214284759205,-1.0920211097569847,6.253391027315834,-2.315367742369465,3.454102424774541,-3.3112863511970905,-2.023822950840635
-6.246246987565212,-6.15268175826122,-6.211376097461235,-2.152049595697795,-4.846841169293688,-5.676107669127826,-1.7276525251208472,1.1020320033492812,-2.11469037927899,9.18612882860466,-3.8966492757016207,2.2067982430674,-4.322820199961744,-3.10818796651852
-4.265148355515894,-4.280682706999491,-6.177615223394677,-3.4485507932010195,-1.7992806136531418,-3.452078849495306,-4.929532877060675,0.3554732589506919,-2.531126506288272,7.786148362433506,-2.266768416612859,1.2866980981525558,-2.3065133929337223,-1.9260827241767768
-0.0466829567481375,-0.5101398236531534,-3.2153882845333097,-2.4995111189852723,0.9069309615014122,0.0363033552181581,-6.814953823220828,-1.4394575379693713,-2.591129739891405,3.462898008908117,-1.0612973061444224,0.7616345779859071,-0.2822652660968814,-0.7097215954514713
5.911638822355886,3.0177692595147363,1.306980595757775,0.8362697232021921,4.404701747808458,4.836687891960753,-5.689728943768291,-3.3895420304333364,-2.759521718090899,-5.895218499443196,0.422692423557095,0.9405545287458564,1.4992552491967823,0.9658541906376732
8.810206697085237,4.522509883426277,5.444819182177291,4.674302206772954,5.239329743531232,7.091806513325659,-1.6007506432580172,-4.271287206806956,-3.090290207827481,-9.27002648715566,1.7112838407375164,2.2672587505648263,2.5329837974963048,2.117893210154936
6.66632096125188,4.0785698755091815,7.734366599195587,6.513367162448345,2.66427489694952,5.015439293345875,3.310123540961972,-3.675357291133934,-3.179459176738381,-6.329532801516703,1.6564179985006455,4.551508833845213,2.317452915358961,1.6987190085819517
3.313407054217953,3.4024043138002837,7.729330035827056,5.269110214879577,1.8035627003165324,2.7590057637613032,6.05398384965198,-2.537342537189204,-2.730743300981743,-2.7971482256959384,2.1391521907156337,6.484957245011056,2.523217455180202,1.4080897371551973
-1.2700671414535651,4.102097006793676,5.928361765552667,2.119574426330358,1.8410968983221327,0.0320352505305407,4.882201658493588,-2.391645814978098,-2.018540512921329,3.9234132006450193,2.145160500214068,6.268097384490105,2.4997357831816154,0.6162736470433872
-4.268763009658704,6.090406266323373,3.3418006115974395,-0.5669921868247343,0.9370450463056238,-2.0917404888932936,0.6464067059298788,-3.924635306584445,-1.6477666365611694,5.390965240329934,0.4073817031741487,3.042203367695512,0.8429979123431898,-0.7838342793339255
-2.798081630970555,7.710300938805212,0.99732090429318,-1.2017569348754105,-0.1592615074354187,-1.6159843491781642,-3.730390254801092,-6.189551712460453,-1.8570290100681035,0.6258990170522722,-1.192381803262145,-2.1474355807166594,-1.1204414268778224,-1.4128390742554262
-1.2129132054772551,7.392917058423839,-0.436152599013158,-0.090637243937127,-1.6316160986937265,-1.200309071157049,-5.391478089051796,-7.305980950480436,-2.1900500449794187,-3.782608782103769,-1.3827222911831498,-6.864602392691444,-1.7578528286647883,-1.51195429170759
-0.0083946160795627,5.134607171959514,-0.8422287204751036,1.1463700637488,-3.625615150467728,-1.2410591889602238,-3.667577262201793,-6.068370839294541,-1.9674388031552776,-9.96533839087977,-0.523415095441619,-8.98051346000873,-1.7623853166941863,-1.4626801470159732
1.19601871499557,2.3372081521105974,-0.6398875062209459,1.1297362336604135,-3.3010829535351744,-0.6603730876963394,-0.4949235187711465,-3.002960526878772,-1.0650848384823686,-11.600894308382632,1.1711746606434683,-8.167512580455565,-0.5247631771835747,-0.5343807550839832
-0.0945885992018886,0.3096719461895945,-0.5325014076144865,-0.1956072399563289,-0.4658424317439807,-0.4140918369148739,1.1921144262669774,0.0824571792660249,-0.111790596098956,-7.449106815348517,1.432840126788427,-5.951063568429813,0.5725566316022433,0.5409730586515475
-2.587692882125137,-0.8952965823158241,-1.0723118015843207,-1.7461599677680306,0.4925718212311963,-1.1878624465760694,-0.2393825439598815,1.614641330263039,0.1671795356798142,-4.107229914951631,-1.960387775303401,-4.339030326279588,-1.838632270025636,0.4689221694756644
-4.2903107088565084,-2.0845392596904064,-2.246082961799946,-2.355696691527216,0.0227898050229628,-1.6013803709130432,-3.9754501604983528,1.45940249148574,-0.231799101476489,0.1296045787986231,-6.221672459982665,-4.243510056207949,-4.438972524424602,1.0665908701284408
-4.598175802652794,-3.497156039836057,-3.388008883552001,-1.689651708189066,-0.4889111570378287,-1.697974600140887,-7.5616855663895475,0.8081078157904535,-0.5317403763415465,1.6812875080973555,-7.6371508656500176,-4.9931843524579085,-4.916965555785948,1.2615552300922617
-2.762889958350461,-4.033004133842946,-3.5833846532628284,-0.3511810934673844,-1.8668672924716263,-1.253869925801027,-8.826868937964985,0.9806423827761704,-0.0022281424467704,-0.6433796204739948,-5.06070211114653,-5.204855078602858,-3.5220257548870397,0.101256147269262
0.9653133933586387,-2.1426550164362226,-2.355584973077089,0.7227933323420483,-1.7712727895711975,0.8101811071374097,-7.317926117026952,2.293552648184969,1.1820230851709257,-1.0877838521898615,0.9752347988453834,-4.117914926101109,1.2112283343420216,-0.2310150272114756
4.251502467965586,2.4028397445284497,-0.1165865085961206,0.9993254206626618,-0.0216198941711452,2.751476762492017,-4.282478743140988,3.938359716846159,2.0033365876689,-0.6654076652820122,6.865669512441103,-2.2098818004831555,5.1492476681734285,-2.2770692978548617
4.787182339106135,7.66435885065682,2.0419793006853943,0.689227507518618,0.225224408176707,3.1286092008478694,-1.5316797114467997,4.815982567285155,1.603665692798847,-0.4560184452876146,7.8988064423262045,-0.6642216867050905,5.12473577052925,-3.647556296060267
3.326516090887289,10.61469486377122,3.127316973069,0.5097917555372966,-0.633784497343084,1.9467590838186533,-0.2536267946074311,4.461649406714741,0.2353068274592988,0.4125092987728958,4.655728852941024,-0.2963929319265119,3.3122744036250498,-1.3100252751051626
2.027759332668486,9.345018061904725,2.9851230267744704,1.0627865995972154,-0.0092593091724036,-0.28610640609813,-0.5570975012361323,3.265336785883205,-0.855922962081566,-0.6284840298627763,1.46857531420879,-0.9357139486042634,1.3085368665919563,1.066351287777278
1.7990931845623517,4.542007205191524,2.3626144956927284,2.2644136202045395,1.713785129980495,-2.238364491891725,-1.746515377294097,1.9445236413613876,-0.6007299901144698,-3.695741718947645,0.1533113619360531,-1.7379296032500449,1.390420711034769,5.981847333869027
2.0082174290816357,-0.985544192517004,2.200034610199582,3.273714581288578,2.9172745810308784,-2.693824621072304,-2.872467398875795,0.8785477952560896,0.7509308982103473,-5.769673543694403,0.6734315899571478,-2.030257522160205,2.660597376208007,8.90358538235429
1.4452020123644014,-4.309788168777548,2.7242397978921424,3.062077975535944,3.9602643696696314,-1.82535936326245,-3.196630578247211,-0.0932673041376013,1.6416444149002594,-7.287047069867198,1.5853460318238597,-1.8789656774658527,2.4074315497771708,4.893195174765407
-0.8247402034375222,-4.330795106563478,3.133438149894049,1.2620126669961067,2.423625006316784,-0.5230556876848569,-2.4748658309346343,-1.3386806952531458,0.4685575432220776,-7.742266682376479,-0.2830556903156624,-1.919725002014637,0.0060098810704551,0.5706016846257611
-4.82406009658071,-2.271114836377944,2.2058923525842644,-1.378267884746661,-2.208828514624341,0.5369415896501067,-1.0261745332362686,-2.964702710223648,-2.945104975483732,-6.490057828044732,-4.73983368773087,-2.686475375146601,-4.889111825242246,-6.334546216831983
-6.245781884885533,-0.5178904588407676,-0.6104960805221733,-3.384084965761032,-3.860687192664526,1.2819732206097991,0.4897819564346832,-4.624436368277372,-6.916048594466956,-4.426839810979361,-6.343495985358901,-4.06762171093799,-7.000892594102956,-10.554161456489192
-3.6037527622933023,-0.7847979941991277,-4.526306539511257,-3.565884401185756,-2.863513355601612,1.7975811148425307,1.5402725872807324,-5.684622989770311,-8.89677502531714,-1.1550137882674918,-3.6556452815972498,-5.323787901599218,-4.127273412495179,-6.136855129231273
-0.7577209637793333,-2.9318221319083198,-7.787752075243826,-1.884678528799768,-1.3337803639385966,1.7877555979173363,2.10832596905032,-5.571910651371439,-7.168166464513273,1.2605609674308431,-0.114381663663608,-5.598546230156845,-1.2232939207984976,-2.439923195916949
3.260259453194155,-5.228410948144653,-8.897341116481616,0.5044263618657041,2.0036779056818195,2.039657309032637,2.621920493247014,-4.09753677757698,-2.0179598645337045,2.612135177921968,4.425906294975871,-4.501475147529195,2.515564914751117,2.761534507175845
5.063163045714497,-5.809772922616986,-7.73801919058312,2.038487070422104,2.649376163924155,1.5114254908963538,3.421153735527433,-1.6445194004853327,4.370060838312991,3.8542681882451726,5.476730414337043,-2.365646661472674,3.7395941256076655,6.627482122023537
2.4406318366246773,-4.220625814696827,-5.66322621805562,1.7341955679082195,0.2580240129905795,-0.0896435480319873,4.261453851433686,0.8820313858232076,9.189332206073548,4.405338352816066,1.5359477769852563,-0.0571020490357057,0.3546899688455225,3.436763370572824
1.0550577868150066,-1.8271545122175432,-4.4309177740650085,-0.311059589711661,-0.9261983421129744,-0.5573266232530556,4.4070577467281495,2.426707857577064,10.608562512419445,6.445036224354203,0.1105702561088642,1.5084082442247784,0.3350062696030602,1.87500737090338
-1.0395081597816442,-0.6945024081786428,-4.826166485364052,-3.1114553174629656,-1.8678688485089872,-1.990925270418279,3.3195715560892154,2.3824867125206595,8.723819509508889,10.124424737796067,-0.7600169803364689,1.8483060801731737,1.2141998588127043,-0.0264900283920592
-2.9959728160552888,-1.7756523468982124,-6.095224100583288,-5.3721280185450375,-1.5778644040166885,-2.9874313557019976,1.3028074408547852,1.0457835354343246,5.329274319764334,10.52096917082046,-1.441571865103291,1.1325639558906389,0.8720603655821453,-2.79538470050491
-1.881051477065927,-3.9508627009734063,-6.627412230778695,-6.04129943159985,0.671104700565155,-1.7791313548311365,-0.5810817285547571,-0.4831751234167534,2.7028593182939,7.79930362009707,-0.1295706496683579,0.0424613784439742,1.5687100617263028,-1.852883663820558
-1.6882631040350071,-4.864211670541785,-5.273632367085241,-4.658252480744206,2.60155002746207,-1.7142270085285505,-1.3371701989653744,-0.9894373073409248,2.2180257805213337,4.862832420741336,-2.233232180311556,-0.6045014447222314,-1.0182752105970332,-1.7719085128354386
-0.9446539800490226,-2.9604976159183103,-2.2063684584366072,-1.520675417276376,4.627154843175726,0.3411401184546007,-0.8612329330946515,0.0595818702993717,3.687217074139632,0.7293225026785259,-5.137005245923972,-0.2046938374986204,-4.282922890921685,-1.64812899385144
0.7095193565387461,1.0372360040047326,1.3067985068102672,2.352974248156187,5.913087114561145,3.1568551518245487,0.0442633762995541,2.225922530086464,5.804205239580128,0.1419161093117409,-5.190407513023168,1.4811293448183631,-4.3045149999033,0.0909676830557296
0.3942114615050396,4.590708868047894,3.911193915342974,5.5999811599009846,6.003437224786008,2.964146086678833,0.5110312135601163,4.511501191765134,7.237656688132553,3.851293690182425,-3.855327201462589,4.326447970759915,-2.6615547770483703,0.3424314094514582
0.7664312844860199,5.419224946613372,5.088626626267008,7.211433104759763,4.793407111261316,2.459785505586122,0.4916729464554663,6.066260362731804,7.486668515910349,5.509052149089446,0.6207170403077572,7.817721255506306,0.7110327820544928,0.5644160233883275
1.614711152847226,3.361402460542241,5.333473404089233,7.161931631860892,1.7968519965495002,-0.5124121522065646,0.7818891810445017,6.612695675415935,6.919604782569319,6.176264050468135,6.468276550238278,11.00920169985892,4.38083824364536,1.1670185357173142
1.5674080086028988,0.3821338754318653,5.578785928209605,6.41099657489773,0.1280421655509918,-4.105615852843865,2.0952956833816714,6.366404729416946,6.1757807386069175,6.276812395729001,8.647911395284106,12.698792403229804,5.552546968910061,0.7688951291798316
2.0369922885094693,-1.1965621934318698,6.403398899739614,6.116892763054107,-0.2201227286981687,-3.713693821753608,4.096411660527352,5.707152806448356,5.593327531768672,4.7118023960341215,6.965507128113293,12.01655955682395,4.266699205870103,0.7731219680042991
1.92057927448096,-0.5528967706681982,7.622058026232018,6.626592283655338,1.0550013235060929,-1.570243252393524,5.44868814638356,4.969644117683579,5.120686505981151,4.75278828495625,3.228845064642769,9.161716287143378,1.899089950482057,1.5307744056046857
0.6958054065484732,1.3223716465464044,8.526267383786212,7.147119888368493,4.832439692680565,2.1547753004035024,5.003959804429208,4.434056871295038,4.57830421545507,6.277588487824458,-1.5630965853170125,5.6108476060521575,-0.7087647924037932,1.8310349995318245
-0.3316441745595043,2.895104894733844,8.554726545638147,6.487124689674594,6.17988423731226,4.909934894351676,3.078278924826812,4.313014571113367,3.837893094928557,5.556837206049672,-4.078039266553496,3.340918112580724,-2.126551717922865,1.7683109125549754
-0.6278659479544546,3.4905114443314105,7.828362654321008,4.257989333756722,5.175618590282586,2.91677037792464,1.5060150338786542,4.589101794970151,2.7526739566606864,3.0048730492815383,-2.29338237706858,3.458336984706865,-1.147684806459779,1.685911753078498
-0.0760781292216935,3.4737009989874075,7.044942239447362,1.405784171031538,3.630215430191417,-0.0973474230183429,2.207371991064658,4.857082144550766,1.0927212464782698,0.2302428891882082,0.2376719744963636,5.331742455316011,0.6918661315141096,-0.0275304120987411
1.0721778277957374,3.3052626308987456,6.751558089475964,-0.4950848596274326,0.4304489813873325,-2.526784868235501,5.44141979116684,4.461700620202311,-1.2539885302029052,-3.4177576988946243,2.124040544617808,7.064453591786844,2.0488161270287426,-2.197538528468273
0.9621326754572764,2.755707078248239,6.645626465822247,-0.5919695645806478,-1.1375583970688596,-3.5095362893580053,9.353909177607065,2.9752842143774494,-3.975343141882135,-5.673428473656108,2.590343647877299,7.004139586239278,1.7860586433676338,-2.8992676335951715
-1.704252742444088,1.2423444095866465,5.677845311663409,0.4876599464192246,-0.8585776436052024,-1.405406996784741,11.34333752957291,0.6538546943496346,-6.365002172360121,-6.204040002133887,-0.6871457968653014,5.013613643919387,-1.4247439725503148,-3.092580445931147
-5.787672013001028,-1.1434949774940382,3.051087382177762,1.1704999850585605,-1.9974776087372277,0.2941806091120744,10.107010558004813,-1.595049452485794,-7.823726133779589,-8.431973688200975,-5.907288735309837,2.426544725255418,-6.219981425506271,-2.5339481270061657
-10.326278244781784,-3.224867095898947,-0.7398604277041549,0.2711518178128624,-3.896241347125532,0.172106346333355,6.568219085125353,-2.819354203791761,-8.369131615451408,-11.913603877369953,-11.095842846659398,0.8357917063919658,-11.009308882985412,-1.682437150360315
-10.486664959914432,-3.6077791281143696,-3.9190023136028,-2.059542914902336,-4.789980890724889,-0.4118992560636816,2.8917671709084214,-2.7359409546951223,-8.532583129977175,-10.721958010717778,-12.241510220626836,0.8965726487789549,-11.242104067447542,-1.0587593017916477
-4.5805733460663,-2.040306087701756,-4.697143239764339,-4.528951070999657,-5.028408774857968,-0.681838442032799,0.5429730376007598,-1.913958094724881,-8.623635324874897,-4.939427823062092,-6.9526836550030815,2.1568534771236667,-5.405736884262096,-0.392504945899554
1.0777178737771154,0.1864867471998703,-2.761237222236227,-5.7441763976686815,-3.96292081142785,-0.5689850134439485,-0.8260348040529735,-1.2358472171641548,-8.120786619794679,4.085059498581428,1.551419010403351,3.7959327562311063,1.7144613376977729,0.5166360971238271
7.341096498290151,1.3408912762634575,0.3865787827672848,-5.156898431830836,-1.2004723532027437,0.3699095172552429,-2.727344806475269,-1.1215473210714713,-5.988324658710733,17.84998422972994,12.45526644719322,5.305813808299011,10.299824870801118,2.0771870009383595
10.415433339984173,0.8582752468160519,2.602037079162144,-3.22721007116715,0.559471367329183,1.574779899848114,-6.154552779646991,-1.249857663897041,-1.8258965601431976,22.21185759712225,17.22240496552029,6.441423045363117,13.716267706127402,2.218382673295055
7.704916215233817,-0.1105140895216942,2.7400670898434663,-0.8906965259339135,1.4292160784191352,1.739937513377354,-10.481223752512898,-1.0479021010976863,3.216922822517338,16.187020304995418,11.580206347900551,6.759322278835255,8.959105069360286,1.1430472105393092
8.525315077717616,0.2383198510346682,1.3078185295987916,1.0787163798712598,3.4341577040973017,2.238658982227815,-13.891133328505497,-0.4573575084749981,6.81387503605788,8.934456759825508,4.500013500061088,5.566538789496047,5.786966855249676,1.5447207146590136
9.982677505098223,2.683308140908652,-0.3492957639831804,2.318521110095803,6.107069445800697,3.5707813864671434,-14.825169139146304,-0.1782457735259468,7.042076117911268,-3.065746818507169,-4.769115386376075,2.546349967570343,1.6843786248737866,1.9239335813981624
7.822812356470392,6.211653669845923,-1.4273959260534816,2.7098326577480565,5.671857345479388,3.792028531488766,-13.095150234526352,-1.0660599737627154,3.880881476718901,-8.985107232648579,-10.18068133184751,-1.5988258338466783,-2.046422454207293,2.228722739873753
3.9443843716726703,8.75923509965861,-2.2731164373839405,2.114469897073655,2.0471340832842064,2.3482288502565574,-9.799382365800591,-3.1945321883558115,-0.7184449362178089,-7.190552415808542,-5.946964586687128,-5.328667328713651,-1.4924365685052996,2.195577477534953
-3.643508235128172,8.68200315083594,-3.73812378196482,0.3423680827237305,-3.3295310183687685,0.230947713456368,-6.352208002241564,-5.48792529185225,-4.309604180955972,-6.572894178059772,-1.9937575848427649,-7.293958848728696,-3.3608430227385404,-1.0061149147925246
-13.655003190568223,5.711932264073305,-6.023171865680048,-2.5860966971204817,-11.438160566260075,-3.2793232756831445,-3.61449401527916,-6.374641472158238,-5.707184419918448,-4.237859506984407,1.635946225067216,-7.316448091200659,-5.774240666101174,-5.205893112207362
-16.45639678631099,0.8493414842216787,-8.181026643493713,-6.122976897566456,-14.544278503157049,-5.6835761952834885,-1.751048744769811,-5.005395651517151,-5.532814157113382,-3.3755528345233694,3.975881605090004,-6.4117482336444205,-4.917514902137956,-6.464511435359576
-10.61443607094158,-4.382529404171379,-8.759548936408372,-9.18031054122073,-12.0108700931521,-4.94252287055087,-0.5918785181443198,-2.020146012595731,-5.208675830222628,-5.084481510119675,0.8955499611774214,-5.8658191971993965,-3.267897148239633,-3.986488419127769
-5.03121852689165,-8.604258812347048,-6.998571777863479,-10.595443802173929,-10.830969640046897,-4.499132809356996,0.1188762800803928,0.8363492210449941,-5.461087603653542,-7.078046635528702,-1.8807063969676865,-6.245578998843012,-1.7447485931444375,1.3000110603425084
2.420492203394744,-10.885466942713936,-3.5264600995715583,-9.847686275832949,-9.234809633135882,-4.30694224817783,0.8097379981360007,2.0047756635670524,-5.739568179086383,-10.509838689431566,-2.8358527493249097,-7.184520454632327,0.5268730512200815,7.576721620277135
6.778756501787367,-10.858679186026784,0.0210275054456161,-7.497085052417404,-7.86340906815154,-3.3924350414946973,2.1253151209060235,1.276764792445796,-4.983431984312201,-11.197204220401895,-2.545918208984039,-7.974036644850393,1.327638216590018,9.608434526948482
3.701966409636399,-8.79299482378324,2.1163285422565394,-4.928579005415749,-7.707282041189542,-2.4818357537847957,4.509022226866208,-0.1347314286661429,-2.871721424975753,-8.776149279400105,0.4717712433973388,-8.283621860408815,1.211111824280073,6.186227347167259
3.2876957380899725,-5.514611486735475,2.288482849900518,-3.498514845623191,-3.419094852489216,0.2032358552228156,7.53138809644323,-0.6919681369346335,-0.3099048959107051,-5.29091893263646,2.32945358913603,-8.374664184000565,1.8297195436926252,0.3137203539182593
2.89631742660994,-2.0443718264833706,1.225585366718903,-3.677464754056573,4.888091375559161,5.513153036740145,9.722487051617549,0.1254206298338331,1.286488603582896,0.3768211773351105,2.498203340035027,-8.754673268078818,1.447573460790889,-6.555919020336482
0.6163782072089642,0.8778150677362007,0.0844444170899763,-4.804297913986417,8.674787317473754,8.903440929862285,9.403787183212655,1.3842610862505538,1.2059124342725625,1.7680162458847042,1.7967521613012618,-9.688731710662886,0.7181530348025494,-9.14211643583494
0.6464433658934412,3.0179455115091685,-0.3507547018962071,-5.589958558298136,8.45315050225199,8.246867051000056,6.048831804735229,1.5447104023136973,0.0359228496666048,-1.7014991560350925,-0.6608213630346316,-10.966079544022804,0.1607525115719588,-6.234536386404903
-0.0918415115069204,4.468470121392919,-0.0326612821082434,-4.9603124846015305,5.450308812984587,6.379559200062777,0.9947404136722467,-0.1549237155212637,-0.8572499827041895,-3.101566188473452,-1.9868918513751423,-12.00745924100795,-0.2107757110887871,-2.8435602745291644
-1.2110087410499248,5.304122084632581,0.5861693379338533,-2.6644212269765646,-2.317865450852989,2.671355320670856,-3.282961529720339,-2.9895361591898397,-0.4724317744994692,-3.813864222782597,-3.433204981773867,-12.162821893119194,0.3786808661933989,0.0303707252059428
-0.1884621478071106,5.439627064551722,1.0326681936069662,0.657818160113294,-5.102611497752445,-0.7673760743522454,-4.87311580120609,-5.31244486237506,1.031930073751802,-2.6551792147442663,-4.3363483462887205,-11.01878172590112,0.9682879909708402,0.9289867132665904
0.4102153891147357,4.796175130252458,1.112079385737431,3.8721766703375664,-2.664030767173738,-1.0812538797926057,-3.7239298455717673,-5.857245683172465,2.504285573084971,1.6269310393406509,-3.180472239115788,-8.582069837261209,-0.0632890889398957,-1.2842726875490165
-0.2954229090271816,3.55039911271939,0.8909656401164483,5.928146993817407,1.1495954076756774,-1.4524296749242105,-1.4756784510036525,-4.6329535401341815,2.742450418727138,1.8855341126302936,-1.0830448871587066,-5.250198980366491,-0.5566820890387648,-0.6367640852757368
-1.1395462552294848,2.173794096846649,0.507352854211625,6.335351009348109,8.724532364613358,-3.172035785956654,-0.0707973453491419,-2.718416997874961,1.444259066596409,-1.6320925480885535,3.327959565568042,-1.5814975118744528,-0.7567441941434426,3.450936620839055
-2.169100846849439,1.1770790412235712,-0.0049840733149082,5.3321351824778205,11.277110525790707,-4.231435942410862,-0.3930737928294405,-1.2805545508127807,-0.5661775143878245,-2.791029936762872,6.236963395361968,1.959654775867989,-1.283453997463356,6.016275243435776
-1.7100548612293325,0.7207525620423425,-0.786551477060506,3.659530777098041,8.194865942038009,-5.008514224197905,-1.9822170283460565,-0.7553996185916603,-1.9979231163677935,-2.767556006359717,5.60534439157983,5.034828530256668,-0.10130838940771,6.80544342047433
1.2352626483972655,0.3787302957096869,-2.083220262685593,2.06045585853434,4.225424301214042,-6.356630974353235,-3.7666438502357735,-0.8240793177710586,-2.1123728419898957,0.4202349613162635,4.573231319718301,7.198324418972625,0.6295155668981872,5.084602582855671
5.011569314819547,-0.6909460450700848,-4.02966975583373,0.8404322148324113,-2.847961532797375,-5.76073121912836,-4.917364706822951,-0.9964630868176484,-1.2796520042472892,8.039137340456588,2.088017035252474,7.7057387488680575,0.8885561178837418,0.283780729915791
6.836422700974081,-3.1251808338085496,-6.389038110976806,-0.166840665201299,-4.594026771940422,-3.344162913733417,-5.102611511300239,-1.1159922504770634,-0.5994944374760678,10.241317010331356,-0.2438658839170864,5.776792631250984,1.395279981546528,-3.0822315903467854
5.479401906482727,-6.616979664442397,-8.500732233235006,-1.199041201122263,-0.1045594052251302,-0.7294400415445166,-4.235874453590824,-1.3354467183183445,-0.8870100014188154,7.237898653934748,-0.0805554574562674,1.3396386388489532,1.1181186509691254,-2.740470380202418
0.7347752966900637,-9.69380168981278,-9.624062489680044,-2.11232605473527,3.208008593967254,2.79102740117551,-2.290651197970334,-1.7305327262789518,-1.889811799677112,3.9485429823432607,-0.9348469120377526,-4.324381373224504,0.4361838496295004,-1.2508002702819694
-5.275216602681276,-10.469687724155762,-9.500192041072808,-2.348145246198051,7.36367210324517,6.591167131759381,0.5384501784901872,-2.0563974674820718,-2.436712193032257,-1.706314039712822,-2.2227362624398106,-8.80655860066392,-0.5042443356430092,0.6813516353219873
-7.940542126855228,-8.063916491989737,-8.620314421634319,-1.4127629840040328,7.550371506365757,7.31141341910401,3.62951614594968,-1.919676491254748,-1.40418123640967,-3.148405103926238,-2.0018769929071194,-9.849310082136348,-1.1230370075303695,1.6057579981722774
-6.657116989123614,-3.604065757262269,-7.835257355267203,0.5589712247521277,2.385709528810873,5.197870329731739,6.106537075394925,-1.156209308466039,1.3387322486699915,0.5041715482057039,-2.6414542592359456,-6.888292253919609,-1.4185797550451107,-0.8733393410192487
-3.7616541349041737,0.2088352200209158,-7.565195993431722,2.719002294639264,-0.5536890239962923,3.746948812186079,7.362188400807387,0.0041963076966879,4.804872397371739,1.307387031363229,-4.672175028289742,-1.6130712744504407,-1.832314639738089,-5.309773417901888
-1.262131710148107,0.897822736431479,-7.347226608178751,4.042909666129969,-2.5343733729593807,1.0038748784202276,7.443616239849515,1.152490446665631,7.610381139230483,0.6976209298072997,-7.420914525521544,3.072489639454041,-2.3525512061030014,-9.41237591614339
-0.1004278019298673,-1.955111762343417,-6.218144325988138,4.044327361300123,-3.622107606422616,-1.391135887213299,6.903669720236611,2.052615860532164,8.845213348015015,-0.8034228646189618,-8.594029931420032,5.020445365396583,-2.388188511468317,-9.504735246308108
-0.0875551651746498,-6.351031027649469,-3.618447423867245,3.052714426373573,-2.4825790087903066,-1.348110525305377,6.254334589149536,2.754088779199936,8.400887094205952,-4.512432838280835,-5.439730251000836,4.236051824461658,-1.335211337539246,-3.695955249994828
0.1658760349359743,-9.328333621126934,0.0483733654103275,1.853554500619648,-2.8135369797935508,-2.497707619401027,5.538610340596165,3.3579637406392138,6.712773293640797,-6.343472867363214,0.9443911737701136,2.625492123100102,0.1587354261133934,2.7595225929104026
2.593557028158494,-9.042436274078476,3.748255072261987,1.068543291875308,-4.3113175148418765,-3.271327869008392,4.388685459357857,3.708515150267463,4.405916198670042,-6.4143879660355,9.2976461962149,2.37460924085487,2.2617104599933797,8.96008318704259
3.953258540994179,-5.816439604269643,6.698582995399791,0.8379337041264936,-4.652292393341238,-2.1981719115641867,2.465087326219757,3.3867128368149158,2.203059056024099,-4.93059714268441,12.904612574362194,4.326977828342264,3.436715018320237,10.823697305956886
3.203898337075867,-1.4879697297372942,8.914288783610235,0.9998595460098584,-4.400808308620672,-1.365674407190693,-0.1324011053966014,2.089523859844327,0.9149972255477116,-0.8939560972166956,8.746171707215604,7.592793403780532,2.6749428319869333,5.947911987721575
4.0526409989490695,2.15517318045642,10.903861232820445,1.4560138800762434,-4.48806910701979,-0.796705271966672,-2.797988415158492,0.0682429355226723,1.114738029424915,4.543130138863795,4.366630051152422,10.467442773863006,2.3391713649607944,3.325284582867949
3.954651778844775,4.452207596417567,12.876562829514938,2.2884585707696825,-4.665497146179496,0.1443516854608977,-4.710333119967172,-1.829953128542094,2.530271882389958,11.768228134553636,0.3835048272975272,11.695455099163732,2.125473794193351,1.2512012624044075
3.083799967497978,5.739642104544777,14.304398117690274,3.534972638131582,-4.1768624303040935,0.3611417102004425,-5.278632181393169,-2.6698108178157893,3.7829233060808103,13.977104129235352,-1.2353990681884932,11.072631084263506,1.613207356750472,-0.7030598896483334
2.3575014938398637,6.483946665167094,14.303301972215634,4.940769809213274,-3.089934980943037,0.289957903781198,-4.500288437999624,-2.1402006592230363,3.063821765517605,10.412824026673851,0.8826882094595027,9.18713454723833,1.2523522307078936,-0.2770994055069359
-1.7602654133109787,6.690287119542816,12.479517307180622,6.028273296109324,-0.6893231723260415,1.1861611146556046,-3.033752263798848,-0.8771678669809804,-0.4813580224877554,4.912028213148545,-0.6333835167444718,6.838265665816827,-0.6164048920261673,-2.2779871701810177
-6.875979008529055,6.113080726450054,9.448543935950134,6.453469051501406,3.283692997538482,1.5710258807883963,-1.8866696043789704,-0.0572450828248634,-5.748303171961905,-4.454438157373119,-5.56282009432033,4.689805065191613,-3.978701416443607,-4.788882080231224
-8.423808202006985,4.882447243197608,6.547565658821647,6.272113971881506,5.188804380887888,0.9566618378239794,-1.8258241393606849,-0.507798610293646,-10.089377358672625,-8.435136512713763,-8.335409034005078,3.2200950491914986,-5.718375171165152,-4.853798381870128
-5.867883975470722,3.75436310467558,4.9806613100237325,5.812929983400604,4.9965834529502375,0.0533446539937697,-2.8639168974699114,-2.018576643091869,-11.08512919882908,-6.135801270161298,-7.534521819123326,2.6914168253203528,-4.734709249418789,-3.452215340803733
-0.6548151402965106,3.630583759957858,5.07869910625017,5.277094358557024,6.233007840348489,-0.9575735414389168,-4.23425327616641,-3.430309263275367,-8.363421298605305,-3.203302436527632,-3.4531594061128263,3.010888121299555,-2.458253388760664,-1.433304596329691
5.6363643657121205,4.769853595470407,6.192339097577085,4.491979567607759,8.234165522560467,-1.3378910905970056,-4.942828510844306,-3.466432330599876,-3.95117119703257,2.799613796672581,3.07294588943614,3.680486001101615,1.256661516177628,0.7578111117151097
8.063516363797802,6.448091242106951,7.199919629472106,3.1002662043700706,8.839165850879752,-0.4377626692822837,-4.492614754084798,-1.6599424727265912,-0.7771753062077984,4.997978898507428,6.137927361565803,4.057250203989822,3.428835856282316,1.595000147261603
4.949324617793866,7.414795036930144,7.193427132392444,1.0067047921229175,8.43544743669607,0.6923916717052968,-3.177772437757378,1.3518693435307316,-0.4872256508266517,2.53004812284893,3.253734952609367,3.8188312486886495,1.6166896258361447,0.9800449114628136
0.6256170647294081,6.767880640295999,5.896855925598288,-1.3780185286446986,4.6708659628645535,0.6670591286193298,-1.7077356661179692,4.354914239406387,-2.322929862019357,-0.2194914432945977,0.2023724662033451,3.2370851052349785,-0.0873567608378027,0.820491838799449
-3.576478920625779,4.5255645949893655,3.659752981946777,-3.363020584692954,-3.1128978704980264,-0.046619316424237,-0.5453823610830177,6.414614179147453,-3.9222681215423942,-5.108732299489013,-1.873387603975699,2.95754926938411,-1.5832816016235944,0.8575241693207025
-5.251271200982306,1.491499880445044,1.1530929485343613,-4.478178399368801,-6.925872611006632,-1.052078178591477,0.391343413608773,7.351396553946525,-3.3035702854738744,-6.243232507489871,-2.0301326367045345,3.4035668484809958,-2.0840343302192057,0.7374017882443471
-3.121232896395403,-1.3680212089094006,-1.0163897195234668,-4.801533089984474,-6.963607889288186,-1.430167398659851,1.4011128584489114,7.538153213755919,-0.3850699070178009,-2.8847031043404043,0.9269130456824018,4.28515706236799,0.9316609493978252,0.8823193809914268
-1.022389094291284,-3.472953041686754,-2.6083141339922022,-4.862721611274296,-6.242973825101489,0.042365491719073,2.440403984174619,7.345853436888845,3.1073483957381534,0.0854571739370068,2.6516200858100065,4.66540905748186,4.143793526879956,1.1241535511704686
-0.3829971623122666,-4.73042494811844,-3.853840331964896,-5.266579342078099,-2.9732443374758755,1.7301994240497582,2.9794563977342534,6.807322722801118,5.112756899082836,4.155175565640041,2.40117071002338,3.622900823035572,7.177981377144032,1.1464067103577074
-0.3963823739720681,-5.2651083230717255,-5.282507646040031,-6.356035367857203,-1.1287875109878904,2.152872761893764,2.48392707387584,5.75230872477885,4.809235981852392,4.734897004626837,1.1673305127905254,1.0423238763062912,7.790262210613625,0.9834600061847792
-0.6526506464963113,-5.13049380566066,-7.2971475464360225,-8.0601139540336,-0.9533184883977812,1.0909031324242364,1.0536103608829706,4.169200089968289,3.085927192129006,0.8644054755807018,-0.8438845374578904,-2.130609498690422,4.049286875433454,0.644905667163951
-0.8058632977429581,-4.259038167934115,-9.724507993254695,-9.854629875497036,0.0129137634009232,-0.9295227795058578,-0.4635082065989273,2.377875530621477,1.6880526588872264,-1.4069228145653512,-1.981159325709368,-4.4933666168035415,-0.8963600812093797,-0.5438817938181622
0.7557001726784978,-2.6248622673186333,-11.690829632686173,-10.799195460304311,0.8507238869466557,-2.121329443399574,-1.0691407241710813,0.8589021000858175,1.8138473917045064,-3.224065410282112,-2.83511480336721,-5.261367410856053,-7.367486751717126,-1.7913745817309017
2.657026011447745,-0.4052710508640231,-12.01383218752708,-9.805264076832533,1.7085734117634457,-1.5674511709255547,-0.4006095782465522,-0.0569329375599956,3.24893862694228,-3.492884033388676,-2.390397859698197,-4.905797358880406,-10.0168478347394,-1.874016532806496
2.9132817053924294,2.0295725472505204,-9.918615854370564,-6.262274875119744,2.756830354091053,0.0736700183644868,1.0215576506223023,-0.3566657156937083,4.62485797789131,-1.0996715881960455,-0.275222690845942,-4.683888916516679,-6.536713487795675,-1.3340224783611214
3.262030623669821,4.280888834278159,-5.607244661063714,-0.7503505756808657,5.104556809198985,1.4442861010755024,2.293596765715801,-0.2953891554239227,4.530281598421226,0.5427798615112847,1.145434398018553,-5.357344648644812,-3.789890826302964,-0.8137912812851033
2.604662344352693,6.080380918019202,-0.3039369421606928,4.809867226893907,8.962472481411261,1.8879309565705655,2.8688836157887216,-0.2558710793028709,2.595553204342984,1.9728647539177284,4.09364479710958,-6.27660881702138,-0.0450056513788527,-0.5357082747062134
0.5797631671914946,7.311418816982414,4.236474854813849,8.023204136486303,10.103663823469985,1.3749683854898207,2.845854602303877,-0.618856783057268,-0.2759014103961128,3.059054119978135,5.684848475634113,-5.8563739193572,2.359617723664349,-0.7503848165518154
-1.1785772433405888,7.917070334716726,6.473778873815821,7.546809954268049,8.532418721288474,0.6328302033535412,2.629070953847979,-1.6157855985965384,-2.668951833959824,3.1880125390843768,3.2688351303668304,-3.20472938886925,0.431915957677702,-0.9841119283575724
-2.0179336934648777,7.844674852647053,5.757604177892649,4.174636921774628,5.146300327058532,0.1094621925448219,2.4341211131369604,-3.1377601891825577,-3.741904261996425,1.34442597683121,1.1002580265765445,0.5980550466054382,1.3681279022563866,-0.0753210735419734
-2.6673363994084127,7.12153293455599,2.6939958478229684,0.4885726990962133,-1.136809639613822,-0.6527604203045462,2.187631478283123,-4.6465890237195495,-3.715759209522695,-2.9381774113571995,-3.639129251141796,2.989533791837669,3.3944243650921897,1.60772070817655
-2.349245732888153,5.961618744878944,-1.0093765461879514,-0.8581610921518994,-4.118002191838173,-1.3317391174848858,1.82385081580118,-5.403114896562325,-3.4084679284940336,-4.830741365270771,-7.338690172878111,2.013700064680368,3.571119055336225,2.5071338286548364
-0.6564821479731111,4.703368029294975,-3.3378071988465514,1.002093202854315,-3.524207125790868,-1.7371047688469292,1.4825057487078404,-4.9904065749084765,-3.342141432623059,-4.41549634637938,-5.209552049926348,-1.820087668525069,3.880700992889002,2.29585084191419
-0.2515875791648539,3.550919354107688,-3.149569198356227,4.604801887097047,-3.8811467787011096,-1.9436491017509072,1.273648468055658,-3.733029197095224,-3.3068961593088133,-0.3687758402281011,-3.1070840973306333,-5.738703839104504,2.071849513773993,1.282969264786706
0.9379497678435376,2.389353969549937,-0.9908306779606022,7.373349730205248,-3.8084436308500655,-1.633803046792941,0.9194833793777376,-2.546021711399128,-2.733741310141749,8.732997859252004,0.7804506856176574,-6.944695945207618,-1.2420155960367076,-0.3531936192019987
2.16176365504871,0.978785295190594,1.228566253141759,7.636869559484458,-3.7928196924427575,-0.8130818715702319,-0.1198189187028582,-2.196197063011848,-1.377525196314778,11.941447999940207,4.084586802896816,-4.896261797780458,-2.888076496910001,-1.5225225563318427
1.445830433659465,-0.5786575119678936,1.671325199787452,5.823294354214305,-4.355068564723866,0.0155326586981994,-1.9541850975071144,-2.5711080610818358,0.4448202761148714,9.309372698516068,1.874917179614329,-1.5399316769489657,-2.9374593752709277,-1.672152672471439
1.4438787062195046,-1.6608473441087632,0.0203458600264703,3.8910084469850137,-2.4189600919183274,0.4325096582409166,-3.729877791981593,-2.6749396659943283,2.23531142452344,4.840838949503822,1.0110778045962503,0.6155823641666682,-1.3072022151809009,-0.9176657432845464
0.3951518079525052,-1.6679574118000602,-2.379249112114424,3.527274529570171,1.961978283937441,1.3677422649569753,-4.046764419645511,-1.4666651694758333,3.774498354770581,-4.0300088382788,1.1640138131541358,0.6270893810877993,1.2888061778896502,0.5343786771002065
-1.0039358977683472,-0.918693511848616,-3.888417694060019,4.662105094432176,4.24300483609964,2.113745929651713,-2.1794318417712795,1.1654462335192566,5.104002138602322,-6.267073755193409,0.838989459480418,-0.5598285760649482,2.908695163324279,1.9644812939386889
-0.8573139350277382,-0.8687578267013869,-4.15966506743404,5.55746349056375,4.765444353851967,1.8995534029608487,1.046622394932573,4.202134235752181,6.135872435143142,-1.071273771839196,2.3729694048742105,-1.6065176257766058,2.6064358833922405,2.256940181327304
-1.616930638554076,-3.0205154598179043,-4.332180700921756,4.3738246514905255,3.889099893979276,1.839851189352568,3.7382114659071526,6.289697328698669,6.497568674317438,2.9556982291757663,1.671673365413835,-2.236394961037297,-0.0665760266151019,0.4275424534640457
-2.234430738179358,-7.252947963138949,-5.594736859175716,0.8495148279458133,0.5673429620445269,0.5447534630116592,4.493416435852889,6.811584138348896,5.922673544936294,8.364393977476857,-1.2475400399431509,-3.037943675451527,-3.0307347134466687,-2.4252584479348647
-1.6679831947124133,-11.269635859159845,-7.607795274291888,-3.3639242175192816,-1.5638878219540056,-1.2184309371045143,3.590047402588083,6.245803498758896,4.749259070209379,9.519545790401397,-2.5814911254666586,-4.0380077782653245,-3.886470650228588,-4.093427971705816
-0.7056183822741433,-12.147592161234572,-8.525009228513358,-5.999462197889956,-2.610556194217309,-1.5350177596709824,2.623961387771029,5.52289632113728,3.821210034559369,4.917728756771513,-1.4658467130447197,-3.964630034352804,-1.6147076436059118,-2.613643590559759
