AF3,F7,F3,FC5,T7,P7,O1,O2,P8,T8,FC6,F4,F8,AF4
-2.4709695475667885,-2.0032258433833894,-0.8475141834816532,-2.9863267366685657,-0.9495158863643668,-0.2017420186165431,-0.1421718460524087,-8.192659735900419,-3.985955694571574,-8.928496919499139,0.5656475401627348,-7.965204886013282,-1.7885747031459551,-4.225131268815631
-4.625101200654356,-1.5729881320448782,-0.7551556320001527,-0.6458234977900282,-1.560994173289032,0.6341177060035245,1.223649254369812,-7.765577424247011,-4.780064581646295,-9.631807060501645,-2.0756228073830254,-10.46495795973658,-0.9905593959921584,-3.539387178621609
-3.812799218643826,-3.453391007569853,-0.1078072858861839,1.246424563422786,-1.838381623697103,0.3262433797502369,1.8812898040646664,-7.837428392772391,-7.480890606688039,-9.759247769802442,-5.109239618702432,-10.367196725752052,-0.4998259149830857,-0.4699459245234373
-1.0547144282361351,-5.440295034778988,0.2038812286814801,0.6490319978093309,-2.00193211642528,-0.4066548903581477,1.4295441189484257,-7.423571556835433,-7.890140928890413,-9.562992756197955,-6.074658282592171,-7.570739515452601,0.2426774248587125,1.815248917703146
0.0906131837200694,-5.447829938499919,-0.4336987429803585,-1.2683629921693431,-2.1950672774249824,-0.1190953769620618,-0.7204605123095202,-6.730654686806098,-6.396431241924196,-8.968356043456566,-2.75626077625985,-3.42069628154411,1.202858175360851,0.8080024178376137
2.399202558541496,-0.410362860650918,0.0799765874079184,-1.1993577921960932,-2.351506801748542,-0.3927782786674743,-1.4880358234959836,-5.097554793342386,-2.381913255322103,-7.738539782819998,2.11011346234581,-0.0409633427895812,1.1233773922636563,1.7902760449629604
3.2967385248999155,5.962945495794747,0.8029230704974777,0.5859823103724938,-2.232405826566435,-0.0203838602517255,-0.9917021308245793,-2.305637841988533,5.176285881386297,-5.841298583114082,6.355262257329668,0.9861313575838436,0.8011492164158935,2.105576709251849
2.3673395284155214,8.624649501735634,1.4693447429143922,3.388420595624375,-1.642511486536236,0.6596203763328526,-0.8410950419938831,-0.9901600528830004,7.906429169741742,-3.612259461466692,6.518470437828093,-0.3431931735794506,0.120989681466021,0.7310661603325371
2.654481349327357,7.120793832215234,2.219909263250225,5.461917231796273,-0.6852631288179367,0.1856805723257344,-0.4317226092427341,-1.1215832282952647,5.68575495108341,-1.5211732341747677,2.228276725364264,-2.477619518402605,-1.0443050572279686,1.2770059614611222
2.681211997595572,4.277767465836706,1.265627882535848,4.318141351589538,0.1516222067434682,0.4442575093271591,-1.6003396726505943,-0.8597110482908271,3.590899805722386,0.1970252581277236,-0.0261242976249557,-3.3987073456606254,0.0539153847111039,1.4724016804793496
3.0096190226170454,4.390855645247065,0.0184071398402395,2.055609544231858,0.2198318347855092,0.4983623052737471,-4.648578153736402,-0.7280353935833366,-0.2287965702028271,1.5981082463890743,0.216185389609004,-1.9972388792392053,1.8794926536634269,2.6162963405161124
2.646574136669102,6.054133038645403,-0.8035790041716241,-0.2960646107565223,-0.8141481821650274,0.1511640184665009,-4.55138082612055,-0.1641519294477009,-1.3355950100244751,2.678567130581328,2.0749943832620024,1.2221604318362296,2.979045381553235,4.487303684183754
0.1548960534984796,5.275498174296054,-1.4327785185904447,-1.9739984962373651,-2.539702943266775,0.3680792390021545,-1.4513772063611463,1.1092308610894444,1.091339734776804,3.066329792545318,3.643504945022612,4.542387399111263,2.785434145324003,3.609426099876126
-1.3871198096582666,1.4102355786861094,0.0269119410094264,-0.3275459950387513,-3.8287683655377016,-0.1698909897774109,1.72440034405348,1.391185581895755,1.6436019360222558,2.2516907510590816,1.2001919597615631,6.17641715317418,0.243519176426309,0.77213676501995
-2.6237235436556925,-8.465548654352721,1.50931923538236,0.3425834292779678,-3.510168398538497,-0.5844175250133601,5.990158277384472,0.7985878964942302,1.3933458746694212,0.251050817765865,-2.5287282935826427,5.325601707631745,-2.291377203019781,-3.824476784569792
-2.437447524337464,-15.698415501574388,1.5520645209157362,-0.6633207887413006,-1.3494581552901508,-0.6443703021010115,6.57904477546646,0.4494048395862545,0.5356447988385232,-2.0360339044249685,-4.921503553742083,2.489095470131556,-3.7107527132078912,-6.983831029248128
-0.715184337417849,-12.465431176378496,0.7023951536279789,-1.585333784529389,1.45726824914572,-0.9555010434054444,2.75055338963309,0.0606132981670005,-1.7785098365814862,-3.3681578093372337,-4.975599194059751,-1.0588742130214044,-3.463398037973837,-5.998855632804836
-2.8130783718457355,-6.546000756213666,-2.4857029647949944,-5.542019848236584,2.8995925895239623,-0.6151086218793589,0.7209862788829632,-0.139808917906598,-3.923354268345416,-3.264785262154362,-3.085471739965917,-4.152060696971304,-1.3974864330442835,-4.01876450537163
-5.842973839332018,2.780100047670782,-5.859651900262135,-7.839242234471465,1.6289054931276468,-0.6548072951207413,-0.5837092380096933,0.0294161321581035,-6.111680611511962,-2.5819057344876484,-3.798462028720683,-6.329320279139353,-0.8256186698875956,-1.837789990423224
-6.507704050923549,9.2158071669759,-6.201266091842862,-5.787323486288228,-1.8427430944596492,-0.8965787509249974,-0.7540834589848543,0.6172476395709195,-6.4788729456100285,-2.815691097941197,-5.028073936920139,-7.768790079705383,-1.0644934651350666,-0.3103564636591221
-4.494428984312389,5.927588688506669,-3.4045763642026845,-2.1042216698900766,-5.33888988649997,-0.5046513825383975,1.3505141796789972,1.783096194399673,-4.5370109121448685,-4.630238987246827,-2.8695507196399834,-8.701617542837681,-0.297190940134046,-0.444664535143183
1.7721632452440148,2.935781432741428,1.1090612691025918,3.3141237238160204,-6.609527562417043,-0.6433488522537709,2.163513125435604,2.736731941026469,-1.7517756103600457,-7.006732137171269,-0.6058739393880408,-8.877853378088275,-1.0455634779884069,0.1700620289140711
8.381316108146585,1.444721073047064,5.976523782413305,8.290158865864239,-5.039110194384534,-0.0503360971287168,2.033892117653572,3.5098158455266435,2.5179206113928467,-7.960237336552439,5.903374731394269,-7.660946804625183,0.6336621362418615,2.9950067856512885
9.680678143002442,0.1330629190471147,7.564203062238827,8.601329124435882,-2.006686639046848,1.2305167890619275,2.498231741590267,3.5974891154468533,4.0599395013078,-6.301280388031614,11.09703626807798,-4.796324410635918,3.753925793543474,5.268986186110035
5.69123776940364,1.14155166658851,4.600505564839406,4.937475808856247,0.39137342232641,1.84693382587377,2.964935882660546,2.7513305537456207,2.417328592937299,-2.8422682971139466,7.252451125756889,-1.179702415309464,3.6349067971368103,5.272159751514928
0.5235909770151164,0.5996516062850243,1.1434344137993684,1.2562965032136448,1.0807020590409024,2.72081549797349,2.110903559463008,2.028328486718744,0.7515608454965076,0.1312057061812197,3.501740219538702,1.2814238851022424,3.84956022118732,4.199684715485714
-3.555246971784012,-3.306480854035628,-2.2294248647933785,-3.1078286941604367,0.6855920625162071,2.881884171447864,-0.0900350663828339,1.2553221444382832,-2.0255700875558293,0.7344963645603002,-2.5615321522716914,0.9445432629220818,1.6295751898824893,0.5737613102750353
-4.325712702644452,-5.173335865013188,-3.7549808072536552,-5.40407616083124,0.6816314595939161,1.4279112396649758,-1.2951596961682317,0.3885351843441703,-3.766215284729846,-0.938255446229789,-7.134279609218049,-2.0774802798355267,-2.388922681544696,-3.186625485973976
-2.3056725306604857,-3.2973752205954554,-2.031501589531348,-3.732728248644276,1.9609811511957105,-0.2765155469434713,-1.6769109867279024,-0.3899909700380534,-4.003415781686999,-2.932091886856369,-3.63791911962578,-5.641861385998709,-3.1289443766394207,-3.6393921833432623
-0.9335979744809142,-0.7121050493041648,-0.5209701433727603,-1.9882959923528247,4.135791917361985,-1.4482566877134535,0.9056649158506714,-0.7797188849396296,-4.300229771617269,-3.1272799231553563,-2.034714459477444,-7.060921119424961,-2.9246068758836867,-2.9400775639819567
-0.8474465517998873,3.840987411159497,0.0183887278298267,0.5304458779390631,6.036758727866186,-2.5861113433965675,7.231071780997714,-0.6661445519833621,-3.9983033443574167,-0.9971202635501868,-1.0593401359222754,-5.2195967831471535,-1.8680392766073648,-1.5788466449321912
-0.6777819739156772,5.458618345597484,-0.0689722062247102,2.635890201092613,6.728514407482408,-2.403396384078974,10.178538153135143,0.4733935931866302,-2.3455000193620354,2.106676747626352,0.2872005083877842,-1.3883588943242555,0.2779848728988169,0.7317408284746377
0.2874553271502512,1.552602784142728,-0.7613888039511609,1.926868773423068,6.080776985184912,-1.0450824768553408,10.052228155186716,2.850744726015991,0.6937540002140952,4.322837308136059,-0.7368727430924338,2.122542478633818,1.2350506105068295,1.9013956666531031
1.3167381182939115,-0.8511987452848875,-0.5536475874659716,0.5412483028158779,4.606676862049881,-0.912316656314634,8.333218136993722,4.603237212280108,3.327059430079272,5.005492953439557,1.736495552174362,4.211903941032915,1.5674673985220102,1.5288342438182791
3.23883822952997,-3.2176197820440207,1.5253946322354748,-0.5640960270958075,3.025208719483089,0.0495863108452959,3.3841906512653828,5.811964884037978,5.63164656850462,5.224821477322621,6.423826743810273,5.878041875681447,3.5065087410029783,2.607681161364181
3.4270755422119685,-3.833808389072576,3.3657946236103906,-1.32732678471633,2.0288601531989343,1.210294271171081,1.7288201234866354,6.418117379614617,6.620978953175216,6.609789104318111,7.779175082991295,8.792728562415277,4.338478720993234,2.8681076979977096
0.9419066098407128,-0.6537307995054886,3.182595556760712,-0.852407487010862,2.185111607194244,0.8503000054527801,3.534564124388702,5.948718887597983,5.736004300589367,9.619511163079096,5.026296098156565,13.028041244208223,2.066139104796699,0.8306919660649279
-0.4143351738902365,-0.5866699391497683,1.307982400658509,0.0876014526381486,3.609431370557104,1.3990849733371762,4.349421860790901,5.977982438867108,5.460041221502405,12.848353623214962,-0.3559290670814647,16.425754057443555,0.3093583357060938,0.9515440288500344
-2.62869422202225,-0.4458449375287846,-2.242360789200926,0.0499743273702021,5.475128322610999,0.952195744190063,5.566758706180215,6.385410588919751,5.456452290087638,14.03858273904757,-7.356096642276559,16.490270118443732,-3.244416794078697,-0.8118367798730433
-3.103986870454405,1.5077812034847642,-4.432438144727684,0.4059024282541389,6.038043915724984,-0.5607219510491094,4.421567711670794,5.833672843472189,5.025291325636267,11.944593546493593,-10.65741668097284,12.998088467643242,-5.835216879043916,-3.4338307263424133
-0.27806528749705,2.6273086878852974,-3.225610012438524,1.5258133596331656,3.7065069236171553,-0.7408730895462381,0.1817934822294495,4.53657257781149,4.573955488920224,7.438766465844708,-7.474715282520448,8.58167631115299,-3.5926135466292224,-3.0791596919598883
-0.1611384551552621,5.698618537280774,-1.0751366024510047,1.705252126637402,-1.3720734300799222,-1.0354967458249922,-2.4703693011408103,3.745333694886134,4.530819691997749,2.927050688979193,-3.242463331423713,6.477440857414194,-3.034841220601912,-5.196900302424596
0.4306927539159551,6.93115704130703,0.8338756518041877,1.967535621863252,-6.680054815727772,-0.9427058581001462,-4.182631217787448,3.329706685184977,4.960344182171681,0.604065402694232,1.3561796777632913,7.528887251699871,-2.7722913479288827,-6.655364141057337
0.8265568934849419,3.2654978541129838,1.2655347303362046,0.9649164267230826,-8.709351113383718,-0.1033999869620442,-4.397123487774606,3.6744466439284538,5.680342741373926,1.019155865465109,4.503728141596663,9.406012752627475,-1.9039119404096896,-4.927426536084424
-1.2629942348619227,-0.8013885642426547,-0.2336231618530274,-1.18165891822448,-5.665414676606929,0.1462537068004367,-2.1450511815286992,5.105969264606725,6.847826804981646,3.048699575363002,3.6673424135878334,8.876672817958934,-2.035881635991589,-2.732556525981993
0.8048229232049386,-3.390118118020624,-0.6096357902980322,-0.52934831649402,0.7040049892069646,0.1424656330608868,-1.3438103413444324,4.646451310492455,6.355399075436777,5.091788486838254,1.1653942267568027,4.967166848965007,0.2173976954639464,1.3422645875675092
3.021544923310345,-3.811320682474003,1.1306666211876486,1.0563744333167733,5.977511681331066,0.2845796589561797,-1.717269878676718,2.277569546437564,4.0275098662336255,6.310017379416763,-1.2827176231910136,-0.0133217759648687,3.86203331364055,6.228316639823576
2.7322622183740526,-0.9610733528779414,2.7742102341311186,2.3335425699962977,6.233032095810131,0.3590953852129631,-1.675035516831073,1.344302413125968,2.8798106811112563,6.878208624733816,-1.8568617488880643,-2.508966442901283,6.521885347913371,8.501573367409414
2.2931521035642226,0.5478730191594926,2.9208049495731543,2.1895501084730093,1.0282520743259056,0.4296751846733079,-1.951106189114273,1.3595378002323135,2.5381866664766464,7.2677852155710525,0.6279545591609317,-0.831695077042923,7.223770279556319,8.022536801387531
-2.1937462183515968,-3.600918599033626,1.0930625432075618,-3.029740499535348,-6.277594091539413,0.6305158017607714,-1.3169352605171272,2.679243614840068,2.8024514363612187,7.494902865248491,5.624441786676504,3.5006129746373063,5.774225345229438,6.810854098822695
-6.98093033282195,-9.227861542979506,-2.602119229332746,-9.57126260298703,-11.096058039109494,0.6434464606889172,0.3944916990425012,6.000455190166343,4.277154423046024,7.155144317503755,10.238041566476191,7.207069926525833,3.973409316037349,4.947230532699999
-7.374699905629138,-11.18902550059763,-4.613892771373256,-11.436967802244803,-10.91095880294165,0.3284345593401295,-0.7368483307014929,4.863666046544787,3.404937995938188,6.1034130708027305,9.61463778967447,7.883690165235635,1.5871314828288867,2.0315381827389483
-4.466481984807449,-7.551182458143473,-2.797831050462737,-7.260421735874477,-6.70909034247461,-0.0350994542385549,-4.7080627475777215,-0.92094257670997,0.0910237924109529,4.861145997531025,3.329973574441391,5.431930368323947,-0.985061873801231,-0.4768616380963164
0.9598406238574662,2.1927139231453814,-0.1465178009506487,1.8622359929125547,-1.703626476993918,-0.4192761850359713,-8.207393063306645,-6.520508343120608,-2.486771827008854,4.109874345582057,-2.893958498580616,1.3521108030090545,-0.7196613392777322,-1.887944764666284
6.347829081409943,12.245720562596375,2.509612926566613,11.963590864254511,1.2777400593012658,-0.9532134089107692,-11.985112021000512,-13.327186157633626,-5.026273758976351,3.716349485614046,-7.535482559220979,-2.949108421917799,-1.3483389904659902,-4.086690710063296
7.771008921503087,13.726464593927655,3.4041199163425317,14.672039161768806,1.6040851592344438,-1.0390920271366282,-12.20747482760262,-15.541396772906976,-6.171227750888372,2.4520051990409684,-7.817971508355125,-7.061191750630144,-2.6894566651314946,-4.673237877954232
4.683275177649143,7.5849583066909725,1.1346328499871332,8.42409667770503,0.7404390442143836,-0.5306429954344734,-7.977912681919369,-12.012148671824626,-5.29225922382723,-0.988146377629846,-4.066543410946263,-11.080253305442398,-3.2458988835465954,-4.100395236178655
0.2710163421471486,1.45102567385931,-0.5160092320158797,0.4977066768412275,0.7289892103530065,-0.0117732267041521,-5.041684084623219,-10.467997593903393,-5.720821291608366,-6.458582919542778,-5.290648998438837,-14.65861498034269,-8.486691838737068,-7.88808022997064
-3.749839452858696,-2.0179623428168623,-0.7840952279401003,-7.08806517011897,2.5829667939931937,1.0379962232439204,-2.437058860849747,-9.483898670445123,-7.092223673845116,-11.899567048683592,-9.6488625138945,-16.841257614775714,-13.47998906495028,-11.42373789305226
-5.61175716429748,-1.043635165218282,-0.2622046252431709,-9.382974934532792,5.642815976426164,1.6740662858520192,-1.593782016649539,-8.835095765431715,-6.940088183155105,-14.675752475164272,-11.013074634565388,-16.891216909023342,-12.202730007459428,-10.672408857767678
-4.257096580958902,1.861944629641066,0.8277577854465262,-4.548934400652969,8.112701859960026,0.8842371164926053,-3.6821683241624834,-9.802438097363886,-5.708857622566147,-13.683255457631333,-7.523635505047332,-15.150473586098968,-5.744621158738679,-6.171317758912216
-2.003294989018308,-0.347904797137799,0.3778399451570154,-0.4826375388965297,8.295199620035163,0.1985934563504872,-4.893001201596399,-8.85852038142944,-4.237805985607655,-10.268899015430094,1.5796905191916022,-12.931637091188207,4.245217452988372,3.558641558590844
-0.610987116591692,-6.500054713692526,-1.4499700774736084,2.4274126828708638,5.7456739986870105,-1.020188858083275,-5.858801846611752,-6.242122881848652,-2.157625821489652,-7.009557245915971,13.256907851368066,-11.468471169414189,15.040594850543432,14.360754009943271
1.2034013852019956,-9.345862404746043,-2.5933799001499924,3.677637686886768,1.6558591860671044,-2.052272738700319,-6.492432331177575,-6.143030649309491,-1.9699264415197464,-5.453627615342157,17.519791017578235,-10.935525559411133,17.45507295929979,16.604702855504858
3.3336801069619577,-6.27651626177999,-1.955424802132654,1.5441211893618996,-1.8031859365891592,-1.247950582333734,-6.130123612068176,-8.197340253225365,-3.977632358415799,-4.972470445841054,11.485463801088256,-10.477235006031506,9.811783217872431,10.112485806727715
4.3789736497189375,0.0652391578653572,0.1861446001499426,0.1517846782010561,-2.82137803700816,-0.2951466464003457,-5.349506922040746,-9.082178866949484,-3.840578699601789,-3.7903721765999023,4.72943561715029,-9.183223158059718,2.928469430794085,3.325732350013024
7.521144363955547,7.753062993596077,2.713174662138325,-0.2048757239813744,-1.1110586754622709,1.1323548612982337,-3.836102660189132,-9.435177196012177,-1.970095899531215,-1.1125137103962253,-1.3903224121983948,-7.048327812935167,-4.03719286759416,-2.967457054404633
7.878833513490636,9.41137421362312,3.2764156037016443,-0.7442056730861576,1.9316412198210229,2.286980209894081,-2.138234538881969,-7.980784448048473,-1.4221012453835695,1.7892187829199957,-4.150588471432205,-5.0267344145685104,-7.172889066432284,-4.784359819809913
2.6088939765847696,3.730317894595101,1.2082287735037682,-0.2511799500589363,4.222256963328107,1.5771069105396265,-0.2646123642936732,-4.001780341028666,-1.541236612286926,2.5958290512561675,-1.837730321285338,-4.188163390188006,-3.275824733089936,-1.245801237232912
-0.8442121322790208,-1.1263576467774452,-1.123480063404068,-0.0698656457385685,4.440029485572509,0.3248012367998293,1.4106275363319385,-2.534366612670699,-3.7546664313568985,0.0606252506218538,-2.631024871028346,-4.782479564561289,-2.842217983566227,-1.7353937579264267
-8.152243950410112,-5.613994036437543,-3.043462245111374,-1.184027097659722,2.8644769472013536,-1.4358588800971144,2.704539458217124,-3.359111372991104,-8.712344035578298,-4.759229267373293,-7.025329741560455,-5.994815956295639,-4.061911426971794,-4.904120429843536
-12.600277677272867,-6.165022116583221,-2.9270463953606662,-1.4532052312650132,0.9793419247600356,-2.5481643958893088,3.114940234737325,-2.269375397342797,-8.76950180776876,-9.176101317108404,-8.459037689382118,-6.476329333444596,-3.3554374273408234,-5.558019880096317
-6.870102449094829,-1.3801037164967385,-0.2794065284477871,-0.6886204302464973,0.1924127686468324,-1.687195169045707,2.3803654593724377,-0.0878619304442866,-3.880451375544086,-10.68966754445593,-5.273555659924142,-5.123516477329204,-2.1900872876048254,-3.6976701859690335
-3.7228062353294895,0.8935655780168017,1.82272749248484,0.3300444762093726,0.7231821200549291,-0.2733156172856831,1.2272267753553914,5.053841732203292,1.6838770181140734,-8.385227660758119,0.6684361680765886,-1.5739843508914362,2.247368403640833,1.0686089454621022
3.5110153763675984,4.220976165223494,4.082388284663888,3.183378063621129,1.5517037737641033,1.44171428349814,-0.5682230935926288,14.069885902690842,9.626187054931082,-3.084265309212753,11.025907706129356,3.695291594937388,9.306162618520217,7.797641938220869
9.636954044906402,6.680976532897301,4.706071392273335,4.83377975731247,1.413852585779097,2.3121638119448638,-1.4562301715126151,16.710145036198643,11.64332365022476,3.362840487430674,15.60366749241465,9.492141278070475,10.975745502231776,9.069693997297414
4.643429840990995,3.483052504253232,2.101917132014516,2.8080903855199515,-0.0617536719931308,1.3795498977407172,-1.212984324007754,12.92761378394857,6.654838956350987,8.843853834652862,8.462739534579844,14.156138007938663,5.306979101339871,3.7037997605210258
2.9912293832483154,1.7371903441987593,-0.0349223438525292,0.5978647456337977,-2.0667387454328434,-0.1498668082568989,-1.20564310751225,7.304724297680698,2.108228193357293,11.528777417670142,1.1076626858509897,16.002687607608436,-1.0771697210626487,-0.1960782053913739
-0.4936495911517877,-2.637572176772097,-3.1777552095963064,-3.174412824672495,-3.372171063057408,-1.7984382290810337,-1.0225053111717377,-2.549178085241184,-4.098807296331421,10.41320582548559,-9.39938452220589,13.970642094132415,-9.236535152683938,-3.5338165853710723
-4.526528873890505,-7.80067377865493,-5.052450982890201,-5.7141219691880565,-3.386677154632821,-2.231174035740858,1.1124549605449647,-4.390805337159372,-5.805306032082162,5.88483598425762,-15.59251131907318,8.218358886739736,-12.338485606932483,-4.174947600824819
-0.5892713492918461,-6.100242519827937,-2.99795392102986,-3.347828040435476,-2.553711161551917,-0.9267046371527604,5.243339177117768,2.9608820421488025,-1.5350461951985068,-0.1738705583107673,-8.922294372245851,0.2968962755779216,-5.921987663923147,-0.9679844670132404
-0.5624684696196521,-3.8670815479026337,-1.954444996052273,-1.3623851100263351,-1.8086794683771077,0.589201565098073,10.693229557569326,9.185740125856798,1.853528200199762,-5.188604603740572,-3.8376704622194864,-7.274067896396133,-1.3824713027586382,-2.744314647918177
-0.9815626204996905,0.1321106120517228,-0.6063635844571967,0.5941931861201717,-1.6982039878620014,2.0980404207190526,17.935134179992755,17.222241455980726,6.129299600396016,-7.282480326372479,2.347178316428094,-11.885214178872047,3.847838035010064,-6.737394746544316
0.2476855178085593,4.311152967704594,0.511024754206593,1.593606518136574,-2.001228984468554,2.3164247252242074,21.27816946101628,18.812345215712504,7.629906474191037,-6.269245350082713,7.3905525302791535,-11.851032727724656,7.064166087344016,-7.7337364101533
-1.5196221807166752,2.943176755225936,-0.6492895870925756,-0.378753619443829,-2.1276574722175496,0.4794561830832489,20.218330262677902,11.93904455854448,5.129726539323961,-3.509741918823579,3.940885314617663,-7.205158526723466,3.305198156691073,-5.623531857327004
0.9906358807583232,0.7123239862733094,0.1917847193245501,-0.5007607237039984,-1.8181693288188685,-0.6472235782038709,18.855010858981306,7.856106803593472,3.217217888515903,-0.8476160391514895,1.965941112529756,0.0953907461222343,1.2912619741434366,1.600408584289604
4.402254179716092,-0.6929684064091741,2.046208356336586,1.2230170694587197,-1.440882222030666,-1.653202725119717,15.74684294820336,4.388378716339339,0.7188786118422007,0.4685681733639057,0.3656922060973064,6.865099425372165,-1.872726316600589,11.084918609715873
4.510994537355846,-0.7179704730658711,3.0410481647182004,2.996351515353441,-1.6112772646982592,-2.139887979187674,13.087824897663062,2.618576342013836,-0.8182728697567204,0.1848768589903215,-1.221231369623805,10.21143771363134,-4.59145436013472,14.132274376461863
2.956781154701237,1.5859000474947358,3.5415671431943707,3.9562334077526815,-2.490355382045607,-0.5801139397115759,11.409389320305875,4.484132455050282,-0.672522425984763,-1.187421037167951,1.0901533136480317,9.155195996207084,-2.013414545873912,8.66152839607429
-2.912506750860356,2.993261484519928,1.8517686430774605,1.643333311000416,-3.4051484883318324,0.4097302792715102,8.98778437550983,2.9341172580491266,-1.3661031572985791,-2.774005961867715,2.123075887177832,5.247215401256341,0.1213561961146742,0.4089643961128568
-9.226680119261063,2.342274111561788,-0.5776804746806979,-2.23856503791196,-3.198670696804584,1.8263769482785084,6.498305286222665,-1.4483506229828778,-2.3666931997049176,-3.675835909501558,2.0830769146198733,1.564904799271119,4.263133006662434,-9.112672938391606
-9.90591466430286,0.3813621538206739,-1.7602143374777377,-4.276258217653402,-1.1531723967291896,3.050658267620281,4.019788108752438,-3.653526848667031,-2.5354993074986294,-3.3395230768525157,1.5935340023854496,0.6515258366619321,7.599655827421396,-12.63921203500592
-5.269860641419934,-1.6913585753836506,-1.6444106033271844,-3.314228186154843,2.1811960591106754,2.1481047303925465,1.4860184083208017,-4.723502999720184,-2.1265843886965925,-1.953240268028054,-0.6428393403138393,2.8710116292875227,4.436713071833489,-6.464350020371464
2.440103174797817,-1.4422931465748885,-0.1330087760972608,0.2564060903211465,5.009276532030583,0.7803370758113846,-3.5419759089237752,-4.943235707574179,-1.2692250032810473,-0.4972788536738051,-0.9301936763284572,6.400536563724472,0.9709925934539224,0.1035157435135603
10.331820903962909,-0.7451766767892455,0.3000929567917153,2.7950599177253688,5.395452282974773,-1.7691162736220842,-11.299810419270814,-3.5031588742516773,0.2225582474291612,-0.1087052541507205,-0.4528270157888755,8.805921601721366,-4.692816803643557,6.177084877870605
11.767727786661672,-0.7269760087839019,-0.6101535835570867,2.109577796062436,2.788297094724271,-3.629012181812853,-14.187376541429492,-3.198200809003826,1.1883007381258774,-1.0580029089375105,-0.6783905875550384,8.926815584492488,-9.355365758882472,8.128651020058488
5.894668215150814,-0.4968103988341915,-1.315651532914662,-0.2089779934250244,-1.25478139907014,-2.808795311742144,-12.24451491632964,-3.982259133052507,1.5666448740796586,-2.244476207358005,-0.954632588326887,7.652074923231751,-6.436096938189159,2.789148234848718
-0.776454931598126,-1.2504080203272032,-2.1392500505218432,-2.1835455624682227,-3.94882977426117,-1.5500017542886473,-7.789072427786686,-2.934551585705805,2.7711635086641797,-1.8843490083863517,-3.64417946622777,7.113806315467372,-2.604035503187497,-0.8126203067919034
-7.74047793574169,0.0550946596115183,-0.7020012780440676,-1.0637647174841,-3.297480127189502,0.3333384277088846,1.0404305642430214,-0.4755393146025938,4.595135058421041,0.9942148089778584,-6.368058960559262,9.011244894843514,2.8161532936071416,-2.019036066257707
-10.1673252995299,2.78092388651751,1.6951584932452597,1.8837014102924283,0.32131229534113,1.553781317935043,4.3504930333191965,1.947019345044743,6.097238281770959,5.516668819379703,-5.892519849240561,13.304085421854126,7.057730645200903,-1.3621475546787354
-5.307181314824103,3.321178475677523,1.8248296042917755,2.860451885276532,4.390331539625649,0.476656609788877,1.5318910011372526,4.766389429032063,7.456698991870599,9.4055776971708,-3.327736338906964,18.15042650243404,4.312079785290834,1.6487245940050657
-0.5378322891215155,2.563852339421187,1.344066344751324,1.51508483386081,6.218791619052695,0.0602235348838388,-0.0215658140015137,7.012684924097869,8.296515087898932,10.643317782774282,1.0425039949254593,21.08807981041976,0.9790044902921866,1.3320900759435337
4.939420350896876,-0.671207846421091,-0.7139999290193049,-2.1843823381759573,5.02018557709534,0.5526165346718555,-2.5881102462010595,8.407401030725628,8.406328128038771,8.972175164390492,5.490750183323396,20.645999019228988,-2.1080662420224785,-1.5877959599497102
7.874500287640409,-4.375348297719023,-2.943192729596388,-5.065951639717826,2.3311046406274727,0.9479324518574946,-4.387696602312583,7.762908796102337,7.042113623357886,5.965332209258172,6.38287110236493,17.278810874774635,-3.861362597173151,-4.064270366496399
4.095576628743399,-4.824012771125529,-2.116219444660017,-3.7947334558173766,0.4455388474333546,1.670320644951787,-4.488773376685381,4.545772192397018,3.90972022533035,3.6647209470839854,4.781576318559687,12.944701800790572,-1.1202097876579016,-4.764614492532836
0.1989456521790356,-3.445028529264469,-0.2162210590851329,-0.4760459076703135,0.2952504343959461,1.28960766960595,-5.823609419364293,1.5521400775740803,0.6803608720518725,3.01006086311034,4.066725809420641,9.59986733387446,1.2885459526832066,-1.7292679542479563
-4.034736744016147,-1.2761765831609777,2.555686413632545,3.5296421890280385,0.6775644349029246,-0.2832007742119923,-7.7678099962987455,-1.5806327347560585,-2.8602587714157344,3.3597411507001915,4.216571742483386,7.742671356091815,2.0994335124992496,2.421578894625485
-6.297579438471949,1.1498857685393418,4.6043411786223984,5.531859920770979,-0.5067630939888206,-1.2050698555032442,-8.299008897386607,-2.964783594898542,-4.372105275616296,3.336491126641431,4.1860431204102655,6.17813853727028,1.9144383049105784,4.543456824394419
-2.623356911812801,2.102245830892894,3.6073910576782455,3.750186308073933,-4.150759399966925,-0.7643416189154617,-7.633268385941584,-1.852390823088072,-3.2808969379268325,2.090187572283884,3.426926368292175,3.2285050832433235,0.539016550894011,4.023656297281683
-0.2255979872960793,0.8283491824038199,0.3519009369645664,-0.0084891335957766,-8.871534694335654,-0.0180608860423394,-8.275543134121659,-3.0245024258644144,-3.7630821144962185,-0.11066832111739,-0.7036577515926401,-1.6033265135493568,-0.3691338435218587,-0.2324689313482275
0.7992423753868725,-0.372860162864016,-4.498764472424948,-4.554227288614099,-11.93439151554688,0.3785488673193029,-10.010427193598288,-6.033394214685214,-5.273944290962487,-2.254918248742946,-7.963431891520098,-6.942512081751648,-0.5407288549699136,-4.507395680679277
1.9946873951038169,-1.1576829910072102,-7.00561621674081,-6.2795238701884575,-11.378632695632714,0.0246575584652491,-10.93217428423148,-7.41106563957057,-5.853138996002839,-3.363695070341453,-10.95371029842597,-10.450915294845572,-0.4111596465091964,-4.954712597053351
1.2699884416062293,-1.1560193748894392,-4.71601244256536,-3.452027299082307,-7.548302003017593,-1.2487312524398972,-11.434938433962042,-7.853003532943302,-6.134275326814889,-2.977883218615858,-7.800836888997678,-10.603657225515892,-0.6369012445485507,-2.122593276783608
2.798250508264455,2.6268396940767285,0.2601790817784012,1.4947088428794015,-2.8041325488060598,-1.8160384579165911,-9.932126170308594,-6.340523943040381,-4.507660625244159,-1.211151472110867,-2.7365641976751283,-7.876674828974782,-1.1316763311056204,3.5502270155465747
6.430955645900863,7.277228882806058,7.10862148833878,7.691396582392381,0.2380818963427202,-0.8570736262289884,-5.940306892526692,-2.171245272006621,-0.5935798140187521,1.3339705549012637,5.297611515395774,-4.4132665333419006,-0.9270489986071672,8.651084106032378
6.675127312227631,8.907880579197123,10.263234570042815,9.952789276743893,0.4423096352447118,0.7609878370781449,-3.81172044826816,-1.271338196576718,0.5162393423555492,3.622523327715534,9.519586948726648,-2.5113649681793007,0.2125062608712114,8.312162262710887
2.872582031870912,6.301276747340612,6.073912637125932,5.2098131639543,-1.4326530708871204,1.666633583266805,-3.2913510438512588,-3.596212656145911,-1.0629865320002656,4.4387149801628425,5.468774882998673,-3.1683177409315846,1.4278790641929366,2.883630499117932
-1.2209183314136032,-0.9189994101111272,0.1404741527292442,-0.3419927704349141,-3.682664316136439,1.055828745672456,-3.098916930951145,-6.1909219946003615,-2.370529244462201,3.0393975434526936,2.0022735263222184,-5.733086394767305,1.70228812757601,-2.7883590343679288
-6.240511920061281,-9.660270862659036,-6.67586743245125,-5.827974098364688,-4.945360640753385,-0.6362010107039812,-4.156783008889888,-10.357254496932594,-4.447886312028314,-0.1134977885561738,-1.8997689163229707,-8.720191391523194,0.5859455280138488,-6.954479018850187
-8.158101365154856,-13.228998549018788,-10.167043572179372,-8.02824666106455,-4.797207506445268,-2.106748426223148,-3.3667929223779103,-11.61244176493332,-4.798806043198863,-3.2766774619493333,-5.226053852510262,-10.95194870577847,-2.067449191438557,-6.611379546207488
-4.513908692324535,-9.008643194154963,-6.201720771098156,-4.185791430033319,-3.506133980262192,-1.649827134787251,-0.5649527399159949,-9.40590917364777,-2.9238646099417576,-4.399257642434527,-3.489348651511366,-12.129112122049904,-4.161815793800253,-1.8144323648650973
-3.182879738508585,-1.43571555888131,-1.4506317542861369,-2.123709463182185,-1.5385921885916505,0.8854311512677675,2.2437932466279102,-6.9731119680551,-2.3464965981846757,-2.607100687841566,-2.8167221303980963,-12.599847250720115,-3.3581323800170817,-0.0895953405107605
-2.215026869238607,6.508978890753572,3.122427183596524,-2.376844518858656,0.6282489713509563,3.5472592483532868,5.773937705116889,-3.1344799237204244,-2.491659154340064,0.9673167332672676,-3.854375187595567,-12.804993428098328,-1.5917665527155391,-1.0165697325869203
-0.7000417746332176,9.728914550099049,5.77244774165797,-2.586122055496461,2.4396327110824387,4.235602879709989,6.6927958471817455,-1.4117921529407398,-2.528025097786813,3.803856559016381,-3.3828346590296,-12.988516858700422,0.5859103560723667,-2.9302762026027183
-1.010929428973428,5.775295581632003,3.2810667330944034,-2.738878316512192,3.350246805797397,2.247918977861752,4.5095130221278055,-2.3777832848796847,-3.0082382024012,3.727756748315272,-2.7862853705816546,-13.295463935648923,1.7526131655793884,-4.814240969473462
1.543931729342708,0.3296612985442768,0.4448128442024849,0.507608968925489,3.190691797157669,-1.1005867363692288,2.386408005772927,-3.6869116950231935,-2.708453560295633,0.4963103676013958,-1.1787624392647549,-13.919380083506397,-0.6686596965412528,-1.0277329226720904
4.920632582262381,-4.037407255430312,-1.4989025425467548,6.658254619967006,2.430111586320251,-3.870337170493328,-0.5337036271049475,-6.3588246118225,-1.5580549351151534,-3.967237316880357,3.038296208053258,-14.99832631112416,-2.6821223563995784,5.937914413082007
5.386383216070486,-5.715199920195117,-2.532508369685099,9.108188719251457,1.897731030479946,-4.01014829923357,-1.4596085166643082,-6.440159565125129,-1.33719099587363,-6.903574608612644,6.181552232243506,-16.38019165836846,-2.22525038857815,10.037578624677383
4.214785791804663,-3.2701165418025013,-0.9985267790526507,5.720052584782802,2.0687857002896664,-1.647678442683365,0.2723121258464692,-3.473398706311698,-1.8706653491384968,-6.664017713307587,6.766062454186584,-17.616456276993212,0.8449215114884854,9.06084415025922
2.0522472483779124,0.5336747108854885,1.0864071730940217,0.7572354397306139,2.568944768907869,0.5258177881262387,1.0691577969659818,-0.3112755447959709,-2.064079885365021,-3.8636838765121126,7.512802464137863,-18.2851452191228,8.161712964534221,2.6223601686539046
-0.2770640050990164,3.5436343063710734,2.10497343854905,-4.943084781920853,2.4592830653811437,1.8328984739389167,1.6837515349406025,4.076456421876604,-2.201368768550896,-0.9043923799037684,7.530305734386734,-18.324653166633983,15.818101108114066,-4.963049941775499
-0.9151499800959736,5.184697750946392,2.121208823510831,-6.393636920631879,1.1514485434705293,1.7062899494854868,2.044477552681001,5.276952200743273,-2.7597359498952576,-0.2331188662437284,5.427575120660975,-18.02615637831384,16.746293871478017,-7.56783189858509
0.2931282146193313,4.188942710795668,1.0570262856219863,-1.6916282262512663,-0.8499812376461691,0.4779993222972623,1.5951961559633834,2.643757119298015,-3.6349423708342794,-2.644777352166969,2.645730396249366,-17.741807167368783,10.266691337232023,-3.294980656153479
-0.0073680629548792,0.4040141874793798,-0.8088246317142926,0.9143943992789516,-2.111643366246028,0.0414409898606072,1.2649062573356475,1.304638407196121,-5.842145601458911,-6.868291802733822,-1.68233191206869,-17.675948125331352,-1.1565308254731097,2.3707589588507028
-1.679901166183589,-3.764615945317059,-1.9897396935326013,1.875016335323625,-1.312124891155683,0.043358989660107,0.8465711316024186,0.2272598010210434,-9.573415407138846,-10.632808665346012,-8.555290830656434,-17.921445578718433,-15.833241774559871,4.69136943176289
-2.326770053164911,-6.410200004220214,-1.8203339789859807,1.1740056942824246,1.6497008958269177,0.0136164205300458,-0.2444008882976342,-0.7470009735503258,-11.185590158268107,-12.265213473760824,-11.19293791716275,-18.484839227518087,-22.45749622046645,2.5598940352464137
-2.639166339656327,-5.837283178200024,-1.067392204700227,-2.0604863655729115,5.391860415588376,-0.1348141942613864,-1.9510421234025808,-0.8134375392910608,-10.693413237414124,-11.596557576773549,-8.49217582927515,-19.068642175350234,-17.317726727496204,-3.369603878761633
-2.201656617807629,-1.0813445452971906,0.0173893831428407,-1.3927704143491213,7.887358822113981,-0.7574879699352699,-2.892988259484504,-3.592371532797502,-9.531226626073025,-9.70594980307338,-6.891209886827555,-18.8850526777341,-10.203123431242938,-7.611289034394573
-0.3327176585670923,4.442841207162074,1.022137686531977,1.1889833643757934,7.803772768488955,-1.2690754986476511,-3.0693051097511783,-9.089515918864896,-6.841148553885244,-7.993332969922648,-3.380282598895972,-17.027124023275256,-0.9225322277324876,-7.029001307500426
1.0248054735036916,7.543641510531681,1.4996472240573957,3.080415187493122,5.377206675859114,-0.9421291057696768,-2.446263459191272,-10.22643019287333,-4.614484879719254,-7.363328648622797,-0.1441578240875357,-13.341966119698284,5.870330265264448,-2.36073799596773
0.8242630961617932,6.500001743448741,1.4310503251234472,4.372825740382755,2.2306392928194114,-0.2529172763330744,-0.6297210087571966,-7.257114268343023,-2.9702742369894883,-7.869390888280506,-0.2765408312303261,-8.894659703880976,4.506856114627488,2.610594971471208
1.6073886419284866,0.6991237715097831,0.8205088019028032,1.5491737611100218,0.3161271554675409,0.4055031093911384,0.5115362416784459,-3.671765609533801,-0.7358524570947771,-8.716504006111705,2.9299112073640505,-5.189813821334006,3.335125230593312,4.635138889265221
1.9885645634783524,-5.268975182865375,-0.5552565903214837,-2.4204954868662965,0.7258981250220202,1.0076655213223014,1.0194556815794336,2.012406366039704,1.62202538340104,-8.542336360214627,6.540451468387399,-2.6109901244010985,4.148155946659243,4.59754793181552
-0.1831287543603315,-7.912966479953315,-2.380931479003754,-4.999186656748028,3.1091757961759683,0.8152481088465235,2.091153749385428,4.9205648798531,3.7483847646543578,-6.081384496978874,5.791482724959255,0.2834039238539105,3.178277673308892,1.1882026204286502
-2.0425110932302437,-6.142562021473871,-3.0590929159238693,-5.74173949442657,5.965764587858995,0.3402105854300982,3.3672715204601094,4.405113959760289,5.664214423863853,-1.0950023076833446,3.784178311748712,5.499808380082378,3.6728005538072175,-1.940990233032371
-2.7330787024346197,0.3298666801588578,-1.6144035386114868,-2.0501589184862663,7.55575868124599,0.5114160194845849,5.125948155300385,6.243251270216854,8.356996649980989,5.076005430721565,2.2258233905766405,13.324157017878823,7.391135719872904,0.7291660742778117
-3.1901832060830944,5.840722599052175,0.7977949587430546,1.5488544214618711,6.889493649791376,0.4313161697705511,7.5288612813083455,9.359956070542628,11.819220323956378,10.049039200988876,1.7709289543685491,21.37569012963252,8.94985580310783,2.852161480332459
-1.6936567799605171,7.16620042747074,2.774418004642011,3.1211676380203666,4.290169006965083,0.1378468964246303,7.777903721994612,10.87912620181184,13.684464940036433,11.936164234121335,3.523388233781528,26.340970138121108,7.983091481285849,3.415342384880493
-0.230239932915409,4.836956324098493,2.612309964133438,3.0198595719096706,1.2473305828879262,0.0490516180107585,5.738825205021158,11.483675073702925,13.98305424042834,10.761237149254852,3.765407920246525,27.004924588707,4.077130687452187,2.564465938041096
-1.2850494159876265,-1.3337188436209428,-0.0832146558278676,-0.7064012645199866,-0.3999791587897459,-0.6883228087697489,4.612090643797284,11.393606909031629,13.475860276944744,8.522512740132417,-0.2255561893506619,25.601876922922308,-4.636941057104417,-2.813998879115512
-1.1226928050606315,-5.256426439534181,-2.309891384160756,-1.8229330419382597,0.4415419066945487,-1.0369993314707369,3.872470624182056,10.164180240158167,11.593811753999256,7.741894196243466,-7.29618333593549,25.931265129375177,-13.51818795326607,-4.74329371777712
0.8592918732754529,-4.6175753411172415,-2.469133265634164,-0.1266323264262721,3.379016042978077,-0.3680065704100131,4.776388397401713,10.297117946867884,11.343467756355016,9.644555832281062,-11.999902088421704,29.85760405984185,-15.797350733316245,-2.502080400107295
3.8037164295892216,-2.206847493795822,-0.6254984919088631,1.1139165422086723,6.683827340004829,0.1559101036249555,8.045922224063855,11.889452423195795,12.92473639837597,13.394201233926095,-8.993845780528108,35.503912710724684,-10.077539015820244,-0.5044091590297664
8.487883605152602,1.8061420552049692,2.7229195958560157,4.163102781752063,8.341755216532258,0.4289245744666464,9.479611926064967,11.673588546444472,14.120265255480792,16.853551889735407,-0.907106436672738,38.86459064067544,-1.498324497083058,2.172337171838656
11.403235002767564,2.532561982458695,4.583767986538221,3.0628715014193357,7.350768735033094,0.3209442805300176,9.385381939406058,10.050392794885692,15.633703493568246,18.11674901870279,9.686424521791118,37.293889419252295,8.133474102818731,0.4728134216493869
8.554352449217415,0.0270135317488897,3.618093885504539,-0.9597684419029676,4.350674230558603,-0.35780637280687,8.970447891954061,9.081252181240448,15.306591096185132,16.640791025071955,14.972362641170614,31.65568636682761,11.886103699626387,-2.831340576033901
2.475687381952252,-1.6180136328563437,1.2803676612474424,-1.886066540575642,1.1030163544119524,-0.7848443401592591,7.388406636034134,8.294109446823335,12.704775271447524,13.34413800835802,10.08669512400497,25.373489830316075,6.419388869026681,-1.0173025500581123
-3.4160273347411274,-2.384743588282383,-1.3652394884345669,-2.8316078240265923,-0.8027020217595275,-0.3179268917930415,6.651692020793023,8.360184590722973,9.39855101066644,9.857165446632138,1.577144027659941,21.547981701525657,0.4322340140614449,-0.0351482135080933
-9.537938910985552,0.381333634520859,-2.878796363197187,-0.6141386936339819,-1.038753145249105,0.3532529307264255,6.837787991988535,9.67648175263604,4.728351161950394,7.5263062799367635,-6.782601153718801,20.792222202744732,-4.882419720045263,2.5017481769947825
-10.033362618476676,3.9181910884692863,-2.287139495532132,3.003793275110658,-0.6179415354079403,0.8067793725639458,5.490549067362206,8.70419844025229,1.7001215654758235,6.708694229287293,-9.659413325047163,21.333163129708296,-5.850381276781924,4.831790131711817
-5.605756760353621,4.078428868660817,-1.0513464880059713,2.079186178297605,-0.9615230223578592,0.9690880681824896,2.927379069575523,5.472225570194637,0.6679621826075502,6.65122234971081,-5.480666256555524,20.735842568336427,-0.0390726141205526,0.9259181568429528
-5.46971423776013,2.8399943447246656,-1.099067772829296,0.0024079363991263,-2.7349422537555537,0.4013336811311015,-0.3133646334776766,1.2840327714001525,-0.9761632224460411,6.017946500764957,-1.853537133927013,17.552012048349724,4.048989979772892,-1.0303427448143478
-4.728000807247375,-0.8793271085550217,-2.686055520480328,-3.9407299796609503,-5.3612645915820245,-0.0980968647575051,-4.681205067389389,-4.684939497437501,-2.4852134316524466,3.8425264238586543,-2.1901083004930446,11.88401305572351,5.242536833172308,-3.2709416228280825
-3.0087805538602272,-4.176215125551079,-4.218886351109669,-6.981535190870741,-7.536599472794231,-0.290297277147998,-6.455772265188494,-6.85276565589362,-4.482886265038028,0.343224664525291,-3.678508985980195,5.06649470386408,3.3248981910998667,-4.894546133018638
-2.0983110817344155,-2.876200471128627,-3.5414105106527902,-4.224427707544988,-8.276088275037363,-0.3702012476297808,-5.344764223543074,-4.747904201171897,-7.323197195088853,-3.0615184619229048,-3.049546756859767,-0.94910563571041,-0.5791501088407219,-1.0279488888396402
3.571022263142194,-0.9525786359940968,-0.4189509672265147,-0.5988099000870141,-7.644227182815968,-0.0185589023513733,-3.569248878742234,-1.0420536254275636,-8.450783739332266,-4.7494339526470775,0.3970501125205022,-4.352977635982018,-1.7552022211585254,0.2165141451361137
9.524652244087894,1.909070833408508,5.282459819287376,4.83219389897481,-6.627406181873958,0.114540663751123,-0.1673729815099207,5.787834365086029,-7.945255452590711,-4.269148789008892,9.306571937017726,-4.447994404819898,-0.6324806379406245,2.8749010997797817
10.428311242048023,4.4356991762201385,9.370801617606409,9.169475653261935,-6.306271418641405,0.1875300058433884,0.7331420102497093,7.508484197901269,-6.837870743418531,-2.926675287381414,14.563508111781402,-2.4309094520577865,1.7703874661785255,5.756020326364899
7.286339057995705,2.4636443631725293,7.663212299743194,6.622477871782864,-7.01049779465016,0.2485487852139372,-1.3540863461614625,3.4127277515375334,-4.579086459018983,-2.867446138170777,8.430877407322939,-1.1126017390438498,1.781147201911792,2.9295959453860263
1.5734616435146709,-1.1062342826528984,2.60422268262374,1.96139084023532,-8.089102972899543,-0.5189545878650194,-5.041994531075103,-2.5931357699421,-3.91613514027817,-5.211103933566829,-0.5305187480606516,-3.2066111403100663,-3.965796884731674,1.5936500789451369
-5.544719912827745,-5.743596679295511,-5.184146500432727,-5.712168322821348,-8.406845081024109,-1.2499649095439067,-11.579762342548102,-12.751658364154066,-5.111543764151263,-8.815299440009024,-14.400081152863809,-9.14820930359613,-11.789140823857574,-2.9390468384558224
-9.298678077545484,-8.886163620142703,-10.434094614457104,-12.083622945098664,-7.142822079255936,-1.4518893012210683,-13.571432114457563,-15.19292330193677,-4.8709917854306735,-10.913448897966962,-21.6921535796476,-16.252405091736744,-15.146846327175044,-7.869054668593522
-7.750662748208335,-6.702592575349916,-7.971807542777617,-10.044482639457875,-4.326722139029311,-1.2402021244986097,-10.601151117584417,-8.910036944803748,-3.7510841882238712,-9.2759888492416,-12.615520560017297,-20.255266246249832,-10.936574530232644,-5.646325001752315
-3.0640450880088017,-1.0418825202952946,-1.4772384267068277,-3.262095164193997,-0.8287470468604177,0.251044297455248,-4.433463062089742,-0.5866693010002291,0.3488139848145606,-4.089525680768649,-1.5577126309711988,-18.341106825079912,0.9143750579464752,-2.1178200359467265
3.8916270279706335,6.865760625622848,6.3165026038683525,6.131029227692293,2.104656523905909,1.663520881441383,7.006024515964615,12.892632888349176,8.240230298680737,2.105994448166566,12.99301502627204,-11.358440888071884,15.023637277021312,5.802455795870149
8.821851597642464,11.622722062220252,9.99069568378869,12.107032580986036,3.476720469291447,1.5957594634613033,10.33545296762252,14.875009750457709,9.631204011171825,6.344763348831201,20.121779744450723,-3.442447400120024,19.50196963926507,11.92057987949411
8.080515164804014,9.302848348670246,5.867736202224743,9.440163776182766,3.0347817337748886,0.8012272376129621,4.884261435631184,3.5931775618192265,4.489328040123256,7.269304774382684,10.599488094899488,0.6955431632064695,12.830487164787408,7.935538085860131
2.841765974133227,3.587416903372632,-1.079231608896912,3.4378405564446286,1.4028479145028392,-0.131749438104516,-1.936615904575425,-7.299351751902348,-1.952903889947996,5.544822608700224,3.021311053778694,-1.236831230757609,3.8409063397003176,1.4370455974847005
-3.0501914389811047,-3.685925823272786,-6.655314417608119,-0.511836795956004,-0.2690384488237995,-0.0296172402961636,-13.408143291036131,-21.93687891519588,-12.02737404418868,2.605967743917418,-4.347454248875542,-7.9243210285251315,-3.866046538724396,-8.995111662408176
-6.149232086953074,-8.185844242707706,-7.157284363023738,-0.8672675232128746,-1.0148901635137868,1.162141381997532,-16.836942043813796,-27.26327318192248,-15.233854862875445,-0.7372915073539463,-7.875412526522316,-15.601185490853473,-5.284464471593832,-15.548970024601244
-4.4592907578384,-6.09898810874601,-2.004672059004219,1.7294256453603545,-0.685456887031858,1.854917573019513,-10.738039923693144,-20.540846182074738,-10.354035969263572,-4.433081322976102,-1.0352909046298011,-20.42570444801453,-0.3732293887880056,-9.519790486709145
1.228431767877533,-1.5722076044497053,2.946753437645476,2.9820898743201614,0.0045997500790093,0.8861890611042348,-7.123644199083465,-18.99004710030001,-8.323857347269536,-8.229234247487083,-0.7268719235249483,-20.448171431666225,0.6778763139856744,-0.913035745757726
4.408006248663526,2.2444094297261805,4.592590194250366,-2.3300363186470645,0.1198041188497498,-1.7947260160637688,-2.970703987454583,-19.34686801403498,-6.733609761285957,-11.02041287348082,-4.074372724576507,-16.248300867744458,-3.271090517851922,10.705451049744566
3.00756784087739,4.303092721838151,2.2815446147702207,-8.869266006074458,-0.6716080985243398,-3.836231399432528,-1.2658954637709314,-16.56557255708338,-5.818945275336079,-11.471560287589837,-4.637266836339847,-10.300752091002812,-6.546803320557318,17.100995111070475
-1.0017845119755922,2.5481818958231512,-2.0832771308617737,-10.31706963678254,-1.8199091086483945,-3.3719198940936588,-3.8964394758837817,-12.973680701553036,-7.243846805584173,-9.35030856835904,-5.153260211346998,-5.634355330646269,-7.370941154691909,9.311714670391556
-6.660159567221711,-1.7752566670424357,-3.399408962912156,-8.358516918232214,-2.4071804833423496,-1.0487456558122688,-2.2189060244617926,-2.2992922244232754,-5.345974041238943,-6.098471628189202,1.0840961541425624,-4.391969526085816,-4.720132201581472,-0.6312974285465343
-8.204026954988297,-4.060453766948113,-1.7487781366886026,-1.5625344006924593,-1.9473670984019813,2.204803152606979,2.880636481410716,16.342369196269633,-0.4468272367395826,-3.893564369522755,10.354012309592,-6.83866015611509,1.4254375894440163,-12.5556095595136
-4.185982608408104,-4.091424223863638,1.1420483792409146,4.86178859257571,-0.7241201132715904,3.84417717627765,4.035651987333054,20.551444831656596,0.146400715759204,-3.9988663186221434,12.386122097850492,-11.279184559605987,4.797694851700872,-18.4340377837135
0.6790674564372858,-2.8007056153599663,3.16404685799232,4.390629914388175,0.5681056859180051,2.4316162605965466,2.3222427496561364,10.180579583646638,-2.988716373633917,-5.924389364033198,6.97154291927828,-15.002118989913042,2.695414682788541,-9.728125059598142
4.212783714597911,1.1876293982245891,1.217866951293773,2.3256303232573523,1.4139486046823937,0.004130226263205,-2.0715813203130957,-2.031664911885387,-6.422615319173224,-8.099065069537968,-1.0864278602323385,-15.778135459211155,0.9615130701221096,-0.3539060551933636
4.897506894807764,2.920227438337487,-1.6441686515135856,1.41914061840841,1.7051379977801684,-2.304650342248491,-10.621538461617156,-21.105865472500604,-11.539053758579447,-9.29306951005879,-8.878010821571007,-13.0428638559036,-0.0485852212735113,9.697561316634
2.4848792116213256,1.7929757080499358,-2.9613322694161077,1.236644996444307,1.5263625465112898,-3.1227350545428867,-12.05430382639392,-25.471237543481028,-12.584089014047745,-9.423758132452878,-10.43926257415008,-8.10780642187773,-0.3619295376672542,15.174687278502269
0.8712636923004288,1.4584093502424065,-2.217460370835839,3.2716999345171334,0.9157853710123808,-1.5264914170757775,-5.948866259193672,-12.201481367751738,-8.765293443157807,-9.141891721813346,-4.696768942041087,-3.390008967610481,1.5854240269510078,8.86123141349653
2.8989715031677914,0.667101276413369,1.8759089044806627,5.287481625796902,-0.0721226363910089,0.7269318197006431,0.3996894867951258,-2.6150170613640134,-6.619479845543284,-8.845152256373371,-0.2934190365406819,-1.1655930248148645,2.148586506885741,3.6397850577355024
5.662651760825689,3.142038882313103,5.090860884882058,3.434316295801856,-1.1651369249495347,2.6994874823328696,9.577524684593527,8.587520660877871,-4.815861810095847,-8.216250207353603,1.553828324864786,-2.424393401707693,0.9118136112794816,-1.4581334782386897
6.088264072087545,6.487205508033611,4.791403252141595,0.1284901457614322,-1.92043460488319,3.3165693466568538,13.263558928954131,13.381428746947574,-2.331437918658906,-6.681508704966853,1.3945279916284563,-6.259595761424693,-0.0557341478838967,-6.059293948072052
3.5684512266980337,5.581771279935969,2.368180778432068,-1.32614284030257,-2.078817864641029,1.8191641804971577,10.04764182390567,8.112889362255642,-0.1005810166573909,-4.174942511631535,-0.5963532852642625,-10.143883009536784,-0.5924437870039791,-4.183245877282487
-1.7985494435897866,2.063500457985306,-2.0108228735568163,-2.5516789725264317,-1.8296432605386248,-0.399279941241259,8.412631353413952,8.07472667720096,4.165219218613416,-1.3348997097183282,0.1873653625429607,-11.248468611341428,-1.4881419787888155,-2.643517564209691
-6.439873931095883,-5.87163237935486,-4.921047811085215,-2.019875655791885,-1.624235067984252,-2.6971842082556634,6.210366914196705,10.74811377405512,10.517027967801736,1.0494054189016158,4.001390119353509,-8.334351455137947,-2.7943591924156026,-0.6885239248447584
-6.382324858880128,-11.325820992574672,-4.082125235068902,-0.1917683510045627,-1.6884319913253538,-3.595799800508895,4.91968636407929,10.720099021202646,12.52850418207288,2.6976312181227504,6.149651010869807,-2.9616701706429147,-2.8058680537938527,3.152262235368714
-3.781463254743637,-8.642298897254511,-1.8635494937849404,-0.9364164046688463,-1.7671402286305415,-2.126451510276496,5.784213673349369,10.122110975180767,10.166783898377604,3.898405830236433,4.161520970122886,1.2415462788491722,-1.4921589389529692,3.436368834482736
-3.295807883129738,-3.988853477784265,-0.0304667662422581,-3.168654062289271,-1.402308069870788,0.0279626011150689,4.905182200567529,5.973170615662911,7.785762509903907,4.98179640277007,-0.8322593646001495,1.196788013548379,0.5172188266555271,-0.0916042885107363
-5.880056207167655,3.391504941192962,0.0603998926160455,-5.595473229605255,-0.4481333972747663,2.445744592468007,2.9069124643167696,-2.453408311686463,4.013096851507358,5.873604109305426,-8.909144470509966,-2.953120028065575,4.028696684079908,-5.578469436483077
-8.85305362989276,8.213571075292732,-1.440310115754838,-6.252868855186081,0.7556387470139541,3.4636388957332787,1.7646249570678645,-4.845441890337845,3.596075631551303,6.263940311171092,-13.09177167897108,-7.45610320360448,4.710123311683679,-10.21042483703742
-8.475723941049347,4.689723474783044,-2.47556529125713,-3.39219686176504,1.7616149116989137,1.75291077334598,1.000387489173418,-1.294755381053407,7.46143276684321,6.162745205555978,-8.82171636166845,-7.553786221142018,0.4796743289077349,-9.091061408395404
-1.4103225615746482,2.078315877998586,-1.422591295179633,1.6349705776603942,2.529937603936265,-0.1817055256414431,0.488817393470682,2.147509521377492,10.00660889162654,6.125035581369424,-1.474144718194746,-1.2066126369766597,-1.9085457319316848,-0.56422768644858
11.188407782513623,0.2824383087985674,1.5247781362381136,7.432943894076319,3.480797036075348,-1.9608514900808245,0.5276615582337342,7.667696698582243,12.453075429045622,6.78841016085502,8.898074676093751,9.09772905672979,-4.210650208454599,10.61390139250298
19.075418260315388,-2.1228353405565734,4.271914426480506,8.965637197219793,4.962196417919239,-2.651770161308946,0.7871836696804739,9.773313718943056,13.39813478928651,8.187320710672815,14.951613448354571,18.021349312069077,-3.997001485892176,16.39376405420614
16.560399346532265,-1.0458561644831963,5.3707469778232255,5.3383775561119045,6.66137996270492,-1.0839050847866216,1.3460740624931675,7.442960284877289,11.863843532901845,9.638807806328296,10.913370135990126,21.21159707089561,2.011136546521457,12.71058089244617
7.843755198435375,-1.0359962652473036,4.743109802411284,1.8982652559295965,7.619320970473154,0.2388677693580261,1.0607912604237355,6.652252095502272,10.116337453413973,10.410151617160858,4.908743015143012,18.223692238831266,4.382872930554658,2.096742113920944
-4.887600462905239,-3.594594360465494,3.122207529349451,-2.303115793833105,6.956071932436467,1.024039217567149,-0.2203637507188685,5.992364627793679,7.4935207605179315,10.487264490103136,-2.3663989144181383,12.373890373882013,6.200850930866774,-9.621203766590543
-13.140429756079186,-3.97259525729764,0.7180374492469953,-4.354793916705035,4.702656065948162,1.258919843284004,-1.6256497990205958,5.157145073417765,4.629168571187688,10.56700820497228,-7.340939579885079,7.984255731261223,6.030686933054023,-14.373711275974095
-10.097554252290813,-2.021835409162063,-1.326284353695431,-1.988964176078865,1.9752683028491145,0.4953302615932258,-3.469269078250892,4.942164181820853,1.8021003756298268,11.17819122544729,-4.9194081473962,7.418327213052539,0.9593579501054428,-8.985949934978695
-2.881308124068429,-0.2818383264770077,-1.5924086231008272,-1.3890789223234596,0.2811395526781606,-0.0052571545855878,-3.534666030850302,4.488965667441031,-0.2524112262986479,11.802447473771537,-1.426894611534239,10.027181567958012,0.0270355773743978,1.3336883815284324
3.95901837428865,3.9576108387038897,-2.1177658703928066,-0.3313477596859386,0.4933732784043947,-0.283538830586632,-1.5351366991273545,4.0121735739137465,-1.1521969174568,10.98235644833061,0.9583832773667244,13.238784706108271,-1.9410667954151823,10.762855130409395
7.890039306242636,6.813467599622201,-1.6529862972113534,1.7716291977300678,2.2808419852512287,-0.3754864511869695,-1.0887265083709452,2.9196998954978506,-2.3462147605202777,7.48488333747874,2.560834793588983,14.442039156156095,-3.5747381853373525,12.89223615239047
4.306188986030207,4.213762072749571,-0.6514843270894627,1.1776978435051817,4.3571967710098765,-0.1162183688073153,-1.7965171579928263,1.0686045313599164,-3.5464015965715783,1.537356603183465,0.7655840580615789,12.273217013223904,-1.8229283448340596,5.370590378426975
-4.293751398634418,1.8378342249873836,-3.672866509001261,0.3472512027106032,5.274824902850712,0.0555750668158595,-3.486067961963959,-2.773240327341728,-7.160053711180693,-4.987116068712359,-3.2235646778012392,6.953198874810941,-6.097014231017038,-6.171664115322505
-10.595339844746691,-2.39539151303773,-6.602770519051913,-1.525158439325022,4.212367208777314,0.4161485313575817,-6.914638250914084,-8.97053024037454,-13.659859824197822,-9.654035203582808,-6.101930513515478,0.0859122481841971,-9.416002318435796,-16.773988703404754
-11.775744259153669,-5.760341981814997,-6.901552939275912,-3.918971834976894,1.3824733851760076,0.7709334088587063,-7.263041987740946,-10.88273697391709,-15.859150014300155,-10.967172206969025,-6.749422696972571,-5.827334370240452,-7.914160249055011,-18.68320630286296
-7.034666941541576,-3.178454531281419,-4.95413425796444,-3.06932154061817,-2.031975749979283,0.7195439958522812,-4.400362668205743,-8.386816196447132,-13.950342083768197,-9.162146920234896,-4.0068067821292255,-8.337621123431159,-4.874162417874212,-9.185198128741645
3.1007231042419594,-1.075928224809508,2.007658437508507,-0.0140309797114006,-4.394197972975043,0.4752343202789093,-1.4806619243097636,-4.104932843105024,-9.059022551853989,-5.844660977942793,1.6583313307949157,-6.419729150555464,4.055476705514836,2.873148457935834
11.46188505633387,1.206392011655952,9.481324629795472,4.03362029137845,-4.486783005922234,-0.0162761777954431,2.564156308005933,3.6106415842309936,0.5850172936294883,-2.917283921917969,7.378649649707606,-1.4339755109725942,12.97239211329362,15.362504991534909
12.539003874723864,2.64260310027289,11.12760742593236,5.9656363302490165,-2.375990584739452,-0.6551095784760048,3.482776883656198,5.641709276565319,3.9578663166741217,-1.5890128165595705,9.388916410653472,3.396830326144832,13.330271405045918,20.119479264239448
7.481953365251885,-0.020754264743563,7.337666406635677,3.2428158089355743,0.3835101536771761,-1.0888420511497818,0.5673413135468018,1.258999905032078,0.6095821019156457,-1.9642673428715547,6.095487190880991,5.046767543215572,7.047043773102578,12.138574602385315
-0.2664507044041058,-0.9445825656449378,1.1135798537565442,-1.0026057860069983,1.633014380300903,-1.338905101853366,-1.3046700770771889,-1.9992122056448225,-2.8128445609672124,-3.2187624430660247,0.5982617146238546,2.828657505168792,-1.310844626370261,3.1672562816593803
-6.216974766367759,7.489733790949638e-05,-4.627208696423886,-5.164449163892326,0.1644725167003775,-1.7104050749525384,-3.179288339448981,-6.256933807965058,-8.895218812425334,-4.126360859079256,-4.830973256233834,-1.20392696346598,-9.035738274883286,-7.469863879720058
-6.839758399299741,1.4086268989485342,-5.827172779151477,-6.017642861507457,-3.2480851029576345,-1.4653291893532252,-3.372746805884748,-7.3558503002683375,-9.954685422340091,-3.6895146877044382,-6.646074934865184,-4.000319825564211,-9.774908729027311,-14.29097658426493
-3.218045132717103,3.0535656008894203,-2.638381394599243,-2.38375822126914,-6.314824817478561,-0.5281302489756925,-0.9715988429900718,-3.99661701313129,-4.829858131600432,-1.6403621436492155,-3.548202847581704,-3.88031377980752,-3.845051202187446,-9.604365659709032
0.7509845387286255,1.089300726718219,0.340683545311434,1.0419454462010036,-6.9271363400004535,0.3025824001775149,-0.063206564358294,-4.178407304946604,-0.9443021256780204,1.4309237328588806,0.4887004870094514,-1.495151801457908,0.5615884049542355,-3.085560975376482
2.7340967244876366,-3.63471945945262,1.5213164332452158,4.030859407353002,-4.674510676889589,1.741094047448153,-0.1227440405027739,-6.913847095967882,3.6381433460015686,4.432355368608529,3.425598129718362,1.2148122201969689,3.2548201074283,5.435982587003214
2.893533609068283,-6.878288470718625,0.982793442814298,4.723282210594946,-0.9184147502864056,2.3775123827862776,-0.1789940457428929,-8.21359339609733,5.199407652805158,6.40798470177899,3.7098095441725696,2.788919823210752,3.3071721624658204,12.341353306339268
1.8640494336729927,-5.590257550666002,-0.7670471942484902,2.0556565652480647,2.473056242322928,1.540726672859618,-0.9381109854660384,-9.289766686163231,2.4304066176153523,7.006599415248058,1.4867880303794672,3.041790906594978,0.8363421518098322,9.196741313060707
0.127489260926678,1.0455698612382056,-1.919421978351956,0.5237933577160665,4.425508774447831,1.3558913189611417,-1.1274598461917087,-6.846851462022568,1.3422142125420593,6.452812020171084,-0.3783267991069836,2.487636197821857,1.82829569324915,1.340633676520511
-0.3926863463643452,9.84614541871298,-1.3280506574983917,-1.238965449723502,4.8763944891000754,0.6314764597284597,-0.7219924187146015,-0.071578430104731,0.8522147226569898,5.133062718285558,-0.9209316116571832,1.4589341307483448,5.128982770506648,-7.989886278865889
-0.4728183694646577,13.43593765370036,-0.0358958870782201,-2.5651237939014098,4.082823349481833,-0.2843689306474675,0.1155869043120342,3.219799090582282,1.080445957894565,3.248415772180742,-0.5517471874000475,0.038201970809248,6.391901163977928,-13.78207001533733
-0.4872571629189536,8.311496671975446,1.0629550502032594,-1.2046518664856047,2.1102161833188133,-0.2369705606889719,1.707607118252154,3.55598716743683,3.049115649124625,0.8709398903495837,0.2502574455285837,-1.3206916130363426,4.7133025822573495,-9.59470653662647
1.7617807073706715,-1.2789909110844528,1.6435336409800865,-0.6415900326595153,-0.8550872145669062,-0.9700686296249296,4.552437173850463,3.723701383147097,3.32542538288934,-1.7231892386410093,1.1253338504087953,-1.589034034466832,-0.0754334679118557,0.8447883004516664
4.021721421175429,-11.442917325535111,1.2431784910613268,0.5578647973128945,-3.930345186504531,-1.3994952310791662,8.840685113512606,2.154432161883579,2.1229293346905664,-3.895481172018064,2.2967456355155984,-0.0280679480047854,-6.605090724373024,11.658580431778926
3.864515389029239,-14.725863166613376,0.2053800235280285,1.8501307065294403,-5.732335321729535,-0.8359930462960491,10.630134565576911,3.375285701822732,1.8325874264181663,-4.954279926439915,2.6115733708345283,2.6200268091174195,-9.33228124362967,15.358299671827854
0.7711098823297763,-8.341854530061106,-0.8469132585690539,0.2960754625714101,-5.492788277009272,-0.5316720260253696,9.778454385794648,7.764321394709309,1.905615182182253,-4.715090705678195,0.6674349010225646,4.078909887072424,-6.883160221632765,8.211727327621011
-6.154383135133083,-0.3893698822979418,-1.4153711584094104,-1.3658649600452597,-3.994675189881871,-0.3659970197353553,6.99721810837792,9.75814542155446,2.04609876776954,-3.7655902279079903,-3.6449953481321726,2.1792389361049547,-4.10849202046762,-3.908491919538486
-14.85583504237624,6.872593922517689,-2.116595535626841,-3.493380137085514,-3.1240345319558718,-0.7315431448224438,1.180541046139045,10.198496690628655,2.591640150175525,-3.094370472313167,-10.698161376353266,-3.0024701252863157,-1.6615131860870938,-15.712028529262016
-16.717309801353576,9.332455246747914,-2.218087148823398,-4.545131306234538,-4.158761552234908,-1.5247404429423068,-1.7084943419857126,8.916977286604688,2.034523769213261,-3.330812190908053,-13.803920602015236,-8.535896276667167,-0.1029743054065557,-18.678444737273708
-8.817864158040004,4.508803124912691,-1.2769497584930107,-2.35298476729697,-6.34341197056828,-1.4803820147102666,-1.4936049596655403,4.8318741697951895,0.3037861166736756,-4.251191937695182,-8.328353030272448,-10.490152004340777,0.0148745479288733,-9.676659924298765
2.513648161185282,-0.5109620674671578,-0.506189174292193,-0.3201137770285235,-7.258362669305897,-0.5701421776652057,-0.5975330277256936,3.9474345332999135,-0.3386695242000648,-5.014185465964395,0.2032843505187879,-6.985697862874645,0.9587375504818192,1.8330900756025408
16.70434307353563,-4.789850728277856,1.298026427860731,1.821487985917488,-4.883770341168047,0.9983436004193356,2.4540628411965093,6.256192653360441,-0.1082343859502338,-4.934821681285885,11.919226710409315,0.0947247421580925,3.12044542609138,12.984741487010329
21.79980236956338,-6.169677062579618,2.753979022873995,3.2111794696488465,0.4037051551320849,2.4876136911746345,3.024640159112934,6.056906365329247,0.2025081235137472,-4.092546182528525,17.646977820337128,6.330418476468989,3.833150570081665,16.71466745535846
12.033788039641944,-2.119615709650825,2.350712345113101,2.7531701038826384,5.747995681627003,2.764010527847811,0.80577766344956,4.394326472586002,1.0208635812172904,-3.213949194209398,10.841572486491884,8.050159929097374,2.951189509745934,9.037974025836052
2.679127222576999,2.468366591238204,2.2617837518141526,3.793683676350875,7.865632921661865,2.303558267525492,-1.0503107458783043,-1.2448740094141058,0.5815847222533155,-2.9587175843610547,3.826796684850539,5.001720504522822,3.895446062001132,1.4319777810686911
-8.052633754841224,6.842620925275794,1.6328500776797783,5.098873066452802,5.5902689479935885,1.9255377897529768,-3.628887778259717,-12.124423884179098,-1.2857357859787824,-3.3077610976170715,-3.344264671983884,0.2456099416569692,5.663002456024448,-4.7294400980475215
-13.017715677109502,8.020702786856024,0.4794140956930677,3.9563735998470095,0.8242378929278948,1.2229485467869436,-4.253600267130056,-15.84402453561916,-2.130407605785222,-3.6386021179487913,-6.719457862014934,-2.487909865534741,6.433387570756946,-6.9350864771927325
-5.220937359373376,3.4272403737446604,0.0445851466993497,1.1145881687009318,-2.8627163860236866,0.3002374040643699,-2.3971775638936736,-12.505562332874597,-2.273277831931262,-3.3853106273320366,-1.7490452345742749,-1.6473499181842213,4.833647322058801,-2.3083933824423988
-0.9453758922137392,-1.3596505651446955,-0.8373871156758661,-2.480146032569692,-2.850011667817565,-0.2145650647143269,-2.086630088834785,-8.308261249494423,-2.2912950414332287,-2.60949738931214,-0.432233186752894,1.3648737184139268,-1.0305820271138484,0.0833891217685052
3.2455430493439392,-6.07186540037642,-2.0498321254547216,-6.131201014951168,0.7288935155870044,-1.9550474300120453,-2.734319173247693,-0.5252541230328566,-1.7466782080544547,-1.9253502740118824,-2.761648432141248,3.7914659233059416,-9.414489461180352,-0.688267375872513
6.68884125439685,-7.404902551685135,-1.952142252032593,-5.405450413317261,5.271881680168194,-3.3630450343829743,-3.0431891945187948,1.6073635867462186,-1.7700883729972186,-1.8732732691674188,-4.878342123450575,3.826280878344555,-13.255338321667724,-1.7420792500224724
2.4457515360366244,-2.884289085902888,-0.6912783752782329,-0.8385372641901421,7.709986285354604,-2.801626367640543,-3.650852624773152,-3.050899544222058,-2.4049541123967706,-2.355264342868421,-6.721710534264711,1.7104990788628514,-9.258683131856852,-2.797089424277941
0.4864479733271507,0.1642114768534894,0.26600377362095,0.9641525232756176,6.64896674158552,-2.612778212435368,-2.5230858645452363,-4.76853307159656,-1.5861081506901202,-2.644850003309065,-3.138849218537574,-0.913007708913704,-2.3462106675298884,-0.8902330270158859
-2.6999060890161704,2.765937845895838,1.2496537483178949,2.2692338105430863,3.1497043376577145,-0.9934069439254763,0.5770062430679395,-5.661781211965093,0.576972842880249,-1.931211871650257,4.666016987153076,-2.417696672082621,5.38988125854558,3.7622466202915743
-6.74893241724782,3.7247063672247855,1.1310017070662637,1.952919122756546,-0.2307020151156663,1.177698385987053,2.0242387345561683,-4.486751657805382,2.5473979786848657,0.0838813042388826,9.279479258281432,-2.121213945634354,8.399177246905733,5.722663146573579
-4.1677628863040255,0.9156508332290604,-0.1267882320919695,-0.6232754378833603,-1.295648106542896,1.2835998569538416,2.1223234787635485,0.3571445724439838,4.682302566500092,2.9794480094345484,7.439427017838434,-0.2985721257005886,3.9478216103171655,3.2814252792903598
-0.4770620986388495,0.7223335451160242,0.4034774539633851,1.9036341853751664,0.3561833348860332,1.6177703806503034,3.123613060147344,3.182120549964545,5.787044101785152,5.8725283866987965,1.0473553625502088,2.255346708806808,-0.1197506163613238,-0.3582565865491748
6.562319972635567,0.989779623715068,2.089076651714304,4.57565125896928,3.19348011876658,1.5172816049903972,4.426341671540785,4.567449808402568,5.505846621454136,7.891561458943965,-6.830637020225386,4.548082605031194,-2.452327495676112,-3.908620765482917
11.691691964997108,0.2279755331924238,3.0127789864618024,3.3329514121671533,4.877446321958917,0.4698856654027681,4.716491964567842,4.877970590512476,5.127375626122186,8.562640551231144,-10.098524428573148,5.544893862823461,-2.8410120327714,-3.952224422001701
6.122358758991811,0.1391670051735539,1.932171799128953,0.2842936899755188,3.8488651184481646,0.2644339798221745,4.161889269086636,2.9584789137500205,4.262414375230245,7.942850959419204,-5.526592399726299,4.474756295683594,-0.1833793954823201,-0.4158806472100161
-3.061022123022312,-2.4380291947951904,-2.6626615120552937,-6.681870045175339,0.3557481216164805,0.2419551956006043,0.9161499834619388,1.9067313765520315,3.205443330675969,6.509347463047449,2.2081880286524065,1.3745037614273272,1.4619216705749911,0.5232161267845967
-16.466281738105987,-5.369658236378995,-9.756000970307143,-13.450112605497342,-3.711054348320584,-0.3479314160932507,-5.5116331053870855,1.5118034068376542,2.1101990107858195,4.9192389794446605,9.214219502572291,-2.554320548334141,2.179006050201647,-1.2091507978355416
-23.12748788608745,-5.333018271465689,-12.74115076672639,-12.515764251043205,-6.045957736547127,-0.6735206296964502,-7.614899592100871,1.6648534087624594,1.358086309678873,3.770518315337148,10.96085539543112,-5.33195831522127,3.114355993612648,-3.836802923142242
-13.35153477639635,-3.3200807851187286,-8.161224120091065,-5.219744502540089,-5.39083134024183,-0.6625043765754324,-5.411593965709474,3.050891485706508,1.140811900311855,3.425411169397547,5.82189517046633,-5.343773068313221,2.7938751732836296,-5.472012826384118
-0.644357221366137,0.3036864106798725,0.1886355293392394,3.014255535190871,-2.235362336824931,-0.8249795159349377,-1.8413279599511283,3.7080989082116016,1.803370626271734,3.880706558831738,-1.38433786682921,-2.4883647125707187,0.8065848888572331,-1.8180589482954452
15.279930726376692,4.375120289104434,11.116354460238249,12.16844927878246,1.6858647846746864,-0.2775425842777177,4.86786125434272,3.784968366184645,3.604755722658038,4.685180513473593,-7.625718249278231,1.6304487343905243,-3.1726174001907888,4.430492268464855
23.28111771076753,5.474264621621711,16.113793518857538,14.714323077596156,4.628663699945879,0.6311268487241644,7.049538300848644,3.980230986585794,4.462384533666373,5.021755507484227,-8.901744774685252,4.745553493393516,-6.578814966789732,8.127690462511197
14.08378299509535,3.603653277644456,10.30065034702316,8.268429568876071,5.806997029204094,0.8324541830991549,4.099115784274933,3.9312569653121754,4.415276919855786,4.094710571225504,-4.534875156159862,5.444642298927455,-5.855131979516883,7.549320861157045
6.424708042176914,1.913995540224702,3.202099716453434,3.512019558769901,5.435075642982369,0.8607253431818503,1.9112196796072636,3.484046918700854,2.9171692953657216,1.7306833644981174,-0.0761528758627631,3.97253165837093,-0.9362084594055242,2.7170469832100776
-1.0356349076090838,0.999953798037276,-4.131949069075769,-2.848993733350535,4.075775648671947,0.7931615944843476,-1.3229531858142185,2.618918995246463,-0.6386527955404598,-1.2403068161782511,3.091025296603221,1.739497359841014,6.667909897941168,-1.836512117636052
-6.1629450518752,0.9139215540203868,-7.562558059834548,-7.240834261184197,2.10169316669308,0.4249909353963925,-2.784045969445593,1.419556087168296,-2.332898819646832,-3.2978515747399384,3.5577199553206373,0.0697603027447701,11.011461847152026,-3.200983986475042
-2.061351812896824,1.126123187255014,-3.326486994796006,-3.837988790235369,-0.2312921824588754,0.2123343240103112,-1.586458835032451,-0.176567501137326,-2.2597402714272548,-3.221175827234523,0.9967888067096238,-0.7108710509464933,7.99241477597913,-1.750026586465626
-2.788499054799989,-0.7326816227451187,-0.4426988038985555,-2.7848747993553173,-2.40329908444818,0.0779413272785072,-2.239777084990555,-0.8112137093206454,-1.493611178574065,-1.066288965568236,-0.1069985446472531,-1.2021626974200226,0.7931959012446601,1.024561677047057
-6.680622092332582,-5.55648853006735,0.3173260151990951,-1.2702725126234982,-3.634899927674668,-0.6355952228371452,-3.994803979792624,-0.3576501551975232,0.873561091786151,1.7233204792931995,0.7133521768585368,-2.1627811795918754,-6.67525537575962,0.6058666078190359
-6.093767572899912,-8.200017488360588,0.3541562718787275,1.6753428390972926,-3.485321172349303,-1.2058882799480946,-4.484741767482438,0.3270242235114308,1.0385521951282364,3.28683807449619,1.413150467536082,-3.831653887229919,-9.279320911034816,-1.3885998109473814
-4.216502510246901,-5.291707281312169,-1.6767604699018572,0.4685564219516236,-2.4471551771027293,-1.0576837220025777,-4.263943572956071,1.6052959891553331,-1.1781692426283896,2.6732164694375578,1.3476034413800644,-5.818210882387589,-5.688252071167298,-2.262044461126326
-0.2563033786567524,0.6454637109593668,-2.3514361792452854,0.0829459176875259,-1.7614925707369742,-0.8770748071917961,-3.086333869303641,1.7268597458612986,-3.2378848383489816,0.4541198048572599,-0.5481984257700347,-7.425463930615628,-1.6482155679251234,-3.847939873579771
5.660854986678139,10.361568441508297,-1.3289648637747702,0.1390272771943024,-2.406671888034275,-0.3123231462822587,-0.5438424709142164,0.4835036520536013,-6.007601634008744,-1.8410000793897303,-4.642027607922433,-8.00595440699095,-1.2572837038239946,-2.779567979040682
6.1790799514835815,15.127062965794432,-0.5986551654813418,-1.1632526667563774,-4.121545241664284,0.1578359137832292,0.5815426355498549,0.3102123912397155,-6.572781960197083,-2.9207565620292204,-6.86020832182534,-7.163843047842261,-3.1908616017290825,-0.6344397178898915
1.5118922014278846,8.979791920763908,0.1594710048130015,-1.010574176569076,-5.441636498220958,-0.1244008808608119,0.27978500043991,0.8641741354451106,-4.423461066291075,-2.537783045482604,-5.187948674293319,-4.890771514893841,-4.683706699210767,-0.8075370140476356
0.2217755507199066,0.5999752676184683,0.9574258230670742,-0.1046235502978498,-4.869601310163089,0.0180457652803256,1.2180733138302244,2.8125691383669857,-2.014597850322744,-1.348186723652804,-1.3997586596076834,-1.7057795956926594,-2.2773560604955767,1.6849122574232172
0.1741875685258661,-10.126749543780612,2.0604840405047367,0.929715301440626,-2.253864792752978,0.6678892068540092,2.902989796183169,6.702563098853967,1.470296444456126,-0.159262673029951,4.562147427602294,1.3394923658897504,5.853476584405738,4.74153546440906
0.7249368375811275,-15.021065473694271,2.8804641070041903,2.1854752205783723,0.8137218739809047,1.242816380223034,3.522424271679179,7.378510711289181,2.818449348476788,0.6463539577598926,8.184441253949803,2.989285688940289,11.897117390707551,5.161732448808262
2.425972851612172,-8.010958892667748,2.2566387154237963,2.4234246631901333,2.01433665250806,1.5566846387213478,3.3567538323551145,4.793332150744202,1.4991003394534257,1.0680407427076328,6.7241393973567325,2.4172682518075908,10.719552522651028,4.455593113037937
-1.624404739745818,-1.905622428268602,0.6214253579114504,1.1493549249391333,0.0220993439407184,0.9621366940439928,1.031214322715829,1.5319628014022089,-0.5550950623026555,1.0880460336582929,4.185571402312969,-0.1847515705346492,6.226089069740673,0.4254245258231468
-8.087958658602862,3.7446992396564047,-2.488824713368696,-1.011026611439128,-4.384681773446371,-0.4325700293487215,-3.967213288292821,-3.588579956896192,-4.312296514782421,0.4906845111597837,1.2148546521953467,-3.5241671231039646,-1.2651053553401586,-5.597062500563848
-9.926970013999796,6.306392771639949,-4.547197504149965,-2.6094625590887497,-8.717721136295397,-1.4683737824368823,-6.104275438609202,-6.299614383083013,-6.524059591591717,-0.8777419032957736,-0.9951290596073364,-5.845729971685039,-6.2738232153390445,-7.802503242288495
-6.367457418122913,1.5308014092190445,-3.149742078399628,-2.1658739418746817,-10.444303289668351,-1.3262530473428962,-5.47596250490791,-6.112935422773429,-6.890040596019315,-2.761697868503191,-0.292077597922959,-6.014136460181691,-4.126482674189507,-4.551059881514695
1.6584238179569424,0.4284079974944449,-0.6252539356388522,-0.0081172718008488,-8.693026786238685,-0.2799819889428504,-3.736385411883985,-6.798119490069369,-6.684717746409996,-4.555807978519884,-0.5821499728805295,-4.338612246399056,-1.5341943107372162,0.5843670794686078
11.486471351531812,1.514185668335398,2.9885425987475323,2.468229152305692,-4.703919140042374,0.8631490503270258,0.4195114573070855,-7.320782308874539,-5.000561024653518,-5.804310756697643,-3.397970407578399,-2.460408031031351,-0.1151844514603291,6.307632008096145
14.833069287200336,1.3899443266260625,5.121202040909038,3.25761301716349,-0.7107516758665786,1.260989106020486,1.8113447050702545,-7.560375806830196,-4.245812206892815,-6.619743755675201,-4.808207372365926,-2.2230702041337915,0.5468337514146866,8.361444594879801
8.610124961072833,2.1484429211748903,3.148382727970991,1.2123112744998288,1.7835117381935042,0.4629213300475694,0.1814228983578213,-7.950344546375379,-4.494736266810508,-7.499069311407565,-4.64856697002747,-4.27024670123846,-1.9188938901144577,3.592473984430398
-0.3733083147412567,-0.5022600415551082,0.392406343416038,-2.0552560952375845,2.896270679959734,-0.9269324850191428,-1.1503822602797629,-8.046132560272612,-4.908128336435512,-8.62775562081163,-3.979631398344603,-7.456803563091453,-5.040953490996688,-2.164699282334031
-10.770938581139134,-4.740929149368755,-2.6292229689891298,-4.613591615915142,3.755566999479051,-1.8096787000733927,-3.383605898338882,-7.967764876106861,-6.076295923404862,-9.372458329788746,-0.4804967205559478,-9.596029322321677,-6.234302090827585,-7.314716429189458
-15.25038854030601,-5.628690466146988,-4.316073369745827,-4.458039272109499,5.0845224811038445,-1.658894262329437,-3.0602928404480205,-7.151341608368933,-5.383953197936421,-8.589758483197883,2.3252637517322343,-8.987567436366415,-5.344439928183444,-8.505563273471
-8.995148582543283,-3.8458646493989583,-2.907966417673078,-1.9511374691614616,6.366651798457075,-0.7640458008545341,0.4115067540349118,-5.502409811606376,-2.6663983885823392,-5.620621225993984,1.3866757053210357,-5.5250288772594764,-2.2241241416042588,-3.545074105779614
-0.3161566021529347,-0.3113240921512438,-0.295645418468757,1.2729082554246571,6.36464262529983,0.4946494678012921,3.1145941574778324,-2.2779806916193728,-0.0891553752396961,-1.1138017237806206,1.5590734947094167,-0.5825834804595811,1.79385674438646,1.60944309753653
9.652558382006577,3.737293782720332,2.828797709123361,4.255952650932269,4.456104971781875,1.5453631163793085,5.898966637679234,2.80507784173741,2.925859321156813,3.1369711916556797,1.0529291959542744,4.050575746504888,4.884090627497485,6.020295515642291
13.833045231313214,5.348271315612897,4.287008883880022,4.175484558278458,1.4967375525381117,1.7318148197969885,6.175227845578075,4.837364556416464,3.858182036363952,5.338365060778955,-0.4361948922443326,7.196781523507993,5.398949826188774,6.3067292884061255
7.115642881377841,4.388716796196785,2.749741888997245,1.6887884954889671,-0.6155880714586816,1.3052384918180224,3.0891620766859984,3.687955188129042,2.177714767452473,4.959201923288806,1.0254308404215269,8.531584689130208,4.244526948561975,1.5931317265119849
-0.8233749350825369,2.9743840392020204,-0.1649248542607632,-0.1189707306017572,-0.3317880156903449,0.7066921054809453,0.6498193697487447,2.350172934623544,1.811135196576396,3.103592430986194,2.620237567229862,8.15861485125242,4.734134508169072,-0.7996860955360606
-8.795037381078615,1.8233864389442036,-3.727899648291008,-2.2353822327460238,2.341026206571847,-0.1038084375498962,-1.9051655520709805,-0.3077642414858973,2.1792981381421663,1.6808940985648286,4.308251450716931,6.211110205636733,6.55803913502332,-2.0431520065194047
-11.670833867370506,0.5870086529452387,-5.109706964333068,-2.709868234044723,5.755686111835708,-0.6870329030837692,-3.4725911948630617,-1.9290104623089728,2.341231958583015,1.9916828911960296,5.241876421092491,2.953691078740712,6.5831274217422,-1.3982870903292255
-5.058329853402585,-0.1774009684984699,-2.3752906343922446,-0.2018587365253407,7.69921752565191,-0.5771774037020116,-3.2875170214851277,-2.0821553181755723,2.9477484835348404,3.783477947487635,2.7699698759682976,-0.8285550306669682,3.288627882304854,1.8479311302278876
0.1314130870522397,-0.5369300070625725,0.5228107109308204,-0.2710444104168882,6.826105665357277,-0.2198117123341722,-3.455034547015928,-4.399215679887779,2.062385643781953,5.473959596823505,-0.8452957845840444,-3.760301437457545,-2.2165262525805463,0.5622575632298598
3.779381038398389,-2.0202152306910603,3.0571995803071514,-0.694750118384552,3.462932802735581,0.3813731513024683,-3.480914274713992,-8.398404774350379,-0.4338048546877937,5.380749811794582,-5.030769654954032,-4.450282542046752,-9.49712258984932,-1.9502592518377992
5.828649734137011,-2.550416230388096,4.145382686839967,0.321976792940379,-0.7006107539214945,1.0310303678693549,-2.5460478857883304,-9.082577583309304,-1.001171991367013,3.053938643326424,-6.564842358911407,-2.3748453765770883,-11.800272188060632,-2.7863226747902536
3.094506034163264,-1.9908937542900311,1.6681794385863655,0.0064333318783793,-3.7248532987122793,0.7471825790590196,-0.8400344201048071,-6.662382598316418,0.1430895122372969,-0.2884299030280887,-4.052224551731458,1.649707722365962,-6.63582829141921,-3.0710497103830128
2.81492195102096,-3.3722303853796225,-0.4338514186163884,1.6668496266747768,-4.507144932965217,-0.605680669824893,0.2635316026151601,-2.4118781661535,1.38595436028255,-2.5823448120463226,-2.5315101224685854,5.85793264981405,-2.4877488056254,0.9194709894243426
4.027299668153579,-3.654421287317784,-1.8605290374193812,3.9496376309009618,-3.1367158431472952,-2.522588386743023,0.7678168128405359,4.84269316235347,3.42575200773838,-2.4042263096602623,-1.255125625070882,8.553949083674244,2.3784595293666757,5.09346797832547
2.4542406477440517,-2.2957245161788125,-2.6687722575063453,3.502086376058114,-0.4651749195048698,-3.5897993718720644,1.3145282487825996,8.18181937758984,4.228297513417199,0.0087437407367496,-0.5214990785937391,9.025557212312496,4.825525362427455,5.444997775946674
-0.0086593601319155,-0.8144741971513698,-1.5591150283452797,1.4836206069913638,2.5455918607011445,-2.5343447997823865,1.5771855655988942,7.195334223362701,3.519665169072534,2.993660132092592,-1.1109484341400435,7.745073159346936,1.6555741762007217,3.4176061702022142
-2.9296872565261616,2.7916909862462407,-0.3406082553952835,-0.7026230739684943,5.120449683808983,0.2853854114474848,3.402373524815196,6.584661903163847,2.990080675600036,4.735222872570698,0.8680320585613052,5.845410471953889,1.791843553286478,-1.113157821016341
-6.242526673582707,5.78892940357461,0.7566449188138618,-3.4148863630204787,6.578118105678894,3.9659452822269152,6.974256906649454,4.7112363551559175,2.1183480275378264,4.51528073883837,3.86757650828181,4.366494390383002,2.1760731635278137,-4.501321431399638
-5.142740903321293,4.783684400314984,1.4364007402159753,-4.943795276370038,6.286436916991447,5.420856150403488,7.802701482447221,3.6842407707950935,1.3019021439290848,2.945824168856682,4.641859597477217,3.773902008986208,0.9262814540678588,-4.266674247782152
-0.2205213719842284,1.6589105564952455,1.2736123813396425,-3.6852105389923153,3.969632572479151,3.124353245702861,6.033949971508967,4.087236961002815,0.7463019710169883,1.1273232176454815,3.4527204135957144,3.888589480438252,1.1213789217551795,-2.318359572098932
1.620719792949099,-1.2262151678249695,1.169948329141827,-2.264961643037272,0.123191564626504,-0.4354299271446922,3.395438405399874,2.9359909539741578,0.38834292793065,-0.3802937363451437,1.007000069087725,4.089351198867261,-0.8608469260709521,-0.1678470154285524
3.349062247288235,-3.795602749373645,1.32409598001009,-0.4297473126503686,-3.983222714701558,-4.359215992252381,-1.1036868283294543,0.772903932733762,0.4263553192205253,-1.8119421533937228,-1.6358896497282802,3.667714158448778,-2.687111421265832,-0.4191580915855806
2.9165242464453702,-3.748478510578011,1.2270728339237302,1.3007339337361297,-6.879888107534009,-5.543749733229562,-1.9946992128607697,0.3037856502930345,0.292927522696205,-3.546047018309213,-2.1517273616145243,2.2933966322439376,-1.7185113195956114,-2.260914360145552
-0.9675432465550284,-1.495187230608802,0.7705363319818401,0.9360708248384556,-7.641337617035504,-2.534343812101888,1.2118686036416753,1.3055620655917872,0.0344812954433088,-5.322448976779253,-0.5798808902770167,0.4038915074088128,-0.4054172356313493,-2.886465813950282
0.1727757668376028,-0.6985437607717508,-0.0428847438997832,-0.1149294168034612,-6.258920755834692,0.4398828765567905,4.574398215834797,3.695961290077318,-0.1983954135107702,-6.196012336810753,0.1057244913692565,-0.8744756718971165,0.6742129186231515,-1.758720584145047
0.6670358169757148,1.1996227920236544,-1.4452943150970283,-0.4446887884589822,-3.500459964426642,3.0810320514618885,9.456018344278386,8.123855675746544,-0.5138958426828681,-5.317198710772596,-0.3094334321997449,-0.4776200020152981,0.903205692188076,2.478589112384244
-0.0952172286943198,3.5934071043833518,-1.972003666924123,0.649926654174265,-0.5234815926466653,3.8673917085886576,10.538913647118836,9.78493673651332,0.4466035701370528,-2.783476347625289,-0.6805475308138004,1.6197093451088294,0.1271407915705721,6.288920860157822
1.3243075647657303,3.7759561801629458,-1.2741556571557406,2.9353710334811045,1.5127397458204397,1.5777668053639529,6.969114314089904,8.521405098625578,2.80565257479952,0.2755901511133181,-0.678987873654995,4.119598870582934,-0.1006510187733955,6.06917278001645
-1.894898656681275,3.2822308676405134,-1.0764606330168007,4.952160300733733,1.8399094922055188,0.2977221873396429,2.664925974935136,6.036627825315958,4.607268851833446,2.4871972339600354,0.5001937839287998,5.309906894085083,0.7492684657726334,4.071541474786395
-3.721026940828714,-0.1708080570371974,-0.9272798147799431,5.464576371112399,0.4866362113213052,-0.4467154996417202,-3.887576675037375,1.0970453624054084,6.096451283829463,3.199158644320592,2.6732224105154407,4.535633671442477,2.096346239544321,0.3115355689227774
-2.3094394596146817,-4.870987687346847,-0.9144179384727954,3.2215840027832128,-1.5735135061663248,-0.833285186167712,-7.157363860653199,-1.9389324629689968,5.848281860143726,2.806796313487969,3.390506889560125,2.862695908540781,2.313849893945815,-2.853616286670517
-2.137709227230228,-5.401725691602706,-1.23488816559677,-0.2621123389212823,-2.879229663143546,0.1555676249649404,-6.377835428652489,-2.855291025876181,3.312346335882766,2.2541480072174007,1.9254654681697645,2.1513355650838677,0.8504637214023197,-2.320853342992148
1.998926583431221,-2.212047554177948,0.2464669662149145,-1.84291624043942,-2.4434589553272192,0.0505230659791755,-5.9291933412213496,-3.830137749946773,1.7198025929891734,2.23463954243002,1.0514416370144866,3.2710822677034743,-0.4524298094885413,-1.165087479338209
5.110550614760475,3.178945032755466,2.7533913903846696,-3.4908110465993207,-0.5276535733035077,-0.4845070851302926,-4.341965575503725,-3.7976519589808544,0.7005641051114632,2.76311286352094,0.5669621989508729,5.147041027867997,-1.4383945691415994,-0.9351501312624072
3.947518639988278,6.804099796999383,3.7082437011484535,-4.129923411190194,1.4884892578965498,-0.6450124606295258,-4.188157084503596,-4.601003372640109,-0.089426027652281,3.341162725082504,-0.4428738480854082,5.643337193047088,-1.4272633861502189,-0.7731859214021027
2.3969594400463583,4.385102643729756,2.7538839105064623,-3.038084246526573,2.141485328830351,-1.0446416889591508,-6.088834055753753,-6.423574765088623,-0.0148732188845234,3.4141353007083186,-1.645068034204143,3.530682181246031,-0.3598105258465131,-1.4676162371197097
-1.7956474009482255,-1.540726784301722,0.1820391286907324,-4.14360554582809,1.0053025029472686,-0.6395486594326779,-6.678605409338413,-7.588947300973057,-0.4492164417258205,2.717422202224986,-4.652315774381289,-0.3159595309420595,-0.7664200083501862,-2.460149707331849
-4.956591615828774,-6.017844138636244,-3.2344747451078244,-2.969134872750134,-1.0297734977704058,-0.0536492884797179,-6.619738057095919,-8.497569151563637,-1.2851093399371922,1.384935680578024,-9.16132905599775,-3.6345139422229735,-1.5874983220833552,-1.3197492505884256
-3.905221340820698,-5.404016840299044,-4.450479216472231,0.706741798574427,-2.525210366787277,0.252985491171447,-5.336147247796441,-6.8428300564958215,-0.8325350400851127,-0.073088073221657,-9.313071072032624,-4.707209246403662,-1.5371686260806054,0.3762400100497906
-1.1766473426901272,-0.1450311865328246,-2.4092210157621228,2.573709522835532,-2.633369953565052,0.6097084615422892,-2.2300329366783216,-2.153501436036503,0.7873361893337728,-0.8884101843613295,-3.7925243254648455,-3.665026662913145,-0.8489767969420878,0.7166113818270741
1.8497563466164408,4.173813230712837,-0.1316300404145175,4.355794929125337,-1.667469137811778,0.3830099489648729,0.7024622605165631,2.1711312635243765,1.4340051939791012,-0.3737227666753555,2.2460465417292967,-2.0205391439936697,1.0577810167830386,1.359350364345694
3.265310620129819,4.173542790637957,2.0132562621651355,3.526788594728484,-0.6908823075533141,0.496416913344145,3.7280805614654224,6.679058332661092,1.2974253907562563,1.5164030859648865,10.076342729515478,-1.0772627683197973,3.079734921165479,0.7598416296813952
2.28295578171543,0.0603046285658064,3.0276600918767254,-0.5208483635033152,-0.5394219741541479,0.6057822226770823,3.97336937092486,7.211094044379345,-0.1976286695974992,3.798254990794816,12.237377069545788,-0.9120096035467604,2.921622262604157,-0.6170128474095857
0.0905213683663603,-4.3669900114254885,1.5497490306050707,-2.762164546094596,-1.1263347816874627,-0.0101354222962999,0.7618027091745895,2.7190408266463875,-3.608516917921333,4.798036529965756,5.0463808915736905,-0.8930967722460674,0.5696967561712947,-0.147537369610675
-1.7782951173269932,-3.916836653364343,0.2077122463622969,-2.0108777311252752,-1.6082302220062803,-0.2347943533841691,-2.5280902475415705,-0.2162698346611559,-5.782180903752366,3.277688143395311,0.3811590567888181,-0.9992509033840592,-2.1797013366248965,0.6122876689902228
-2.987719187726692,-0.623954925637735,-0.8154018653287667,-0.6010407572186911,-1.2454258373920952,-1.3375502272600377,-6.728807360244646,-2.6577080502282144,-6.864700678513339,-0.4368483818012909,-5.642641522181554,-2.327916926488265,-5.31041378972114,1.473504539322872
-3.3391588403242074,2.29703594529946,-1.811955038468475,0.7983537485636745,-0.1808932054764476,-2.1775753959351323,-8.51828894482287,-3.86408411354496,-7.14885757955364,-4.406753447481743,-8.736944788936617,-6.043033867677851,-5.947999798486911,1.8271677296678317
-2.641694741426301,2.6286255314989004,-1.5974659191456444,0.6525306882603552,0.5979910416296566,-1.1253312391295982,-7.112038827039452,-2.5660407007938337,-5.888565651687986,-6.4136515427484095,-3.0393741017047566,-11.711834489647424,-2.9760783404320708,0.6466208769778343
-1.0401736523192715,-1.1777164040892716,-0.9735224782358144,-2.170817939865259,0.1506918801974035,-0.4954855167821224,-6.227900465022935,-3.065520576605198,-5.034388565017835,-5.68331167928598,-2.3309055638634484,-16.77915934279538,-0.3051248327240665,-1.0197467656875976
1.3769987477111123,-3.3580133880311323,-0.4755240934897083,-2.4869502733494864,-1.4268187175177216,1.134938419813021,-4.906808064184323,-4.922186670731626,-4.450497107536211,-3.4701316744872117,-1.0344578531886224,-17.985308160654103,2.8366006325679463,-2.5726762687917524
3.5415685965167167,-1.5329086497904876,0.6392834646431059,0.7059434256225168,-2.830126065814264,2.776829724592667,-2.266879946800589,-3.6043947525601503,-2.7010376072142783,-1.883450008668051,2.96144256011355,-13.734111696854375,4.727248600743684,-1.881769604693391
4.4791501671385685,1.8981057119892837,1.8278639219307329,3.909734399631763,-2.4477195727063106,2.0596701339609877,1.3220006046918522,0.4561255644173269,-0.0740199592228569,-1.9614630459418605,3.208185207405896,-5.462587995586127,3.899940941593127,0.7968018445784825
4.276692667840145,5.805622151552836,2.2102070220026446,6.090366951891548,0.3445661775860065,1.5837422901888127,4.959653857981643,4.306417087022821,3.2365574995849946,-2.770973581538332,7.632944511043334,3.1745940127709678,5.050755000084686,2.4702688555590617
4.209966535726752,5.85907468274258,3.311190132782914,4.342026975238285,4.5519014603463495,0.2405916397156772,8.634158903871045,8.68874659811894,7.455807862320169,-2.40261294312912,11.583493866944313,8.704640407623039,7.27223381176641,4.067417984065938
3.24493544215886,1.4696073135440957,3.3301800848526626,-0.9271778954521892,8.124632663726786,-1.597211371203988,8.803920167998902,8.793986962859806,8.355011425202706,0.0523108481032339,8.103631888037306,9.962607095967568,7.116882913284219,3.3701417514099763
0.9116174375041592,-2.6561030842031808,1.0216524673518974,-4.400005955237725,9.295407748482257,-1.65001441777413,4.82787004699963,3.701607458878293,5.5595785144970575,3.4091379841601084,1.760879077487732,8.367962522158873,4.409436845020657,-0.2626910354230208
-0.5638076911627552,-4.1221478038514805,0.0563158218184207,-3.3225434670700977,7.685017625276834,-1.1253462753489814,3.0901439236896437,0.8423236608900805,2.441178683807773,5.234638592893326,-3.956192160045527,6.292782194460665,-0.8702363018793285,-0.3328673727931741
-4.291643585940877,-3.79734085024488,-2.385957576420197,-0.670679125216922,4.407820108325879,0.1052754814426883,2.8874485862128645,-0.8599669456900527,-2.04357422027032,3.881185897630221,-8.379635022329136,4.9518887256269535,-8.437955992553434,0.1284333866469385
-7.06587236158408,-1.5839095612187442,-4.7091152260268405,1.468850598409607,1.2025018291310006,1.369419710362772,2.657534751455294,-1.6068054072168052,-4.106266696816148,-0.123546846243518,-7.63971154528252,3.546546452467659,-11.743275800504028,-0.4275048563190384
-5.333429501956396,0.712618658817109,-3.4308144078829885,1.4484709288883677,-0.6923029323756433,1.150905326493008,3.6012503591890628,0.0110473186854532,-3.022713267500643,-4.536550424828632,-3.716864402843101,0.3150338396295451,-8.56521479180561,-0.3421777113524333
-4.665747101330671,0.2739390934681889,-3.4677972069128438,-2.463346051309582,-1.1034415649101992,-0.0964048084637846,1.3091118679864129,-0.5365827085093086,-2.5713299541642645,-7.215695486463039,-5.697240706679689,-5.445172296973764,-5.520851145378455,-5.043525039764933
-1.559705507001888,1.8657982226061212,-2.1196836638506875,-3.803921819538685,-0.6384299847126949,-1.6690435042163625,-4.458802533101542,-3.018338061303667,-1.7124618023781455,-7.630761448571215,-9.844331638060208,-12.151446648644049,-2.0142847686195893,-10.864404097621687
2.2650328545994176,3.986838502140121,0.608474807987389,-1.1280576928159465,0.0438111156891873,-2.3876298697376326,-5.170009905757736,-2.7366121652906394,-0.9095089070724728,-6.813080063391041,-10.543096517906111,-16.660817768340028,0.4699024198382442,-11.066013686930477
2.035563088570795,3.23306579911743,1.0811090986213825,1.947953126376152,0.6998509494653486,-1.3177047005641678,-1.2657436086273253,-0.2828778720856588,-0.6446429102927149,-6.004522744833485,-6.827042082347809,-16.494236708517136,-0.0717100379611115,-5.833447083418735
2.414838413859972,2.5286283137588907,1.984548785485414,4.449680413556385,1.343868956559488,0.4192115791835508,2.9396587578025475,2.1045092074050458,-0.464902176202139,-5.419580906831879,2.7166492397134983,-11.79871048789122,1.6502564820128114,2.4440514520230465
1.8554605578553995,-2.3777573597163464,2.5649355022089684,2.4986012454115167,1.7764304925113326,1.9934004009270327,9.134800013520564,5.187242450202096,-0.6809296793181017,-4.276807876257691,13.569800619943988,-5.400591847260495,5.462776964548588,11.617371768983393
0.3356598776133936,-7.44041749362676,2.0664006794821144,-1.882207477187022,1.4514913472166209,2.420276413551685,10.337115908566052,5.800928888149957,-0.4878703474734153,-1.915041372743718,16.314892789641064,-0.8076715119023374,6.95928251056666,14.432814328565122
0.8913839935536346,-6.2098453080518885,1.8488558351746207,-3.4266361317510325,-0.0441060028262794,1.0726538034117643,5.559462355080563,3.3986781436057365,0.1249332578944902,1.2482802157703268,10.151165548814834,0.2990638427083354,5.724098580761043,8.719027532361585
1.5214881750460263,-3.441146230342117,1.3407592905760135,-2.0445673673574425,-2.3602594939042225,-0.3827827355091113,3.8655428358489647,2.857266572966181,2.005331402984288,3.910808492446201,4.0930838236980405,-0.9021687135015526,3.3431694162408574,3.339441834269349
2.293551584256728,2.3437583166362383,0.0916483651220853,1.4118057340668948,-4.353006697505644,-1.3183197944443756,3.742719631576601,3.5134391098309505,5.458334600761784,4.996503580439104,-0.0546134334519552,-1.6134118494890992,-1.0312543206264284,-1.3022361786158227
2.802429259788724,6.9707680728105785,-1.0268626026208107,3.66176703475256,-4.857293093521552,-1.249277570194336,3.872686159935234,3.7558327960585816,5.9273945986605865,4.538234260629342,-0.7175702674663093,0.1241509605509272,-3.85379525049634,-3.164176833416824
1.443188240324938,4.417006478433143,-1.358305368040477,1.8730344003339168,-3.6143317903389818,-0.0471747075606056,5.756134064197056,4.384238362989798,3.3559685299813165,3.501391622112957,1.5260889192333429,3.778710036847005,-3.035560811221723,-0.2959822199736671
-0.6570706738933582,0.7426058496708945,-0.9019995575277352,-0.8476364169580731,-1.4801249818237192,0.5770931625059402,4.586950984657026,3.758312352800441,-0.2970599814040559,2.8468117718182144,-0.8344776508991443,6.81696113805943,-2.3581312326235926,0.2076351960796104
-4.191335319813343,-3.4422209601548523,0.0160851540165516,-1.8604532032193344,0.2762642751930304,0.5034750340510146,0.2866537042883053,1.682482315936641,-6.127462464987113,2.827396683167745,-7.331171473863719,6.89253710310194,-1.451036299256666,-1.6179744872941488
-6.627365815187197,-5.47403016522568,0.5245887767757736,-0.9396192601370408,0.9058880971450564,0.0060038148352191,-1.709540410596047,1.0989556920872623,-7.801952757381869,3.1006995169119334,-10.677107617040829,3.8970899903837486,0.003051551543954,-3.414199378452742
-4.944436584430397,-1.540675236127255,-0.0204606978110427,1.0476949535482576,0.5276840020062457,-0.6229648732058566,-2.167152039004289,1.7753247547016546,-4.746263860356246,3.299726702142109,-8.176864232370141,0.165569215804032,0.6826260472338901,-4.930995835889406
-1.3224321678264,2.6507492102533226,-1.419274369090098,1.0007680339552467,-0.2505620382703607,-0.2212574872386369,-2.5553026451338936,2.516117085703127,-1.6483365248194304,3.33221299844744,-2.3300341862164093,-1.3383237250617506,1.4210558307740584,-4.3064138716062725
5.328285575824361,6.265596424174668,-2.4017356439764224,-1.903209188818304,-0.9012507335266458,0.5969196086993556,-1.9395648624263504,3.8827166939956186,3.064388235846661,3.197278188364506,6.177371938873885,0.6443450240520008,3.1580321480668743,-2.2127906583890247
9.928647403768004,6.837791775751555,-2.0778699481029297,-4.33517258294488,-1.2157528133346405,1.0102861032669417,-2.507019432698454,2.6748389206269443,4.354532218138813,2.771298000677729,10.143582675369515,4.739312440342938,3.3454938976877173,0.0083697196511199
6.7472126154594125,1.9336273334954772,-0.9423023125696522,-3.894529549024736,-1.220204517542011,0.8530692701996999,-4.397499573234659,-1.463052731451197,1.3108180691734452,1.9825393382168413,6.12779140848268,8.15392250970502,1.568533156571404,1.7283329301573929
1.2345660195905277,-1.7280599567233428,0.6941594401931637,-0.7813464165003201,-1.0793871850545869,-0.0099082622997734,-5.268145257484808,-6.581302861696615,-1.3466666503912397,1.1591899179269358,2.148618546420314,8.967845095793155,0.5956098541843207,2.700924562463131
-6.33784153350849,-4.959100675333662,1.928979132782458,3.01155892135316,-1.078477095836167,-0.5677118771550904,-5.528561243793141,-13.554614337537815,-4.99364056482368,0.9610755486954076,-1.6157288009739603,7.543385734044349,-1.2986115861999834,5.289730640024235
-10.774799819566374,-6.094916191468352,1.860631890599964,4.012183906877068,-1.4770924026898735,-0.5313642831263315,-5.375121448711226,-16.18822863881693,-6.318964795072816,1.730357858941904,-4.030432901984476,5.893750192245841,-2.5296942880585216,5.805496916442435
-6.016832311801145,-2.5569867492055995,1.43371653392468,1.989618165043313,-2.181143067853545,-0.3777678901442819,-4.410358530827036,-13.812399300885586,-4.483259577387993,2.857919388414383,-2.7223640490626573,5.641245237594376,-1.9339022148189264,1.9191825737343908
0.2228232726746771,-1.5228640587949904,1.480512321960324,0.5793080412596134,-2.598478155824349,-0.3375728690614031,-3.299871290719533,-10.973266097022638,-3.0925564432011594,2.95155961226388,-2.816781782895429,6.430131215024678,-3.661300870991967,-1.8375804725081952
5.891797988825627,-0.5659759227251576,1.7474589659745965,1.831084713858855,-2.0723755402108206,-1.375327917521426,-1.9594530469287397,-6.057939606151804,-1.1730327741209832,0.8932723868955277,-4.646681886948641,6.246032982446764,-5.699928484408935,-9.35977786726082
7.693404957508364,0.6473849377130574,1.573224922661236,3.98317200967636,-0.6850423154092762,-2.418226204434616,-1.5560497645324738,-3.2012359094432385,0.1664038622880808,-3.0407161022932785,-4.094008711962819,3.3872409943562056,-5.405094092998301,-13.027243025271222
2.910503921050589,-0.5046956125498684,0.7540692536139295,4.264628756750334,0.3838467401713634,-1.9853135697303883,-2.330324714884328,-3.154327898044896,0.3932858128338953,-7.030412679782586,-1.396022774818659,-1.6694627718006627,-3.1879414915655357,-6.22521500142867
-1.555352335717271,0.5560769767419171,-0.9395724803643164,0.420038102658956,-0.43493965794198,-0.7654550327631445,-3.339760706732271,-0.8968913536368581,1.5606922390008582,-8.814435064293367,1.3987968000357218,-6.230122303874695,1.452373971882745,-1.2449461457342317
-3.826390743020711,1.2321126619636122,-2.9549833865027937,-7.015423708708422,-3.6907408470298426,1.845421343198538,-4.948330819567997,2.5728081382925745,3.309752048102896,-7.265437338353839,6.084361261463388,-7.32948387505305,7.288049159445237,6.55539908095515
-2.616274367723177,0.9456601533555512,-2.853608218277369,-10.45820529700801,-8.00744268147617,3.949023429178311,-4.762295715919966,4.0978523460906775,4.415555425900722,-3.213747344196413,7.332001070231403,-4.077807677766722,9.3044450361025,11.890525212107944
1.2076170379378874,1.9905954330442217,-1.1085049984569062,-6.474676071822434,-10.663090331465932,3.3328586377820875,-2.489322653205045,4.158780110875914,5.099223087009858,1.1515705965252554,2.742038625977755,1.564916676059155,6.295873234763044,6.248877550745706
1.8298617806906048,2.056366018829949,-0.2867153901990822,0.1896637672585612,-9.426037246645905,1.8954343062985648,-0.4228931550301931,2.5626229320627454,5.16608167090691,3.8543870986265216,0.0095587574441706,6.24412593669728,2.517029201087444,4.763953158102387
0.3169329323692964,3.748512515187266,0.4041198891363127,8.257977067629932,-4.2844981531214135,-0.1654342998600337,2.0229129923286324,-1.3685937234067225,4.361821892536374,4.442766779423902,-4.4106846344333706,7.666829728404928,-2.1245674220395223,3.2083306667210607
-1.7404435628682653,5.349274559340891,0.0367336343965122,10.696325671332966,2.325998319558746,-1.760510444172691,2.551987061328985,-2.425133334769497,3.58324876342921,4.017674435350095,-6.901275846036056,6.03239026035869,-4.7957875760940745,-0.1096487011964875
-3.4373763441155085,3.3907997909156347,-1.419515601699214,4.372640649027119,7.051346246382259,-1.280264163842698,0.6317425757571559,-0.4894894780274849,2.733150647168333,4.022905220509536,-3.012927796034146,3.38259275934292,-3.211291952093496,0.5163619002862422
-0.6002952944110579,0.8460380449579522,-0.2439628146043735,-1.1126541975788462,7.793039994828031,-0.4447058257744145,-0.6892013075677742,1.379498525904039,1.924617130595924,4.885785143196257,-1.7778556704010595,1.6604872082412754,-1.3250108869157535,-3.873996471120337
2.687378246533549,-5.333899393269402,1.2053260785171491,-6.61890016262354,4.947512457364155,-0.3081537297239607,-2.018444028615543,4.365368374737559,1.3539123896329996,5.7036634689057895,0.9448481768405376,1.2930660371375722,0.7422542547847535,-10.376249353599215
2.815732440419977,-10.609090444876047,1.3749838079914871,-8.954186908922292,0.8994301961830828,-0.4197213344178763,-2.1186589901336386,5.048107598687514,1.076462834018458,5.216844259958394,4.187298420789261,1.4262649019546343,2.0485530896640016,-11.162447336951942
1.4296944942128325,-8.615794903729514,1.5454613041265626,-3.890960808863584,-1.7112351740204224,-0.7167660829882148,-0.3776639099555258,2.897380511187215,1.2371860283237888,3.131440911581717,3.002005952092179,1.2689454976740524,0.6208464535395568,-6.687077185139303
-2.067159276120718,-4.630793216792429,0.0681381108681758,-0.0855791404804774,-1.6178505428610426,-0.9719439638297588,1.06217189762619,1.0614919259129718,1.2129374630427938,0.5373831288284636,4.531361440388627,0.995599506410556,-1.7822168423526763,2.114411779834297
-3.585881537667926,3.539414875067671,-0.6059011885951076,4.945452957412413,0.6011573626813753,-0.1180819434247583,2.648890713483467,-1.3436422552209433,1.04681554254083,-0.9883462975417908,5.145566435811727,1.266941180363534,-3.887729109836165,13.545214270709035
-1.309979758130401,10.527052839448736,0.1735003556012954,8.710336811433269,3.274095839833352,0.7797249804511464,3.476987064786633,-2.568234665823616,1.1619419055268352,-0.7699641818537128,2.443158953771489,1.9854136602921555,-4.239379912444119,16.746098873607732
1.3655942173801243,8.057743458322571,0.2001915641573931,5.092391364908999,4.861841737518224,0.6643543513418829,3.1355106653668536,-2.0769541598367685,1.4581770055279286,0.3788397448690066,0.7039419448799382,1.7936219078652904,-1.7983568930544591,8.27043224304129
2.188093479626701,2.8919691802230982,0.0432404690243697,0.9548748428874154,4.819003936523137,0.6288801736403724,2.4106932521287843,-2.615677888054478,1.4321492546363068,0.9246208226769784,-2.559306160861912,-0.884275900084035,1.233468397228572,-2.550247034500603
-0.3013079224383507,-4.362962263099854,-1.821242046899761,-5.702160203918769,3.712351640466834,0.3759301617694675,0.9154868364124056,-3.7111666861846953,1.0957007524630251,0.0366583611958537,-5.21502486526199,-6.072325264559724,3.750544482425323,-15.4405626338836
-3.15811164132343,-9.647260811349078,-3.0977224082811485,-10.452452853883624,2.706959145675129,0.2510598729314838,0.2299419632511393,-3.443129292055968,0.9259421505769508,-1.660397216184112,-3.5818865437300467,-11.454008474017924,4.298982798490714,-18.840002189500662
-2.790896275483573,-6.093390852504232,-1.20035579123697,-6.0985397083733455,2.768607838520768,0.6754492481106231,0.4977687120303929,-2.090243120109078,0.8328164235687422,-2.7108701060385894,-1.002763790672095,-13.532234787384374,2.2810184553572306,-6.861260151506033
0.9360434966302276,0.3120377825043493,1.139711214100649,-0.0142268900051992,4.005885435120108,0.1776222043847682,1.1849790281839756,0.3439107490765344,1.417799143191903,-2.2389178161579077,-0.4471552493003971,-9.998809154746658,0.8195706206013124,4.509537186373463
7.198953992051514,6.284453588621541,5.230642627595355,8.396035393069747,5.565150674064218,-1.298831107214835,2.744343266639724,4.260887652327216,2.825925199342611,-0.7876036119112888,-1.420019045031645,-1.4935716485406494,-0.1301178807466158,17.575030092381112
9.795510004709824,8.767047554411121,7.1307750421932,13.103865002784682,6.244025137327951,-2.5388053168448037,2.815488968397901,5.28162570377227,2.5486111232694024,0.2424815605752055,-3.4465083563867207,8.575871224914021,-0.6827892575096915,21.651905920980976
4.942212346021932,4.5065981918117854,3.465053970766512,7.147641780567016,5.454312183273215,-2.607221460394575,1.270390658730581,3.1705772828850445,0.5750757495753529,0.015791529536298,-4.126193910815654,15.951870488311451,-0.3267319417590515,8.051172351105558
-0.7440094410388781,-1.453172090398524,0.3392833399036371,0.1896871918003857,3.741459367171213,-0.7044585616249815,-0.6998121256143586,1.323516415663057,-1.237296164880865,-0.8873450392894209,0.0803037552802554,17.78240000298421,-0.7789719276253423,-1.485988868838326
-6.754017246231111,-5.74478484947751,-4.574232200711357,-7.7811978702033695,2.3203134947817885,2.49308588278918,-3.687343495265496,-1.255251692588801,-3.4010467688957697,-1.102371706217904,6.260782297540299,13.83714071250908,-1.7000571389961323,-12.640753380937518
-9.526163077246837,-6.199547713019983,-8.105526757175825,-11.752970503856256,1.9780849864102932,4.323569867728449,-4.272239872202722,-1.8515879004572509,-4.023212821270469,-0.0064689355902617,8.602864663636966,6.25353181237873,-1.7738467883505042,-18.594590719606884
-5.137221816803066,-2.22023033230756,-5.281015677896657,-5.9598063896852365,2.3861924692331997,3.25322632123446,-2.111738364442736,0.1884794965556629,-2.680330697811417,1.4320086038231516,5.747832627223934,-1.6946850577085186,-1.0775141188739117,-8.13911480091542
-2.082449218078702,1.7934295894247412,-2.9989759007733183,-1.0190162231717652,2.530969933896261,0.2199141365494293,-0.0295135701029814,1.4601625805692815,-2.658498082029851,1.4544045611510676,-0.3886652986905982,-7.032978309875343,-0.0860367752893743,-3.862574176269332
0.3629083849822044,4.484124687360864,1.4241155219289492,3.6974188237258314,1.8367036238724597,-3.121072603529204,2.812141085957565,2.7021360923455093,-3.546597740300667,-0.7210464429630161,-6.621133779042927,-8.175850312743313,1.3981635351676454,1.9253549946035575
2.9471726432295533,4.814532085683157,6.18182836664413,6.441141046659111,0.7927897820794918,-4.22530713520394,3.752253816398991,3.2327329265645166,-3.715363449533471,-3.898050222003979,-7.565262506715247,-5.401749055903105,1.9086502534716787,7.891743347363275
2.962047679244837,2.569453611462373,5.374823687922016,2.9804856001200903,0.3820189004038861,-2.190760210396327,2.21776011813623,2.477316762637425,-3.66566341582324,-5.730460317479095,-2.854498851526523,-0.6039111911982583,0.8360805842516409,2.780743427390066
2.7332504314314265,0.3162366912105421,3.223172143047212,0.9865819760067988,0.8854699024406258,0.4996658307310874,1.8653847497361875,2.292402844985629,-2.605042822695797,-4.690840729612715,1.1855411065708383,3.606007176912432,-0.2301788386351639,3.19049737509751
2.21926444290154,-1.7451514921975164,-0.8943948874361067,-0.4551048993666511,1.355877633660238,2.151829427129759,2.03618773589988,2.3839619976933166,-0.2612905686570361,-1.4028034755178544,3.213473327216048,5.071881384333394,-1.7148125217911134,2.6009144729247287
0.6649881921228189,-2.749834803763031,-5.031228001365581,-1.8073504927886783,0.4117811475050957,2.089051513701122,2.349999144531875,2.189920205396591,-0.1596475854052871,1.822230214562662,2.645526600416293,2.985354969383545,-2.1022293686598235,-0.4439147864445936
-1.1287732875544525,-2.2478534024089143,-4.486355106187625,-0.490724124662457,-2.3475444814461026,0.5413370585579296,3.392083537532842,1.9794841189716847,-2.30829102605167,2.7624810431114457,-0.3291818881781074,-1.9072520780424944,-0.4492910178564646,2.359468917246739
-1.351498238699259,-2.197128308669116,-1.708690977738326,-0.6508259045600225,-5.687164138130001,-0.4441706209070345,3.112055342194495,0.5598097047278066,-4.047608472408736,0.8396450129953295,-0.8203880818429107,-7.777928469135297,0.6960068463561666,0.4507563781363907
-1.618454153200209,-3.377538635047839,1.0980423270282154,-1.909210487532374,-7.547653066516053,-0.0488505954298608,1.4956225279381168,-2.209666282965008,-6.0856440971913095,-2.687505902082035,0.4992882128470086,-12.539855903631782,1.779229340425774,-1.656058912915326
-1.3556880765121628,-4.410696547104179,2.6761926237654983,-2.3757101641188547,-6.667551193997253,0.5949392850072173,1.8442420853272083,-1.681511052790118,-5.759265777874649,-5.770487145811412,1.1442582576562108,-14.661734794227772,1.5886813743700845,-1.5318331786850825
0.0278579006476672,-4.084053791474116,1.365505137855222,-2.5855765149807226,-3.617369329190183,0.6620186031108672,3.940893000127103,2.2199846397683127,-2.4519029929659086,-6.870764022025112,1.1057149005348297,-13.740561199977112,-0.5256537743909572,-3.5640111012902533
0.0015316591128662,-1.3285608626094847,-0.900844577083772,-0.7356719616190734,-0.3702906536654464,0.0601519563979295,6.955381772985604,7.947054001426476,0.2943185960404265,-5.64559581855332,-0.8719331268751106,-10.653318536857348,-1.2201667996805716,-0.3246164814352382
1.1508227103698545,5.018762357750746,-0.9408263831395052,2.812609662849293,1.1955161560686745,-1.2382142438316817,11.604659662061133,16.68179574653413,3.1815187024879856,-2.841057730477555,-3.3030771242723183,-7.127165934387711,-1.5223632123823707,3.120576637672196
1.6247198123711144,9.62654705181579,0.2769755389736709,4.714541273684401,0.6035103098624173,-1.6111740057881292,11.879285126809032,18.446394259239483,4.776992470669711,0.2793277785048278,-2.7674716781241235,-4.78564721755469,-0.5782517593241545,3.138312052575715
-0.1780490787658279,8.257632624153008,1.3255523713000823,3.8285277321352256,-1.113045139405127,-0.4201112678994871,7.326550639274914,12.456977669857766,4.367673580784944,2.58439481161168,0.3424642750956547,-4.159425610490408,2.0560416063706857,2.51422264833639
-0.105258213495723,3.6119832731873887,2.101632466219928,1.0504485525299012,-2.439336868988104,0.5499161209468992,2.6809235303166603,6.339594452508071,4.420531338137682,3.557450299074749,3.566308711274872,-4.381257809110943,2.2208867925581584,-2.9593492221319715
-1.289945500743555,-3.850840809656205,0.6030468625152337,-2.291222053661561,-2.5694447310893085,1.462904790400534,-3.4825478684835494,-2.3146126803605003,4.412895868013704,3.447653930100562,6.350096137123281,-3.905786973289091,2.3679153141858147,-6.7229616369357785
-2.355215101547314,-8.673215894549305,-1.4384062048417836,-3.5748227012626863,-1.8016834524781655,1.4155662081264544,-6.700448620496167,-7.428339476908906,3.0600669951618498,2.99468289767867,5.304289084650902,-1.7704253151590883,1.8014207074122894,-5.218252773783751
-1.071218499701795,-6.399549718096532,-1.7099907706199418,-2.0780546450345265,-1.0075807888831978,-0.02439619824189,-6.017741536256892,-7.645046826746073,0.5914773525356023,2.836630765678193,0.2512818996938262,1.6128095166236178,-0.8857142923635336,-2.6342244826211827
-1.5454831083880551,-1.822307082539224,-1.382633484659054,0.0232837534246662,-0.831536252298628,-0.1956725408532933,-7.588097885816953,-11.071177485928402,-2.5867327810708067,2.9792915286459447,-1.7478590895948116,4.791344436737958,0.1280219418414697,2.456962003014528
-0.5141195065633947,2.059495272463744,-0.2104349178051765,0.8531365195983278,-1.3246245080007304,-0.1305329309068084,-10.312744148237377,-16.172153643971942,-6.686609522236827,2.757627110908041,-2.8818070735594112,6.411499583152247,0.7918517908133493,4.510136570391165
1.4869755367643096,3.694661756799277,0.8540791041189748,0.5021698754086832,-2.1231067307462257,-0.2726963534077367,-11.809074582893569,-17.96310041283073,-8.301448851827473,1.393418833785854,-2.999198608355358,6.155566422704219,0.0289497387222406,2.048195452089838
1.8492173236936045,2.376184767863401,0.7134604999081018,0.0766833476149015,-2.7860668635616426,0.0512841291350025,-12.888799083046155,-17.269061735462994,-7.076958662410156,-1.2477819815885374,-0.5697324713294599,4.72673770153715,0.4008085068339542,0.625743669078641
3.875663687197794,1.173514593571937,0.6707995341280573,0.3336226606913975,-2.982524280224908,-1.0428194975554472,-12.320722149049477,-15.16606957809514,-6.084118056132192,-4.3367221401068745,-2.757335545416785,3.052421425606185,-3.3754087120324727,0.0867789213126088
4.902038237253336,3.550358876512443,1.0525442362878026,2.27037975070871,-2.5883175520525006,-2.039740002886777,-9.721634355816102,-10.76540949868327,-4.490334589611074,-6.547708682271406,-5.00808225475059,1.5332329285132078,-6.905913418325911,3.209913978940974
3.5159921021406246,5.681518955920614,1.247267901328422,3.365487080291042,-1.8278491755860569,-1.580103184784035,-8.66307662445587,-8.16835964072423,-3.325128195955568,-7.023241370495274,-3.6405325931788206,-0.0347612637128555,-6.093340825590758,7.009912027379431
2.314422949714551,4.522168661700331,1.270543774403671,1.9781928754706897,-1.3061662647288392,-0.4754813484742244,-8.985814519164766,-7.630239914857619,-3.065449166796182,-6.064984775532315,-1.0395182857751273,-1.9843326926139917,-2.8395543964935683,5.900047443141973
-1.2254529205084774,1.534065618827002,0.3698055552184821,0.1025133279009543,-1.6569918395307446,0.9904480209358728,-8.21027554726167,-4.245506678332735,-2.2278987966648844,-4.916131968626808,3.475850105436524,-4.343323889056904,3.163904672744978,1.202305662227024
-6.004138000134248,-5.413738959950778,-1.4951498255181637,-2.597081181934003,-2.930991159264088,1.8563500522851653,-6.975447423057068,1.234664422581482,-1.182532531188093,-4.7230462051615465,6.052768926575091,-6.820066601918324,8.798511129538673,-8.212861738249837
-7.343558323008046,-9.754706485195388,-2.3948769885143486,-3.546818691010578,-4.337602124466155,1.4274567193688776,-5.507409396877174,3.434583712119889,-0.9954369335483236,-5.51412496268196,3.8512738718977433,-9.03791481768421,8.733980303226025,-14.237810360361484
-5.809407694221891,-7.214897658885751,-1.947465279849606,-1.837754197865356,-4.791129663981382,0.3610540403247891,-3.4904392298202027,2.737918440076152,-1.5928978712526485,-6.121749080585916,-0.4516945294351848,-10.6427907445799,3.164043813634887,-10.34833521158758
-2.322741421214213,-4.792304035331661,-0.8919768348373425,-1.5267103750001108,-3.882131616618187,-0.0188560719056449,-2.1930705675690945,1.0346004104121749,-1.6706570524940914,-5.214524608468506,-2.890230840338598,-11.22471004140695,-2.8040747407301887,-2.7258316914723544
3.718032858632736,-0.9297636343283896,0.960432390253142,-1.209828395660038,-2.3086981126446227,0.3818192295890746,-1.658670613948532,-2.805719568420289,-1.3687345007545748,-2.59025542958254,-2.857735759399588,-10.363746618253629,-7.954294751148863,9.431853735850147
7.524147748371342,2.0451098044825957,2.326143608155075,-0.5637165851358649,-1.2453611857600912,0.8759355633355105,0.0306152895987731,-3.2293268712482224,-0.3667239941568517,0.4589916206841491,-0.7854425007579453,-8.00388044610348,-8.007188989431175,16.94353855113935
