AF3,F7,F3,FC5,T7,P7,O1,O2,P8,T8,FC6,F4,F8,AF4
-4.738249426687049,-7.476995692708251,-3.203100588176239,-4.0385256324607575,-2.006627494665516,-0.8155512345741255,-1.4521059630321989,0.6779505880462751,-1.2443299225611923,-1.4242036530305595,-0.7908693348267016,-1.0901188060408231,-4.125003481775495,-3.2187317147355654
-6.709104016694226,-12.108402286023718,-5.939387955155826,-6.968546274535859,-4.337860391778233,-0.7760999675642278,0.3377161213309213,1.3930753082916438,-2.8334026720035466,-6.733901132908777,-2.0059365400444475,-0.1155074425896251,-7.973128007562009,-4.724090318601287
-8.92474671544863,-19.388302990289485,-11.798157230092826,-12.3525481655194,-6.900166767854568,-0.7246189369363059,3.4712720860985087,0.662145679445505,-4.49079912000358,-15.38672968437733,-5.8732475272801095,0.3063451948342706,-10.737839646091969,-7.98473126147157
-10.282926101221948,-22.507037012521884,-14.378630444251296,-15.267751771648806,-9.056013840617956,-0.7403919815351679,4.5412582613563774,-0.8502109603326014,-5.411603948230097,-22.36224465547943,-8.613315544084495,0.4534466102501258,-11.436971511517978,-9.372602294130465
-10.30536365496278,-21.13856735025576,-14.039162242114651,-15.849756239557962,-9.911263557876584,0.248850395112191,4.06086321275349,-2.0862691854946336,-5.006787845352432,-22.612985478816015,-10.905085355572147,0.1978708958399833,-9.902775177662049,-8.951134835705018
-10.680011452350332,-19.774236363034262,-11.895059739995297,-15.915465518467451,-8.878504279880492,1.7605558809038584,4.871712086745295,-0.7122067525685006,-3.541451660440141,-15.8237787660313,-10.954826342771074,0.5995766844337737,-7.290244380006936,-7.97970284274495
-11.036603136437895,-16.821285599036962,-6.47777219573375,-14.365060545446942,-6.175254298437613,3.0370109095226607,3.226590470482277,1.4821241214928111,-2.0305734924461216,-7.051001705847345,-7.899654029688762,1.7429258489293946,-5.43966896274811,-5.631744931019263
-11.446059756150223,-16.311404308812328,-5.34194701146589,-14.42117069682961,-2.8980844472333427,4.341475360654247,2.2219966172241574,2.4545204780951897,-1.5116174620929057,-2.698108495359054,-7.603120690678481,0.307982436258045,-5.652029688043703,-5.699560349918604
-12.156373319223292,-18.99705883373663,-8.757222937618257,-16.30454982874915,-0.5327199938334664,4.443408717897087,1.9768138332457443,2.073288677259077,-2.3637865940706275,-5.45173701347967,-9.704306771150744,-3.707181785983115,-7.98371309956978,-8.458549636306614
-13.27988389762518,-20.558235117366834,-12.424997972858414,-17.69024082462675,-0.1337623457380381,3.90170664656425,-1.1506127450692685,-0.490270605592856,-4.178218235285697,-12.459544996951186,-13.681163884978352,-7.723238267500559,-11.496341926452946,-10.645040829808424
-14.972470605255774,-22.037995078277827,-18.10989829066521,-19.3189500932286,-1.6876135407651771,3.73924467232312,-3.1264521635653724,-2.7827583534300824,-6.113015829917193,-17.953202265626686,-20.88052665645722,-12.403935652312704,-14.923208144428155,-13.106780232407944
-15.332285232827736,-21.84857130105928,-18.88426462562548,-18.53517668813475,-4.116847703814892,2.9837840285639428,-4.151093796489292,-2.6814140480770003,-7.348909448289109,-17.790699084894772,-22.13373796738255,-12.759258652389148,-17.080474895505684,-13.619469907458011
-14.295416213354912,-19.24325760809343,-13.847080693384765,-14.845492079110668,-5.9559032958973575,2.295200439213193,-5.274945536118567,-0.688327394142393,-7.40768282034489,-12.208953587400234,-17.102038698524066,-7.930115080052889,-17.02302542472925,-11.53409729901611
-12.363138956599396,-16.5475700688064,-9.22243187881873,-10.92767550502499,-6.236062540560441,1.8381896108035929,-4.436820751551956,1.4998278508668337,-6.335530896139726,-4.998095897493249,-11.03678774022174,-4.773965567928194,-14.381160121116238,-10.267157951308905
-9.023853869673172,-13.17724471498331,-3.273426735810506,-6.064515536949219,-4.970585697536279,0.3209240771871082,-3.6162410289032136,2.311374697787523,-4.738244706817159,-0.285694867266181,-1.7732972928689108,-2.1363484833406434,-9.894472867714963,-9.21472071452465
-7.729808938757978,-11.940815142028816,-0.9152889731914364,-4.525053989160558,-2.982869471033653,-1.0645219171280669,-3.8425537935983223,1.5452163565100392,-3.527626796692536,0.3201841403463819,1.6448513314429638,-0.7546752621696742,-5.491460562605572,-8.524451735218904
-8.682352895126673,-13.4126491008235,-3.3692179219278064,-7.068710125258615,-1.344611518279407,-2.1661692120159737,-3.537797937875646,-0.2604951204081108,-3.357141826515608,-1.757300296453093,-1.9372778957312973,-1.932035131465902,-3.367393381975619,-8.796385402048326
-9.113472318996552,-13.886983322158889,-3.6429982657722007,-8.167931117272364,-0.9017188674214084,-4.102634697840432,-3.3553503750698974,-1.4058767353724269,-4.0904749128813584,-3.795863571326304,-3.435157594415192,-0.3686883618345259,-4.482073731336856,-7.859489640943419
-9.79872202737645,-14.0715376735616,-3.0133814621796096,-8.852359129387303,-2.0976863458108994,-5.714981993723038,-3.3378130989204458,-1.4759148982095134,-4.805695686753466,-4.018315273552691,-5.011679904657638,3.5837681972372426,-7.692586766087473,-5.846190522573832
-9.234897277812497,-14.174596810597516,-2.3142880792219853,-8.686520973478679,-4.917981429095678,-6.294712863696957,-2.175919145510945,-0.879335664297943,-4.458767857124299,-2.5702114167966608,-3.430262674492448,5.367147546699979,-10.38503800317547,-3.839722113564989
-6.941778052536109,-13.607317647177885,-0.4529408956728399,-6.695985005913929,-8.747271839201849,-6.207873685632599,-1.2962328770398288,-0.16368882363014,-2.703480337145952,-0.7699665866602736,2.9058932260006305,5.739623987785931,-10.201824727312871,-1.4452262542378245
-5.660438545660345,-15.03575300798041,-0.871077385130201,-7.356533391922847,-12.291039540518971,-5.220350337936104,-0.654407023605465,0.4914440579579369,-0.1504828425124239,0.3841324436807252,7.265213176472602,5.695302203258838,-6.505822544315461,0.6445138348579116
-5.012809035446687,-18.489515109123232,-3.5925555643628493,-10.498225422797018,-13.951757096720373,-3.354306042628073,1.055895345615156,1.1261137269939734,2.166950893886739,1.0581392124136082,10.674643468524351,4.473100544074264,-0.5061117013203749,2.273195771251118
-5.218275147625181,-20.28325415494563,-4.992169851915729,-12.034288436126529,-12.738718042934302,-2.18152384703334,1.850990640422809,0.7227847920074976,3.620668272994461,2.189912965275398,12.28241226016449,4.399459738432818,5.82555249163749,2.821544855732597
-6.831219446394991,-20.775889114913355,-5.626329293804468,-12.65882878923104,-9.13259517634533,-1.33590022259894,2.4336042625018037,-0.1510380265125776,4.357517150331145,4.419934294430675,10.770208090017231,5.593730333312296,10.982098021953648,1.9603485311547724
-7.876874250244139,-21.030786574932208,-5.395867077213172,-11.81462412855818,-5.059090175525756,0.0296029004805491,3.877185364315889,-0.4153189565498352,4.926957674684238,7.375386129665097,10.281911353781831,5.602968395895187,14.38205065418934,1.5084108263470886
-8.512354521721715,-20.328857626274328,-3.591288025222416,-8.685071258907074,-2.7203134083633733,1.058973131344782,4.154934956332935,-0.6589596025398649,5.5971199472774,9.874417122815542,10.300298404019728,4.860862849253484,16.079259269916744,1.284140884394962
-8.302206041051843,-19.21486663084272,-2.5065324723635416,-7.208920908660107,-3.063869744198319,2.023647797843315,4.673332529621163,-0.1554401053503238,6.054328449406725,10.810299674154423,11.171738348863212,5.093595528095026,16.393843235549998,2.53790298561046
-6.762329078347555,-17.64980187141023,-1.9708258411659163,-7.201355708720689,-5.144153644235189,2.0293070225357788,5.505391394173046,0.8436079892779729,5.767713220574391,10.027696332490716,13.739585408341854,6.043053827603771,15.911045322315154,5.79029067092665
-5.717471835509243,-15.219533409253422,-2.5743828164930336,-7.884730195638104,-6.972413200680623,1.1116717840259789,5.09409434099556,0.1751103207040877,4.634935225927683,8.597586416434913,14.921151053818678,6.581261170710586,15.59407967736783,7.954600524504655
-4.964340187682947,-11.979041069426202,-4.891910204281915,-10.14177582281636,-7.168532120485797,0.274603724568269,5.2139392180382425,-0.6685282524913668,3.2478034510203604,8.27665537957903,14.953568043162935,6.949453273538474,16.493100387948477,9.352693611561138
-2.353483829225945,-9.065770848030546,-4.141489671051222,-9.288095540114188,-5.99888257223618,-0.2390718616405222,5.716823796459421,-0.78754640515222,2.4830845292366543,10.373068287046014,15.750124893085731,7.596698874908563,19.04015418018296,12.230129173331056
1.962285840141133,-6.510103064970518,-0.3165240332981166,-5.118153996724456,-4.918930559378311,0.8681858792464475,5.99477290725094,-0.6110239027915593,2.7839860198261803,14.6549758243123,16.816378317330898,8.378269764529204,22.582171253598744,16.159014246902505
6.996115180194511,-2.951551362023641,5.254336716843481,-0.5364062119649485,-5.081199497125837,2.7963624881974134,7.01188205178151,1.0579536541009826,3.813547923845851,19.134995577464768,18.191120013488213,10.876456338289776,25.75141499636616,21.393581759926622
13.17205092808109,1.4107437641984335,13.754112636254945,5.549882071038276,-6.185303216939777,4.406468737403764,7.943052130772282,2.3873755874745144,4.810465404774336,21.18062889636539,20.144381583141943,15.30874920357656,27.46795621977281,28.36117252263143
15.973456155931547,4.9269237658033695,16.997392272121207,8.589749941242589,-6.707052501580002,5.075045487909243,7.454496397916826,1.9183861998628828,5.284425205141725,19.40580537464666,19.580374092756166,16.195750937800188,27.672139403539084,30.392535127429657
14.893200420232056,7.694129099087103,14.443658740784226,7.932053796156747,-5.274308926375524,4.044822068092207,6.096558572903288,0.6199492471650888,5.349412421939324,14.908173161256176,16.322597079684382,13.5350485685618,27.107980595081425,27.09660924885778
15.04597434598788,10.031001902278655,12.66800194311136,9.709861877242805,-1.9332482587596087,2.15315841751197,4.154664204390566,-0.9282065046461344,5.377175969581018,10.618300788004756,14.028003052567648,10.233953315274494,26.41922580513394,24.06626627716048
15.420533554894744,11.553408640388136,9.795414992527451,12.955741206140068,1.8202178189640288,-0.2238479208993315,1.0647337084622772,-1.6352756517178009,5.390937349233795,9.00291345187257,12.115667340913843,5.062086380862983,25.476188944538976,19.801516658907783
16.204263114991672,14.445489777543154,9.477679441731215,15.90033296977298,4.244071578521695,-1.3855026664511731,-1.269502438730663,-1.1059890332603994,4.914566722209777,9.948012713315022,10.506138135911671,2.478300479252639,23.54961726737782,16.857667704801287
18.252251712659664,18.806900726403963,12.842297268146284,19.501572455553163,4.718969296195487,-1.3342075549154038,-3.0395943684991704,-0.379238259362457,3.5001372709299803,10.775716461221894,9.878433985563364,3.0559006448272767,20.076316173252227,16.19437589046308
18.24444099682636,23.484868049735528,13.500849795577222,19.967047192214128,4.125932686784714,-1.6503510309164662,-5.728577688359347,-0.4830469544007051,1.3755567493962086,8.594129570261673,6.591429664518032,1.6843257607121656,15.246922909667482,12.3736519961851
16.332865993754893,29.013067289444862,12.37775316169902,16.911516874840274,3.98848988595579,-1.017050183952376,-7.843914068499679,-1.5473872252840408,-0.5473387110535946,2.996231731905567,0.6085778826515674,-0.6403266168810323,9.92788605887424,6.03144510506224
15.217126816999029,31.445925588931438,11.043315630601676,15.40166853745925,5.188284391465622,-0.8012772703866814,-8.8904693526544,-2.221978600278654,-1.4177991630066504,-3.3775342941253523,-3.2066323415660123,-2.7392673109996206,5.083166964497439,1.761736968116506
14.36908402357485,30.36265183101723,8.444806037940078,14.718709083704578,7.337917671405657,-1.2520402724313708,-8.67773003490981,-1.237387372170203,-1.2389969262349254,-7.06797398312467,-5.365396958709384,-5.331398058313196,1.2006258991992276,-1.0823963247975386
12.549635372243731,28.876037305349385,6.398524514155685,14.509812159038615,9.235181970048911,-0.2771531904808152,-6.898187500420989,0.1981005957694296,-0.8986814263456875,-6.872820880942234,-7.083891252630882,-7.079393049516001,-1.9201015860365211,-3.4195081283374384
10.094889942391664,25.983382185057643,4.9743826476433926,15.733386944353835,9.887582242677116,0.2845743961597203,-4.154562638208192,2.068670945357572,-1.3692619766607417,-4.929888579507107,-7.415177304517915,-7.878864235173999,-4.973023278917378,-4.394161330525467
6.902184017972042,24.045541905362256,2.553502908706768,14.52653092868966,9.207763247750895,0.1773414048089248,-2.438610298810701,3.178903767119006,-2.825819316992892,-4.748776182366944,-10.816252004489796,-9.830953918477205,-8.685179296513644,-6.930604135653038
2.780489981829435,23.588164450987463,-0.5294012055328224,10.906126762882488,7.892313664001888,0.8363213182454564,-1.880256300778804,2.0329176376536635,-4.494110272485628,-8.001421962307493,-17.570749311485528,-12.75003465056826,-13.321134470080056,-11.129578806263115
0.2344871986232287,20.424690986744555,-3.58990312709256,6.986898153517373,6.7458294227275495,0.7073668344566657,-0.9941139414998328,1.0971915559864531,-5.337488236966856,-13.08507894401973,-22.455649125955446,-14.722153507466366,-18.445554136534327,-15.018969271108872
-0.6003236058188314,15.040638673078275,-6.817916024870299,1.9557787616657645,6.114592414340814,0.1897410165900906,-0.4988886834718586,0.283822142239914,-4.947863230405115,-16.77683287003052,-26.302781779813007,-16.0294982662923,-23.15642775829607,-19.23482924623327
-0.2215665690827561,12.358885849833166,-7.07179952767201,1.2342285348062365,5.861053586207536,0.7310460316877898,0.2641046454271086,-0.5379113117843414,-3.8852256956874953,-17.30145399777981,-25.83421772392046,-15.367048153996802,-26.65795657080396,-20.66948501178056
2.091182626308252,12.011922563484044,-3.928954019164686,5.511022351908526,5.747043946820362,0.0138772055450641,1.0607705473529965,-0.5435261400514727,-3.2277358238917437,-15.785178390168925,-19.733735406605675,-12.215563139201814,-28.68827512056964,-18.81681278191787
2.3642232785839665,12.937969122536986,-1.1325792952316731,9.331587591729797,5.75667370118688,-1.3830474046193182,0.9754726785811544,-0.5848734492466788,-3.721157366557108,-14.737079885076806,-16.193721742954647,-9.868995090225646,-29.395702064619915,-15.740000259596997
0.4659505300725589,16.222492178596795,2.046287795171558,14.011902835147476,6.048274413175562,-1.7612897043397586,1.0327932364865924,-0.8077145808761014,-5.181034976132061,-15.225056367870115,-14.424780014373296,-8.016870737639245,-28.81917428951605,-10.519579716012556
-0.4122843861696524,16.581057469351524,3.35033214509348,15.08698891381904,6.661280205285573,-2.7594824598859367,0.5456643667357066,-0.8853675481325343,-6.589380544389952,-15.72456982852151,-13.470550479720991,-6.535532624550061,-26.623817342531527,-8.255333363260847
-1.099468566506997,13.773823066681272,1.9315474577813547,11.34819672905186,7.352549335633251,-2.663257988805152,-0.2789027418964399,-0.7293351185034979,-6.831613450285534,-13.859624536391696,-15.02172166454029,-6.136023300060296,-22.550095213925243,-9.503714762121447
0.96306768050379,11.967468711508229,2.4808623638368217,9.156072051892432,7.764821416797007,-1.0063802163749114,-0.8440832746336533,-0.7674556097941596,-5.54688963662878,-9.22953021472361,-12.256214751061837,-3.9294815221893,-17.23264512152797,-9.672719894588422
6.45576490984325,10.020490768083116,4.397299185867059,7.283040118333602,7.752293050118596,-0.3857408583819646,-2.439290510917233,-0.6242880035512294,-3.434546010129061,-4.333753929431509,-5.131282049005614,0.0249133071869168,-12.458469955025548,-9.996444783127028
7.148170788931912,8.576370645869284,4.271287025152389,5.526870043000038,7.515191610201164,0.6818027360609227,-2.787137475485304,-0.1469959883352791,-1.729478711917591,-2.499423445759943,-2.504851563858721,1.1999975840413832,-10.28011986141088,-9.546881290108717
3.261366094185284,8.209007599422494,2.6870178417034007,4.896652178215369,7.40169245571149,2.48097375483802,-1.2744481762041298,0.2037960905831614,-1.228034655583473,-4.74640377821589,-3.426875099925403,-0.1256706238546196,-11.482727314421098,-7.668812460905709
-0.9933961394391516,6.967810305451113,0.3786371192257987,3.8186446716013744,7.585517526024626,3.5152860605919902,-0.1757811366177262,0.6441911987556148,-1.6703935397411769,-8.631989549040464,-5.062342699067558,-1.904771056387629,-14.69887152835997,-6.952640034304697
-7.3358350565184445,5.107453929770719,-3.229936939189862,2.593135504548386,7.941297680692318,5.577886874928837,2.416075934564046,0.8771525816005228,-2.022675027174162,-10.22017534632957,-9.062366686429076,-5.041356674635763,-17.11655715338865,-7.087549837586354
-8.437620707002104,4.143705684406735,-3.571068272807448,2.30114600463019,8.215902871986009,6.996063071048704,4.287373034910546,0.5304647067149915,-1.412556949967374,-7.3650022555808174,-7.911421191433432,-5.190180064505891,-16.414754290645913,-6.522976153282495
-3.332832022907297,3.856634691941613,-0.2701882177910642,2.829824582613841,8.293103848647746,5.928906750200736,3.693411089597274,0.1346295268255781,0.1259658007123301,-1.3641586505333834,-0.9380156954049496,-1.832020614828892,-12.43505923736189,-5.619126907129291
-0.3418596095789766,3.246534677791456,1.454598798003228,1.955523106186049,8.284287496803739,4.791672059343295,4.145728075648934,0.2400187423430473,1.7589988591450276,4.31799276606561,2.753318350885991,0.1233045067018782,-7.208770825743342,-4.813287932039043
2.207977695457049,2.522315217003331,2.535611898729064,-0.2977105381508503,8.37280953119954,2.73556176861773,3.890475231396493,0.5611574673709793,2.661138977835054,6.893260017976221,4.642334325837408,1.6448275854051264,-3.305156176274809,-3.906311934136207
2.0663657321114663,0.5528263068963033,1.9858581865436784,-2.26939953781607,8.558515683868062,0.6642794570926515,2.494152209456235,0.8409946724709588,2.7318456806107543,6.131035219034214,4.291280236214095,1.8023153151712212,-1.890483484830048,-3.5726482940424806
-2.3357345175336084,-2.949984806957234,-1.2121992963111037,-4.404361267805618,8.500469288238214,0.0493254670361623,2.086988564235161,0.8629862258174485,2.5588153986632243,3.934245036883622,-0.0260262560876659,-0.3017870226093079,-2.1097074949756074,-3.9074700505609226
-4.373676474404036,-4.735464430664347,-2.7926872783601246,-5.426163251671584,7.579475102084259,-1.2452733956889317,0.558581433061555,-0.028232352157248,2.723412219854154,2.4008137755848065,-0.9480093395849172,-1.5600935604035662,-2.1952635374882083,-3.359013080721194
-4.815249557877218,-4.941247968408917,-3.131045082958489,-4.989853519912626,5.205581850980471,-2.661205015114482,-2.090653210094349,-1.0041398283322316,3.1684879642049752,2.228157288762603,1.2437465122209812,-2.381235385849197,-1.1743786612372826,-2.0020133696069897
-5.553322080533354,-5.677802856267473,-3.5026283280514794,-5.675913720953723,1.2831666148855234,-3.2280718097695544,-3.228663971076816,-1.2124919166362376,3.2494454619081754,2.6138871694161705,2.445934815005648,-2.051149200623262,0.3995993376636013,-1.0214651376420647
-5.433028282960154,-6.341537409203745,-3.1020616736048487,-7.215340989903411,-3.431746931069905,-3.1480324324087414,-4.2853314078982665,-1.0455044892132137,2.409178401366268,2.3276656161803384,4.062849901645754,0.101674544978914,1.242507149950618,-0.1507087810199374
-7.049893913070526,-9.282039695681648,-3.2547218777279183,-8.718310186557419,-7.448671927283152,-2.2253875622359405,-5.914807450073625,-0.6719305080367609,0.8122991466165796,0.8064269817765384,3.3334029890482317,1.6797125991983834,0.7482145633971555,-0.8654143385715621
-10.579135875520835,-14.995722313042972,-4.013007592120492,-10.648373912147314,-9.293640824097686,-0.6055856761679579,-6.244868634764788,-0.7347679940759366,-0.6878795433143505,-1.532817061114356,-0.3905899963222242,3.000834176594576,-0.3922975369688402,-3.501497692220214
-11.58917243785715,-17.010261243437043,-4.285294150440856,-11.261843967998598,-8.523527696273431,-0.1133015197896306,-6.656869506580719,-1.0593635362918024,-1.2495577320822076,-3.713289611053197,-0.9585241675189096,3.3915387305250944,-0.8894623193082296,-4.030460595684987
-10.399318414913433,-15.574418399414473,-4.324136567637324,-10.381439660522288,-6.226870875961975,-1.2168400741293484,-6.7363596080270005,-0.8745747597116543,-0.7758872143201181,-4.810960346354031,1.1824728220054173,2.3216129011885545,-0.1021638468704644,-2.6312341549340363
-8.268408251503976,-13.624646344168536,-5.169244510733413,-10.045625370895827,-4.448277184502642,-2.378011918612454,-5.152038098374681,-0.1644398697489895,0.0098173356490054,-4.344874253877425,3.776701207142277,2.422912388644851,1.387460059474268,0.0114027709345305
-4.272089358605141,-9.810899915072383,-6.767629904800032,-9.894922630324588,-4.786361886259954,-4.227043705132141,-3.674180783448247,1.3514420118700887,0.2479718118292027,-2.379043187036002,8.033843059412511,3.489486388912002,2.372191543256207,4.840404634972922
-2.5005808797811997,-9.055296502550124,-7.685961419633952,-9.748629650016754,-7.171208053114601,-5.170708256906761,-2.74356377559242,2.32763774272938,-0.2297205898591734,0.5754515079505857,9.2557560851357,3.782132187403857,2.1928184417778844,6.7284718528903
-3.2157943413899828,-11.930311065173164,-8.049984192387848,-9.947238369379852,-9.819297167138888,-4.449234892877588,-1.930143627096996,1.871635923733969,-0.7191178689458937,3.801129734318682,6.99495230941724,3.7188358342309873,1.4265254032293129,5.485169336381394
-3.3268258946261717,-11.974757113055055,-6.3823415718752,-8.723598215585815,-10.51350106721562,-4.3032112492780366,-1.61957215892285,1.2531701287831545,-0.322954063745577,6.688155382123185,5.618624976724584,2.8271267350431386,1.4966107268815847,4.206631128507056
-3.770650160360352,-10.16978705518725,-2.197859281466592,-6.022742094758026,-8.319874977511866,-3.4289583188461914,-1.3080869207754802,0.2584278530366839,1.119676817986491,8.945985409040244,4.057789072103229,0.7990344193524542,3.4980050066030373,1.706896782337108
-3.508781114896821,-8.437780996647211,-0.6024566627661953,-4.588930432502401,-4.445258440236653,-2.374970067457217,-0.2856202747158375,-0.4959944994648891,2.7534534044177548,10.548725137809914,3.3977475258111274,0.2419436446440469,7.136830617600403,1.0529059070787472
-2.1130350732687755,-5.748645816233298,-1.4360206085480622,-4.192845352552934,-1.4964069842247376,-2.486930317002789,0.4672053489779495,-0.2905248483897299,3.403023756277779,11.481561196845846,4.345976207359357,1.1351788413949393,10.633935329743224,2.744385326010476
-2.0822364996986127,-5.785531432379237,-4.219339010083343,-4.943875409600125,-1.567694581611235,-1.5748891588328766,1.027878945466947,-0.3821078918909417,2.6430137903863558,11.57823298801664,4.034310420868414,1.0050853986669137,11.803250595022732,3.285387548130066
-3.1809469254744256,-8.924867196040694,-10.222862522418378,-7.490375252502496,-4.551917434280256,-0.4838830919701746,2.0437406039912407,-0.6984207966812082,1.2407591544374412,10.651302804760654,2.8265321129849776,0.3030730510967826,9.64723954845596,3.407524538187639
-3.915458387134313,-10.025403636499563,-12.005465465202342,-8.28462582806718,-8.07207050133826,-0.7637394539092606,1.7776874788796884,-0.7310259073829634,0.5144293520672001,8.762268363666625,1.6039295453280058,-0.574341003603099,5.289770738222888,2.8317684389284645
-4.679555078991731,-9.759240711813923,-9.383904577726046,-7.351393778812357,-9.282651608740494,-0.4423775540181962,0.8570354198731963,-0.7480693889743057,1.1508726252383497,6.273744351452535,-0.1079596537650601,-2.0242824001070354,1.3864175671011625,0.988212049279278
-4.160337845643348,-8.206678191119376,-6.029471954719393,-5.514349973853429,-7.225436589318576,-0.2577216296471529,0.3191315981830291,-0.7079478354916422,2.542922624385376,3.5652413107833034,-1.3799179324896702,-1.8464633024774773,0.2722401143125452,0.2203157656522128
-2.0170891814211034,-4.333287067342025,-0.1850026260928413,-1.9062552162911703,-3.749003116190984,-1.4377980943023223,-1.7317378003941777,-0.5151599395017634,3.255959059116286,0.7393381785148918,-2.122758230351594,0.0911826624177683,2.222969645557836,0.399579791448943
-0.7651257918865071,-3.3326442410293184,2.5555862692368394,-0.5566303479310625,-2.035529167724846,-0.5920777815397679,-2.15481258218113,-0.3678264962021724,2.2359251865100944,-2.262135065017688,-2.157392371928434,1.0902890309251692,5.2806263420187385,0.5994901236907973
-0.1185673216482681,-5.202822979677004,1.5964410577496353,-1.6179976967710614,-3.854173178207781,0.9473964670275908,0.171903591377786,-0.1345125673816321,-0.2654850166492508,-5.170200959213293,-1.1754812395518703,1.5478616994947048,6.87405183611849,1.2830682293162257
0.2482413471912574,-7.689528503315283,2.112960188920181,-3.0836803275449274,-7.940790447441216,1.2802266244974074,1.6337575805512756,0.3656310279255001,-2.8136317395616715,-7.103344409935854,-0.0430061390100825,1.883293685294685,5.925624377806656,1.4039706325449606
-0.1585981326450569,-11.9700612885589,2.808439080227564,-5.925452738335421,-11.02969213057522,3.780801184574381,4.836788762092638,0.988526262580176,-3.844517134808655,-7.007795914025394,1.3811311651507268,1.614727255915974,3.672983326807256,0.8525557355639113
0.0580211699011449,-13.307865261126288,3.567567160857839,-6.99544213008212,-10.668245042837952,4.295222892958575,6.803225159203179,1.1047159710745134,-2.800719888135333,-4.625456096032195,1.9577314743606984,2.2044596085325368,2.5308072598893503,1.2193849588642032
0.8647924901057862,-11.253903881939175,5.0644303982014485,-5.967539027372856,-7.267668193828733,1.5833155277870474,3.982185046626566,0.5015834371225891,-0.4908938363146902,-1.099372805617449,1.4210802845483212,3.664188605257337,4.004899633006293,2.333198269290182
0.6114667523981705,-9.47668787101288,4.840213638622046,-6.016230784855854,-3.558530574526884,0.3377998683744984,1.9276133798004675,-0.0178378357111153,1.5445633318514993,1.5370927509939063,0.6637628060815575,3.934632602000979,7.440009511960103,3.287467702991969
-0.5213165202939324,-6.822158919658953,2.93426054017852,-6.443263377815176,-2.0665881565512905,-3.2345151973124544,-1.245951614103637,-0.3285845778633051,2.1364438488227933,1.7749440562018464,-0.6872146398819856,3.198851501981516,10.59633931204874,4.332691183034151
-0.3712937708210128,-4.7504105199579225,2.30845860850014,-6.092045876838352,-3.0174797154255444,-5.357861366582092,-3.789714374908991,-0.0643802271843402,1.2385878140681292,-0.1792331245365943,-0.4071634875804525,3.1348767652063185,11.475932549208498,5.3026511821202655
0.922309161764468,-3.762760005285864,2.6308497743954,-5.321481403125518,-4.502406754081761,-1.96845417606946,-0.6114444351225846,0.6447245534028807,-0.1731064345613759,-2.492655771693535,1.7585335773705164,3.442260524759035,9.849123116793074,6.0607334032536375
3.278684206749752,-2.0067706048635907,2.965444376989343,-3.4882860444382087,-4.47659130274889,0.463547926451212,2.558263704167117,0.2691068188420253,-0.9077357851542622,-3.0695206538545463,4.985547769266229,5.530809213428991,7.309569409377449,8.230269521066722
7.225442031152458,0.0655007476875022,3.859889583503964,-0.3741240994957571,-2.518348516562021,4.509150709681762,6.03005187375857,-0.8472500216355212,-0.4281610543887701,-1.0811407376287967,9.941637532249873,9.853784651304284,5.957176291428034,11.865295616206446
8.641172854381542,1.891389345590352,4.275158087102753,2.3058868653521123,0.2205354151582312,8.047726354758147,9.567552640994537,-1.704837117464798,0.8540816440928545,2.555557996234836,12.19439122503472,11.275679371359749,6.848698509168614,13.291366425610496
7.373477514422673,3.6521403060643634,4.138606928307409,4.663814315290253,2.495284066110077,6.237965010749228,8.611772294646148,-1.775468519887487,2.0126452165737234,6.021818285706669,11.44871290827068,9.908360121908824,9.382249517352673,12.61052686011991
6.942888493660941,6.371772785153592,4.7900621779592605,8.697627516349979,4.164888484964219,5.0306289355180125,7.288231540685194,-0.3640756717958828,2.356788220952591,7.932419171547924,10.37988002653215,7.38797825805776,11.913839649123258,11.071472466351173
6.492105513320373,10.080306075747949,6.059503482669927,14.205445361722214,5.91269387326917,3.4459241984819213,6.559194523900669,1.4957261490671936,1.8815648625225272,8.069318760856245,7.881341833243541,2.5258776994048646,12.95806841936501,7.831871563458108
6.286227805431528,10.979268837922012,6.408550884082355,15.852870200499884,7.974195686228075,1.457255130836993,4.736381086864043,2.123629187949564,1.1117009261195945,7.119273377459143,6.587134789568041,0.2266634495266,12.042224345703762,6.31918354604298
6.844923671334312,8.990615527811093,5.95468351288415,13.541741001354223,9.39804285160294,2.1954202482902225,3.7567789395123663,1.0475834900339,0.569930491778468,5.912195107946744,6.874752553166909,0.7817155825902959,9.756290568222948,6.761039538671215
4.985014086370475,5.421791475742768,4.582655580728242,8.805310247836273,8.755889412322098,2.421905716578265,2.753983796449674,-0.7232069251183191,0.3837469304826282,4.912070737600531,5.650734218385662,0.7471835066404336,7.222029583034651,6.278641408784391
0.7102205264597597,-0.7021226115424652,1.9079081607671984,0.2385723954441076,5.655570069961599,2.1547451116341585,0.2153518255039717,-2.148652314676501,0.3428465996279277,4.245106924928314,3.500528284855119,1.2569883817333327,5.487690772886278,5.6289577095275325
-1.2347620363855591,-2.71744927347181,0.4055287649197864,-3.101833170201555,1.5071955168804587,2.005386618461436,-1.6769914265773902,-2.1254545770413213,0.2560348687557687,3.959769884528164,1.7844977273078484,0.7097910116471812,5.140714769214021,3.948184173994224
-1.2291589934745664,-0.130858771016171,0.0840056653428497,-0.6590911988408842,-1.3404945455875783,1.3481844443082227,-1.991846847688568,-0.3225752168649601,0.1848711983836639,4.093079934580466,0.1254879463715546,-1.365931599661093,6.114425231958336,0.7814226636656015
-0.084581988109864,1.7140203392472024,0.2157526970472113,1.8083702684653813,-1.4058436241611494,0.8645420999783319,-2.755034423394203,1.7272191476609384,0.2955789522861796,4.46371017967739,-0.1179858688158364,-3.213472954897286,7.629656388569819,-1.9444667189200544
3.2313190650949863,4.374406697075582,1.407874512779308,6.5032870368344415,0.7882063437526359,0.2355422489202744,-2.9636775749288105,3.6307160765317055,0.4983989023018864,4.481650630548502,1.387639351110077,-5.318329939729535,8.373054804371158,-4.498272654426976
2.792332069727733,3.875630527353533,0.7567133039577533,7.062316409611676,3.233495275156976,0.0451249592987355,-2.488752933667396,4.023500813903022,0.2987094572590223,3.278873344849023,-0.4195959212282062,-7.30695452660527,7.017039064821638,-6.797831744258326
-1.668046051592157,-0.7807463980262617,-1.8942257002054388,2.4957816551782974,4.06686127583523,-0.4368643707702921,-3.4071112750676478,2.2777347441017697,-0.8865024328596114,0.1754249412129986,-5.506450470586285,-8.946312076012028,2.9116707774776547,-8.467973273747262
-6.501671232206203,-4.398220239197565,-5.341683358251733,-2.079342956309131,2.8293661372582197,-1.3797628993296258,-3.889980370738548,-0.1240938435061399,-3.156175771048172,-4.801168408728714,-12.985643401062784,-10.508343628750056,-3.4734437192717067,-11.67887153972115
-13.101239638375691,-8.055547844414708,-10.338293329767176,-8.38589469331804,0.394351403755607,-1.504553962834342,-3.382877412008395,-3.4865705804629115,-5.8224245654398565,-10.687048529883524,-24.15261451727099,-11.805597874365647,-10.668160865218027,-16.429231704320646
-14.877133458243614,-8.666535673639187,-11.508355259126578,-10.314507230229829,-2.0476389352780195,-1.945257273189012,-3.278003864430871,-5.208871403881151,-7.74383098369827,-15.820617899248797,-26.77103987320905,-11.337191790867864,-16.7942421014059,-17.379051440488823
-10.93346992254696,-5.115853302083482,-8.397193405185106,-6.827934517515329,-3.8037282297569135,-1.7744284487435795,-1.65275590406213,-3.7074817309731647,-8.108052014348416,-18.469564150454243,-20.06962821029021,-8.907351466968004,-20.264325774804952,-14.56992483465074
-6.71443843503569,-1.9240289222936424,-4.649003022756083,-2.7791139724926475,-4.659999604557051,-0.6685392511753434,0.9899115618455634,-1.6242682428491422,-7.017913044695199,-17.571660018284454,-11.301949772425068,-5.495384538746,-20.290818596492137,-8.876178185110703
-0.4835909105000836,1.896523487333725,1.0949584132350465,3.5598749402912007,-4.453344200473268,-0.2334310463651549,3.148476433573304,1.6471583005335102,-5.341544173853819,-13.256506541086496,2.60084695921286,-0.6604624432209992,-17.132617869063708,1.0876577950887123
2.425819101733353,4.0397318295426015,3.582006720049524,6.52086410596853,-3.02373558862584,0.6560001456272729,5.164586281560059,3.9075314395975407,-3.933517314446007,-6.900206529061528,8.748744308293695,2.374873014330683,-12.071715692460792,5.356348884908575
0.9680192747728324,3.61371438376134,2.0442713443431684,5.19123251274875,-0.6710190358096852,0.9600784375194,5.379240722151246,2.564576412994689,-2.933069133654812,-0.6414532275863394,5.56436605409092,3.2644191418007438,-7.025212720390243,3.446969829986484
0.3431400743614616,3.956295991641816,1.6567739021791767,4.448912169366073,1.5750746730542744,0.4824752582161288,4.627133737574148,1.0134615350003304,-1.7904807558219318,3.5004821161681363,4.244215507058445,3.836429973341136,-3.761123420427573,1.2954995689582645
-0.9273562943211342,4.300407253256069,1.1021328372989074,2.7637268445113023,2.4904780225518337,1.0472746482246007,4.177289565182577,-0.772061590667737,0.0352812215442455,4.559545000198312,1.5636183854455905,3.197236063238724,-3.0170842653175214,-3.4963536659166303
-0.9683977171815258,4.130104708671884,1.2689599261297575,2.242370774411256,1.6843440482947472,0.2113970856565859,3.0731582053674047,-2.333333783914504,2.425962797975245,3.124059898912733,0.237812711336222,2.499219335438075,-4.1068532809001255,-5.42717884358167
0.9815161949337532,3.850815640503808,2.9148650112838035,3.5564069017405027,0.0896745574458321,-1.211008820403897,2.650349977845831,-1.3412269315630043,4.637522071874173,1.0032812371106845,1.777839724372837,1.8486373641839569,-5.422340511791703,-3.654307377062987
2.666803831443827,4.030320734862468,3.871474186867392,4.560419568704653,-0.7343175271128644,-1.9022401171224024,2.3443554833787577,0.0998887996803001,5.918676878541817,0.0793859557238505,1.6675489190224904,1.9201229801709223,-5.602620824850902,-2.5228097258339006
4.747989923712344,4.778162168393163,4.536548520550235,5.937627925884248,0.0235911918728533,-4.664958753640532,0.6053774446473721,0.9402536784768976,6.028248925661899,0.9850148962989635,0.91781107412707,3.1261249079565347,-4.550871485850536,-0.565209367459703
5.620174839263,6.236595578583072,4.726301437779609,6.617326263340506,1.6421291465446046,-5.409279481613659,-0.4258463088716504,1.3553691822221834,5.167377442396528,2.585661768032111,0.830507138500368,3.674880669926725,-3.488141200120296,0.4715675474705824
4.896690303730418,8.660784920867973,4.0747824883858375,6.30756541259706,2.479308409133978,-3.765385629068539,-1.6513406253142922,0.6056852890776958,3.5715277846742453,2.830058145495116,0.917839132107302,3.811475804532531,-3.910077004607132,0.0636051320360126
4.001077026847234,9.536815575920953,2.725336586699884,5.765367565012579,1.5124486165891966,-3.3382835428427864,-3.986612836017992,-0.6162889578165602,1.378410126991071,0.4845891330821104,-0.6310162626024775,1.6952297133107546,-6.182731225904874,-1.4003935351592898
2.439164497012987,8.796430144695398,0.4507064710946425,4.632989009030823,-0.554549238959197,-0.4186975422946614,-5.224420291708355,-0.9995744457817236,-1.0445840550132957,-3.5991905047340964,-3.868672777608952,-3.207579776135417,-8.915147200158849,-4.602145196447156
2.2056312216396443,8.5359123168634,-0.5511815792824172,4.588258341766618,-1.6638145737452632,0.4485744857479433,-6.703833415781282,-0.6432176704835997,-2.834845418440836,-6.846732268484374,-5.501817902725025,-4.9972043396227885,-9.78146583215078,-5.32946164785274
3.60580223549704,8.23809887915973,-0.1602958156240723,5.798937186678131,-0.0500272193057114,-2.4336477514635764,-7.960258851999709,-0.1622738800143645,-3.0263265504210253,-6.843701179470969,-5.752274471441533,-3.876243792103273,-7.3542967693389585,-3.4525590888841875
4.677049770846834,8.908223376727438,0.2774124801066112,6.85929228667638,4.154114605887948,-3.7883495059355976,-7.938208421163426,0.302227660692876,-1.449425274334054,-3.297450681954338,-4.526256074933665,-0.9171768471319848,-2.5412077480993887,0.0766497991691897
5.928739630121138,10.940162036613089,1.2984425543336091,8.174879120603629,8.710338682832287,-7.615798056402837,-8.574140918008023,0.2059958501670004,0.7607766184009463,1.5567469593178345,-1.0184927123601248,5.285772488354425,1.715640555091305,6.385354687596372
6.7608195722159525,11.539731809067977,1.6685294242145516,8.71836331925468,10.749458992791794,-9.118044373039853,-8.49401565621023,-0.1515396101646678,1.780797218037712,4.512551400128665,-0.7770624381391514,6.707906650612193,2.5145772822920023,7.895704962307937
6.865099251670077,10.902379006455002,1.1942768183666248,8.22837939783159,8.87603121127217,-5.852982771769712,-7.799099474283879,-0.0367051518444989,0.5238483189454755,3.6941781495590496,-3.897639836866841,3.014589606015165,-0.7320693108135714,4.209309080996308
6.962820893307261,10.28667004753817,1.00963576362065,7.7000085485366,4.300068781775273,-4.082402234086514,-7.381346328342137,-0.18438990162758,-2.338118131312214,-0.2317950062263278,-6.522541172098027,-1.9088378080158488,-5.831876344406027,-0.2949913887762123
6.807426859894692,9.167312654714616,0.7992023461511071,6.816857026419659,0.0880188930421326,0.588494136940316,-5.528463392372562,-0.6638409161427138,-4.756683957714891,-4.82751177486977,-9.829755336757366,-10.0414568285366,-9.743578424128684,-7.469212012031522
6.348796744942606,9.308316272387325,0.7152880544201955,6.399448126218348,-0.9538151507659762,3.773489115280233,-4.27219211602603,-0.8894575120996929,-4.887810001437941,-7.859005186163941,-10.66669795084156,-12.718877706662385,-11.297672829739632,-10.351320159715984
5.629453097787323,10.953976253699778,0.9031292777763,6.619121463331694,1.7976559938742582,2.91156776054467,-3.173743257091377,-0.6550486815921005,-2.576031453524223,-8.767869866220366,-8.302127226031581,-9.102637639971856,-12.177522057928392,-8.069999048751617
5.319365993899196,11.516375373610323,1.906314271869958,7.558712526879461,6.45338685537893,4.548310150620958,-0.9886418116506008,0.7555827922715772,0.5076530649435966,-8.526083614146174,-8.731787777656729,-4.705232290086551,-15.081232242761017,-6.964339659758754
5.486336211042356,11.33952163629519,3.891879107920824,9.540264155625543,10.040509932210009,4.107596266369891,0.1545962627193521,3.368649922008582,2.178919329987707,-8.279071758606932,-11.324924639481946,2.7254953075858745,-20.645959064983515,-5.320596947515413
4.934121918121915,10.280079331090755,4.690104904985084,9.182197176744396,10.543398768960934,3.4047605018594447,1.451777397184722,4.711780542415681,1.3922505667753526,-8.20220313708744,-11.492374659836871,5.012284883226196,-26.073466481997613,-4.693759444846331
3.768301571421194,7.804211335581275,4.332210831117565,6.351248768683738,8.06177306991044,4.599342229791537,1.4994209134238512,3.1981648021028626,-1.0943310380024904,-7.596878368734139,-10.051608915357376,1.0889347409542711,-26.99244269390089,-6.006005965603738
1.9201967749004676,6.317103068224799,2.2375358460756805,2.077518883277438,4.407282413121376,2.928801522960913,-0.1234447464339199,0.1171860894085711,-3.454265626473049,-5.909638641893803,-5.032892474266635,-3.049244115391536,-21.098041650945312,-5.464186088256515
-0.8897554012782121,5.737443910750503,-2.2373163441992703,-4.543482061081143,1.675853305728625,1.8065743861476211,-0.9626680185231868,-4.3126270569451455,-4.16566405610406,-3.4494530997775783,4.617647225730216,-9.585282731582655,-10.322209988871103,-3.5615221443196416
-2.414873803385608,3.8312897672373465,-4.539490657545175,-8.010583068344316,0.9541134840556698,1.821597645029545,-1.7391505647524412,-6.843796843142263,-2.876920478515825,-1.0085326721463952,9.369344179266964,-11.023036725122434,0.5026442382390108,-1.5418907297241304
-2.5977720004023137,0.9729875554574277,-4.728881127198766,-7.990345207400267,1.9632419736308533,1.2068154469369785,-0.4859770612950803,-4.930715373443952,-0.2638578819811394,1.1318999352645012,9.357621704133148,-6.201920512617503,7.373196452629792,1.2078245706209323
-3.136509543222532,-2.9282226398479136,-3.709911924635855,-7.950100907844121,3.593191008294077,1.960558177888964,2.3081179769838176,-1.7763210652711974,2.678562584145717,3.605055823554169,10.378508325825903,-1.018615332148281,9.960525781986387,3.9409509932240985
-3.555277747844097,-8.299068057264584,-0.3612848284564679,-6.553809573469167,4.701435973377013,2.736858825694926,4.046108842302726,2.12240816355102,5.149588888230486,7.198054081550167,10.478716772162514,6.585858643808713,11.150780002359165,6.558424390891029
-4.939236948526752,-11.23226280997949,-0.1940134799131875,-7.528088001716105,4.609522311326323,2.577521169072826,5.706964753201195,4.533888133921369,6.598015625925491,11.681163534460122,11.610431749624876,9.388628017626123,13.919129616867217,7.658355443514147
-7.602780643582964,-11.577260302300369,-3.392500399904406,-11.45259926293237,3.168453259368753,2.797152244171352,5.610276347486905,2.8590503589000207,6.673456784050401,15.543731376826337,14.493950497762826,6.21851543271414,18.540551559786795,6.858531957592662
-9.703906738926529,-12.75523850497445,-7.11037660397368,-15.071627606079536,0.6114530319812062,3.025288147175731,4.106486036265285,0.5214966759612005,5.437905407419628,17.08953236064397,13.296198614277706,3.380010043046303,22.62838940776699,5.854401244837322
-11.51507992099894,-13.955198529631827,-12.655388959865329,-19.36539374846177,-2.5759060370342226,3.045916051076906,3.576321087795905,-1.5559289151513238,3.645187942261962,15.913998151003725,8.285774382568693,-1.0789220593425155,23.691538974249745,4.204373021452906
-11.470582245392675,-14.156804661063656,-13.458888993550335,-21.237313822234743,-5.730621393235978,3.2811041421872127,2.783261012626103,-2.525552570834794,2.545497898420763,13.308767601546217,5.433150664585286,-2.5326033082073693,21.570773393548837,3.64098480788484
-9.06199449437814,-13.746013566924905,-8.800013002365576,-20.04037380805153,-8.134124601821583,3.467473004765285,2.6898683502376937,-0.4967292822552355,3.060663180012739,11.147165250017435,3.9016505895428,0.0978041242277849,18.445449858306347,4.549106115398888
-6.535667165934225,-10.94613476087138,-4.667448307827856,-18.52356932114276,-9.241905167388978,3.3142695952653565,3.4434925824434943,2.419218025698911,4.939268390923431,10.28360936028652,4.077325702465878,1.6234710880477037,16.62613167460144,4.660424338367887
-3.4058330933849144,-5.470664241536101,0.5174088901279047,-15.776614543911355,-8.934497053144256,3.173785334598013,3.0355062225001217,4.82611130723191,6.737692335128514,9.950864911838494,7.211207331961416,3.334398360372399,16.474273131492254,4.42703395266886
-1.3922923105530796,-3.167826572824381,2.7597920137040317,-13.750920056046722,-7.60869855594305,3.0050330959685128,2.533733732371164,5.265179352860886,6.806769097767557,8.64207779152602,7.552831048496526,4.016939513519125,16.462951454654345,4.399114950340013
-1.0022602207847506,-3.995159575766224,0.9007666307141464,-12.870159217293123,-5.9901094869291,1.870845521757726,1.288447305566618,2.910314990403148,4.521024493345578,5.5661686897642255,5.293688558317473,2.874840504741252,15.09846966609939,4.27205085847583
0.696502892533588,-4.847081269413134,1.6563474734315358,-11.189080413030377,-4.743688830776819,0.392982788574752,-1.1717535692853152,-0.4463222893129661,0.7293790758673708,1.337691183492467,3.065087751941705,2.3862128215179044,12.581629644785806,4.354735665459416
3.2560716656339754,-7.008336595483673,4.007988764465661,-9.255047766081889,-4.129336097076077,-1.0334263807852504,-3.073555742300194,-3.529796043950924,-2.9031173071699925,-2.5834626678392567,-0.3097245102007412,2.0706288193318203,10.517529097831954,4.680482881443431
4.155715848280709,-7.031895386759874,5.296841099671665,-6.758030912819834,-3.9455407196066687,-2.777589200967838,-4.69845213903851,-4.487117029567651,-5.05668259502508,-5.020004084685979,-1.0721917865550132,2.0581745899724058,10.089592371317591,4.438395425463909
3.680357976911585,-4.421881921053413,6.500427176219971,-3.451685722158864,-3.788118341186106,-3.6265801154336295,-5.525971517520854,-3.5609509009746305,-5.5035908387945085,-5.745327556917431,1.240928620048764,2.7473023179470517,10.663240297394424,3.6367113522322825
1.8137541107071704,-2.62053561219597,5.790107272541971,0.5470359916847118,-3.4030283435625392,-4.063027366140629,-5.298976416365001,-3.703144963028063,-5.004550467659129,-5.304426955059995,2.067023476816812,3.357330770433158,10.264165885284058,2.9379553372110263
-2.011529973895417,-0.7907518591192004,2.741883749289743,5.428452094170556,-2.8499239163841423,-5.0928178866264,-5.37220976761961,-5.356407249711801,-4.608108834617241,-4.412685949661778,2.2016880520744837,4.049573746417817,7.450184421499983,2.1889053389553643
-3.65962235755208,-0.8964336252798586,1.8571862083850357,7.696939138283211,-2.3810352466168183,-5.066985689296192,-4.410982118685713,-6.07117205460364,-4.913148295448195,-3.5399155198210224,1.6539755998424952,4.349333171695407,2.756085189925102,1.6313259935221502
-3.0198918333700293,-3.6058482709435578,2.8891358119225474,7.079731298127555,-2.1927872005600197,-4.307401138259839,-1.882994373045576,-4.200831956064183,-5.71631319410767,-2.856208731229458,-0.3810058269792299,4.098914196202632,-1.627135407872629,1.3890880195054451
-2.508616278677288,-5.815283682792714,3.9336721638824703,6.101180465325843,-2.2795032478593384,-3.6667246625541616,0.998074256071158,0.2548699332067196,-6.184481871080038,-2.323547700443868,0.2724545210831609,4.036047631757024,-3.600148931918113,1.478952996357326
-1.1764263421789576,-8.099235345413863,5.898211248211858,3.8929638358312553,-2.469637406271943,-1.6153548751132984,5.492018367722805,7.498437063266653,-5.450194439195684,-1.766736087430445,3.624251365165801,4.02088651102318,-2.7703366017908597,2.0341174468759613
-0.4691868815024781,-8.230515669503468,6.373672228683818,3.860131773843943,-2.551137445768916,0.1696591862243448,8.962668261371528,11.343939421107669,-3.2953242113821943,-1.0039057152821442,5.464897606799624,4.574564832607546,-0.6298469007055587,2.976753040247626
-0.6675120565529943,-5.466949021228454,5.083720408423424,6.554065830813519,-2.373464154262706,1.1029812488844584,9.852629224418576,8.602709454639287,-0.4361553186258788,-0.0952552755147166,6.501992661229893,5.870817562631854,0.7078234962703505,4.385218794470826
-0.7138969466801542,-4.387341639381125,3.3481283454504607,7.663347818443994,-1.9157180686640345,3.0692076475019,11.152488547062676,5.032178010448275,1.9065498594889616,0.5194762553338705,5.424692026102145,6.477754449472039,0.1008128831512067,4.907876123576896
-1.021768934178073,-4.440885973418908,0.5105662524277362,7.974643520144269,-1.3450546712311109,4.725956554979582,11.47972741271223,0.0643578920429205,2.9047949595793057,0.2982673669454811,1.3203387504770108,6.486943491105386,-1.9089981872828616,4.434567473748829
-1.1382410372540612,-4.74929275904305,-1.1400872457207702,7.741806825092754,-1.0081092357454224,5.030686482814385,10.464629032516717,-3.5195480194046027,2.731129841639728,-0.8209292282398337,-1.2319690463986768,5.274580677948781,-3.676677702812839,3.3037127941065
-0.9685173635948684,-6.159307705362695,-1.3847654838760723,6.254624447048784,-1.2499051146982083,4.311961693301579,8.756496766514184,-2.6303156632688114,2.2771367342309645,-2.1294053496894207,-2.616867213938037,2.434690669246137,-3.780049634170439,1.1114713352436585
-0.6153350775147769,-5.574754919810193,-0.9571305032163464,5.294452926587459,-2.098513223743396,2.521589340781906,5.210083417438455,-2.044948690869288,2.212695365761533,-2.6259565934688,-2.717797150658405,0.1712324015859648,-2.0958596072840123,-0.1906956844612438
0.0729198822255895,-2.887963292809412,0.8046198315976462,4.747044368034587,-3.08211134654772,-0.448317861442645,0.1670575312674369,-1.9979052484702209,2.320189293169165,-1.959453969704953,-0.498598993568517,-1.691390238212661,0.1113981175906246,-0.5423059432158113
0.099617927840962,-1.9842335740052013,0.4245600442828378,4.037631073986615,-3.454960307191641,-2.256666304364572,-3.132966178021748,-1.4404486901496163,1.8055700328411035,-0.8914948143986408,-0.7795593058055034,-3.885447287097771,1.1095672339944258,-2.2722802825227197
-0.5758363490885998,-2.3718212382520587,-2.273532306504724,3.509312042903602,-2.7795091285991305,-2.2331208513369543,-3.554876055600944,-1.7080024967414156,0.2675464068178712,-0.6615280603915039,-3.450852363173176,-5.986406162843215,-0.0504822170804288,-5.05657531029682
-0.951733237205184,-2.7728983605857205,-5.589906536033317,3.199972310901967,-1.4085677588881822,-2.686679063481214,-3.867777297041934,-2.770632175285473,-1.73007275779878,-1.7511597039064668,-6.91767844240567,-8.954041401606549,-2.8644763593547395,-8.221828420580483
-1.2209331529718663,-3.861266833558899,-10.395482759262526,3.1425790365895154,-0.3736003217642292,-2.5502992880036497,-3.1891585138548777,-3.0798818359678006,-3.1402832147148274,-3.2925378387798787,-12.25880702611557,-12.85867068144682,-5.7815004237673975,-12.164945194549404
-0.8750874842610615,-3.2262804039425728,-11.830897649767664,2.643289451367897,-0.6435153914174236,-2.225993824164141,-2.381835637309434,-2.4223094668799985,-3.474428440040356,-3.8376483701083535,-12.610342459755303,-13.2896282188516,-7.372675686095533,-12.5236570122554
0.3074822164830643,-0.6227472277308896,-9.423610172520297,1.6759058053839322,-2.299844867103729,-2.964184870576701,-3.1433528213270474,-0.3404358532097434,-3.261952305804129,-2.815992279311075,-7.42826277684637,-10.082936309502088,-7.334050683821431,-8.871374648711086
0.6436414328754239,-0.3834951788436487,-7.450479812958554,-0.4989043060730163,-4.323889523704196,-2.8728802252404093,-2.735327297325498,2.2005070135394424,-3.3925848580667264,-1.1947100217780076,-3.5381070932272847,-7.335656269452581,-6.50691935931863,-6.849012439237185
0.220413030942553,-2.16890878753329,-4.7580912411151015,-4.165452669729627,-5.233354710454051,-2.3394899916115275,-1.5074892235021249,3.9517020287789806,-4.026997455940972,-0.5649383421412892,0.5451506482611658,-4.140987231458762,-5.932684720135569,-5.587514465960902
0.2600229298871762,-3.0396098829040747,-3.306690204753538,-5.392619727981593,-4.114868045512139,-2.4656667559832783,-1.2849492997559275,3.862477906048804,-4.268421307123589,-1.486955725996637,1.4772057459008492,-2.5372008365253422,-5.832815309053615,-4.683722874490982
0.4755903891072376,-3.7044494962847407,-3.81914601389916,-4.1466837989713365,-1.271537821897823,-2.0357716228272422,-0.7550642775052934,1.3446733131522712,-3.008406628143206,-2.7813415776457475,-2.1303623923066786,-3.35956830105936,-5.493134669375365,-5.164470207819057
1.712397408443126,-1.0499125738017687,-1.822901736206905,-1.0153512690115591,1.9845757725567523,-1.420394712426563,-0.1197566365244856,-0.3333070448741143,-0.1265517062478522,-2.59539737542616,-1.78268788193187,-0.94205441632761,-4.171952996118449,-2.034103443312229
4.240957766281338,5.681008468677272,2.23288011663494,5.05064317042674,4.201153230509263,-1.3164793614684438,-0.3476825376960673,-1.074678760016618,3.1677690121237703,-0.2849243679536926,1.7322028837051249,4.291669361712955,-2.10722467563167,4.789108301889502
5.391356270896949,8.973301680199958,4.484204074453602,7.78422648140363,4.659132439900048,-0.7924505851839887,0.1732293969839562,-0.9211136461813784,5.2184633291381175,2.753418063955394,3.329833538302364,6.6497932678628695,-0.5341666418659372,7.342002970658751
5.267161585938314,9.326648908469686,5.499524334708923,6.975311319458527,3.667222213290032,-0.699659506801706,0.5774119240762214,-0.1108764166698637,5.21575025512719,4.219362591371265,4.358356375178791,6.857051399718888,-0.5968796268119547,6.206756736031887
4.795699396064034,7.929284860471878,5.031781897635677,5.5730794259718905,2.1802329590877463,-1.233867286546228,0.0704928785175884,-0.3979679123154564,3.746247225254805,3.012838016875051,3.009696330972244,5.318459672585078,-2.2087757101456447,4.285716852737899
3.3943931772295493,3.1135935633927314,2.27433279587118,2.050151512011871,1.1177850460736067,-1.2738764001875085,0.3146326484661249,-1.1845670121612304,2.204568378031638,0.311768648537182,-1.5970007431987483,0.8716650783276444,-4.045314151694001,-0.0221216780851967
2.1338248551335486,1.364953601622064,1.1142631611842957,0.0203121764312993,0.8778200381979104,-1.4983557498531477,0.0471255375559479,-1.9502512449966092,1.693531446974525,-1.4313614494447648,-2.709972647011119,-0.3539556416149942,-4.726416108899478,-1.1054126982760248
1.0570257690123426,2.756383256404353,1.4484116211957991,-0.1973053393332192,1.2899915978036631,-1.6010434037531849,-0.5796911184736036,-1.332419432371759,2.3538488947564677,-0.664080136554162,-0.5822062472975525,1.7566152781190176,-4.016254136027911,1.54189394116168
-0.5261704569213846,3.7263085353976857,1.5360678601211164,-0.7165871160876862,1.9044732775246371,-1.2238086030357511,-0.3786857384348331,1.136869955126842,3.512608506545675,1.9174524884082371,0.6590807756153708,3.0295372127792306,-2.8635981074727184,1.8031000999793152
-2.3885097690441723,5.693741189739696,2.19335878491295,-0.6288485601523682,2.331936436405446,-1.32717911108771,-1.1128024807870287,4.093674083775122,4.303747290143697,4.033889533914053,2.299720583514529,4.768053901129398,-2.3439032623254192,0.8388793907613403
-3.5971880009547608,5.881066352856029,2.256469752136061,-0.6996103281191607,2.417925614268832,-0.8267813504119732,-1.6129908940502449,5.308738431393596,4.1808658384589314,3.819151306864633,2.283722686678957,4.924572383801597,-2.6905423455780597,-0.0936778446490298
-4.118354469203837,3.815187997050372,1.5776471676204842,-1.0681783910972764,2.225602582636549,0.4226965879556523,-0.99234400237419,3.654415763356529,3.07046571223587,1.3286305103433396,-0.0374802834891022,2.865159594943654,-3.38300552959337,-1.8971025879123424
-5.193357332444949,2.4893210634232177,0.6914346457548864,-1.518811380114173,1.930793718830468,1.5856995250877204,-1.0410373167507914,-0.255889665459328,1.2954975702210594,-1.6790484159750034,-1.285154950301329,1.3985701989598445,-3.993208194687566,-2.979670133515944
-6.658339342466194,1.2272390916352718,-0.7205972922939233,-2.2818627041762523,1.7356020847885425,3.61747861457261,-0.5584255284602898,-4.608144365479967,-0.5607274429785267,-3.31355962669484,-1.999463617123084,-0.0625220192062091,-4.668260624809298,-3.2859841627930546
-6.88295162007908,1.5051716042346892,-1.3204091225890375,-2.070840599092473,1.8195573460756047,4.722213075085491,-0.063763823138173,-5.721341855550421,-1.87040700827202,-3.010835831092738,-2.9790489966241225,-1.256095288129634,-5.688175339533155,-4.282771427864287
-5.95286002877185,3.907933903169161,-1.0086166234974132,-0.8305445411965063,2.2863159324078275,4.563434360679575,-1.0251741762038205,-3.4794124199545324,-2.300154932653374,-1.7222528971888167,-3.6954929012074618,-1.7307948288355657,-6.751624878875106,-5.684072920955257
-3.4110665292945965,5.615839257892023,-0.2274094818423898,0.4199342134077942,3.084804566302076,4.799387174652896,-1.7911205739535896,-1.0877785773907704,-2.082520036685402,-0.9047832305012342,-4.683193781291403,-3.179452278451138,-7.01342843475182,-6.210397304381911
1.205844459644163,7.055516038462169,1.3953664887004291,1.9577493200868388,3.955686072093616,3.9552142477002223,-2.666279563029069,0.4864085043440274,-1.888986211350549,-1.3220118881265748,-5.944838578459203,-5.4723490636792445,-5.9545769177953005,-5.976166727307297
3.717031321014527,7.690010772925693,2.048461106450041,2.604220830303574,4.492291840302318,3.307319088294112,-3.2836907366378467,0.3458841227306205,-2.2646208126123355,-2.607725520488451,-6.296518089442096,-6.162381853527672,-4.060808286849365,-5.043671384011988
4.08080991082798,6.942689833372126,1.638124870722392,2.112539530939483,4.347399720875217,3.138102808870665,-2.4776817632859998,-0.9495662796254952,-3.093793649324468,-3.754494003637163,-5.743620528965172,-5.3781593587698895,-2.4109412382317075,-3.1122289144986848
3.713404271730621,7.559384584010875,0.8067938642814069,2.511310567644184,3.486706080268469,1.750492763813799,-1.547094016160731,-0.4303618420001402,-3.6725043749662447,-3.9689418973853137,-5.149196743676298,-3.400204201472623,-1.560882146556338,-0.7432864367885195
1.5844213533292797,9.362737430609243,-0.924236433901474,3.55042970907333,2.2973413720423537,0.6866888405143126,-0.3051665228689394,1.6630046348049952,-3.394967290634682,-3.205427362167761,-4.272913243365977,0.3622149191407858,-1.0387325457721772,2.1541040331256323
1.032845120399957,9.776831450669036,-1.3551990394111018,3.930013552099964,1.4126296621866317,-0.3335588312675379,0.1067981381177598,2.9834779083248235,-2.3682579340665058,-2.0858839465853194,-3.854431816210461,1.851799537970866,-0.1536662154254813,3.779567086096854
2.2103618252239885,9.179697779575902,-0.3566475512873636,3.931768588515404,1.3098074659027077,-1.513729238244029,-1.1927694449841315,2.9223869113828966,-1.2838362371416778,-1.3966959267226144,-4.0753536528310095,0.9031707811440534,0.7426856738586451,3.85587135406121
3.9375080305309367,6.6811364888003775,1.3322672361524133,3.245301215497685,1.940859857133816,-2.0388806512401314,-2.3178005103942,1.849070629659456,-0.6813874881134154,-1.5729041904715473,-4.880508999127476,0.1359373677237599,0.132857716670216,2.219648078601598
7.069364439476091,1.673811959644161,4.304823084562443,1.6229005007553037,2.692295243654925,-2.9575736454567703,-4.244878070353994,0.3865253022888794,-0.4512632549984801,-2.472377915694004,-6.564386212259963,-1.3864352866250722,-3.1420012105665904,-1.805278288924864
7.915212476711688,-1.098767639378102,5.01126325822128,0.8505501958039537,2.7657853345169485,-3.1129384293018925,-5.043940306621836,-0.2290840459402251,-0.1494641365367144,-3.487459026174747,-6.453903885586538,-1.990233051121516,-8.07379799727024,-3.350411024247596
6.2587021117696136,-1.7272506958916014,3.223020616188076,0.8966265896470657,1.7572227300472605,-2.1131751889025514,-2.937642732721329,-0.0302079457510448,0.2956248321355659,-3.856792738985618,-4.434739766477034,-1.3095050352614432,-11.407332763405016,-2.358889809051047
4.19616053543596,-1.2056091555370352,0.9291985562912196,0.6543233021343303,0.0201132173085056,-1.0360011758691652,-1.2675824979330628,-0.306315861102216,0.4227298692228629,-3.011813675182061,-0.4219413891799589,-1.4146697830639867,-9.851117420917056,0.9158429648396909
0.8231925519327502,1.6158795680226528,-2.765072619065419,0.4816732720317699,-1.4945528561232422,1.2590898637618675,1.4197843042057503,-1.5650514672706866,-0.1030160835852598,-0.8513937245207472,6.3953194749646,-1.883334498266064,-2.881836112835608,7.815784844147249
0.0392828861772341,2.063272215891766,-3.868289271872747,-0.0048421903109701,-1.867825615698756,2.364104444980778,3.2443345362199665,-2.4198556168400884,-0.8380576077948092,2.128857603752344,9.529426666069911,-1.7690912897838895,6.387380924421656,10.629404375901796
2.3085661073934247,0.0279845808570686,-1.9320759908042648,-0.9526757130203336,-0.891620783714437,1.7115067533660504,0.7018189148441835,-1.9557121798098551,-0.8771627595307976,4.9425454881815085,8.80415029266423,-1.2980265332042211,13.25808398515104,9.25979294278825
3.7350111335393454,-2.825530203760475,-0.1445778814314167,-2.09885687470239,0.7098647193411054,1.515757017034589,-1.64776339298471,-0.9516794455771478,0.0476357993651603,6.507943413558905,7.140969808153138,-0.4646032219563563,14.820305180920656,6.522976768169638
5.235426243835128,-7.647130829398378,2.5011602673901723,-3.591612573904177,1.732483174030229,0.0399107921163742,-4.574578723187741,0.9829396348423712,0.9808078026578144,6.216400023001107,2.9560821084318256,0.8879244071881129,11.846680191449586,0.5503752692708961
4.67413078716485,-9.015453145530673,3.015240209367973,-4.997015976351421,1.3422882192799293,-0.7805464161274706,-7.0143982206387925,2.1805820491363983,0.5867379815038518,4.355028029263863,1.1482926347395992,1.0528562952669176,7.715845949562365,-1.6199316136090274
1.281778206372173,-6.565994314042107,0.7898070280234696,-6.287898754412931,-0.288878370981287,-0.8197593523481348,-4.493181585027358,1.3824868645517856,-1.2816034323546006,2.0376143128255606,2.1306038028097625,-0.0649290142851421,5.484656512163802,0.4568835784049641
-1.2592114448009568,-3.5235359204241528,-0.6596269088823942,-6.739175423214856,-2.0675066721146536,-2.1670495717439837,-1.5560051393103926,0.7738685511697048,-3.0343965715388634,0.5711905851935981,2.0684314889332738,-0.7770003042981782,5.709752904900753,1.5314222938769555
-3.565972889916968,1.4569539079757896,-2.110934758686833,-6.145716673828134,-2.773598450688084,-2.6642830482887176,1.3580877176076285,0.1304200642316355,-2.6788609313054152,0.6041284234796649,2.105038358041216,-1.4357366176964057,6.685295637247933,3.20693949638175
-4.381058164367417,3.009667807215937,-2.2772874705396675,-4.958154423020253,-1.989108537341316,-3.3932335404416696,4.184895696104751,-0.4468171625637904,0.1111391176323408,1.6402272066019918,1.6892336067330678,-1.2686979968277654,6.458921470219231,3.2081087052866355
-2.928612762810708,0.460867968763315,-0.5109090012145554,-2.9010739352266435,-0.4282221462970312,-3.846998826522429,3.250165922378966,-0.1614139062467302,3.3006490184993567,2.324294828035299,0.3588172308193995,0.0722774487785945,4.559033235476498,0.7618862487434853
-2.193652614262981,-2.04623666261773,-0.2356785195069357,-1.753419454478495,0.6295745955557379,-2.81764094029476,1.7915847660175732,-0.466578570766233,4.062978734203711,1.3893903342014653,-0.6837127987806243,-0.0516369156106133,2.02532646390312,-0.0623380257616488
-1.7163124828314946,-5.913935023559541,-1.1090966766938997,-1.6582946310093836,0.3767933267204384,-2.68691941251837,0.8661459129446395,-1.3854175033229048,1.2730863179100638,-1.3536154559460911,-1.680338082791548,-1.512849427242113,0.1473685184006896,0.1483970282322282
-0.9261493332123152,-6.8579640223470975,-1.1710173845859488,-0.9946409827633808,-0.8613066614632956,-2.031833875441201,-0.3110785678230364,-1.5942874893089467,-3.371668266032671,-4.7165885189562005,-1.9330841977659827,-2.1987234300882714,-0.6161165449924795,0.2155008725935288
-0.3044806883539532,-4.104956129990777,-0.9557476886144262,-0.1639608746108144,-1.9107472234646856,-0.9966924651974644,-0.0381822534421589,-0.9241379842017924,-6.630514564832669,-6.826659405700653,-1.191795132591132,-2.543829039712472,-0.623204162639972,0.7897136852295643
1.358515243023277,-0.5681133461453771,0.9468425130690084,1.948945663446629,-1.7541108809094723,-1.0176248278297717,0.4015375643090214,0.1914070301851452,-6.2322220318272095,-6.391120093496898,0.1059605648629715,-1.024872068618193,-0.3236726135077141,0.6610065889077701
4.094153382814692,5.032020184474918,4.943204559575315,5.678383568761978,-0.4015630943720012,0.3143216506390579,0.1224837093214906,2.0698772736296838,-2.4650270025827155,-3.63153064200592,2.242630516559886,2.866053962204895,0.2147528060311216,-0.2819078831003956
4.077249802866978,6.5804993060689565,5.36266719465391,5.58729638639508,1.1191842579692235,1.3332614441289825,-0.1418520273190437,2.892579068367924,2.307745234410021,-0.1677085431446947,3.0075938597349943,4.154919131177346,1.1204661561561196,-0.7441592142746296
1.2494317718204002,3.3953554268865718,2.2246477221590406,1.601311954352557,1.6230603734104996,1.0450003486898989,-0.5666011917247875,1.4568072235350238,5.5008986773985775,2.087891097545373,2.2230634987221767,3.027067359646774,2.294616904436989,-0.9656992496112587
-1.7030743570921107,-0.7649734244430829,-1.1932561656686482,-2.28182671772129,0.6989550977268877,1.7409023046921548,-1.1845433407394097,-0.373029022941946,5.882342081217395,2.191006486869325,1.4258739700714826,1.7210368043179354,3.3185846108898005,-0.994476231323478
-5.609487415281988,-7.560401545296536,-6.115863734690231,-7.204039280541438,-1.0847220016208166,1.6270796390168203,-1.6638656375568504,-3.10311953675783,3.844064043950411,0.6454692486882543,0.0652090879228921,-0.8000714623571553,3.7443423339743855,-0.6138811818346066
-6.602273949283788,-10.134761130533107,-7.336390197271847,-8.275481467517443,-2.7893977122690963,1.1032628938549178,-1.4038356521372033,-4.6095117882541725,0.6507669655156754,-1.1689305223523083,-0.2417327817028946,-0.9322652098171392,3.3850347076735963,-0.6386489846185819
-4.004840049470307,-7.7052843659528785,-4.096417244316768,-4.525221755337928,-3.8742338811167,1.6603451487459,-0.4591294855763811,-2.885529032483086,-2.3726635590098484,-2.0456091392033646,0.7806260551021117,1.7410050210204802,2.3411798951183505,-1.0536008480699215
-2.937899883305674,-6.281117769136957,-2.6886437589525323,-3.601353946502271,-4.412118530611222,1.5167314215382748,0.8789772793640533,-0.6220255667910566,-4.154158405876123,-1.6243350832933954,1.1933936217804355,1.5227360655226667,0.8682942459734297,-2.1483394309922046
-2.495042787547101,-4.185940349048844,-1.9228483972880437,-4.417129262755687,-4.678566554941606,1.1995134147175028,2.952646112828893,2.532287851443216,-3.9202232919249065,-0.3114981859528272,1.3828352310857082,-0.9718302872246638,-0.6990489785367631,-4.162777922795453
-2.5560999040035823,-3.6045993578834015,-1.4279269766180152,-4.415588032340337,-4.68124070759229,1.5194555188708572,4.222907643821858,4.550488194625014,-1.4504175349726682,1.2354317346948411,1.6348016066767432,-2.354112978675334,-1.9606458280705652,-4.97162260055078
-3.998188747105768,-5.4568962323614985,-2.218554991157284,-4.816157974432891,-4.172904726996657,1.6449880273426334,4.609581504611979,3.2875714850923745,2.4937189739220305,2.4991658376691657,1.6673765401646774,-3.5046170254545053,-2.5438732563961386,-4.57354773108994
-3.6107384685600823,-5.317183984565457,-0.8270851596650831,-2.2749131015357937,-3.07691804371735,1.803561447747996,5.221884146463389,2.0021752634837138,6.164150161337715,3.1558682230210024,2.7314356068923,-0.3179778305378599,-2.2919523392086845,-3.204701286431271
-1.4880986469844186,-3.7907704135689895,2.6836421043375647,3.624681767097474,-1.7558772046309965,2.33879881378877,5.143825079155731,0.7368893202695622,7.68364703684068,3.0226297335608496,4.892963849169857,8.105790817354126,-1.3690514109531955,-0.3030249782607082
-1.1587682095989298,-2.7011631031799355,3.7492071167421215,5.348864556073499,-0.7408006354474175,2.567547633846042,5.342835280380823,-0.3642838906688965,6.344873324013294,2.1630566910945976,5.855287299079691,11.682526771023053,-0.1484258544693339,0.9240607296988328
-2.1787779374934373,-1.3811603933137473,2.790763735003873,3.2424024336919817,-0.1907350387710646,2.2665922574283552,5.414010327253676,-0.1048671628407347,3.2635454678520475,1.0575022677957815,5.757836271540244,10.999562076015978,1.0196662022906722,0.4007375384919708
-3.444614666577761,-0.5926344976373878,1.5075239120886978,1.1872880279136775,0.2841334583665542,2.0557343587032704,4.542334142295988,-0.3449936931554064,0.6521066959166895,0.4929617228133622,5.1680173719071165,8.62646862078368,1.946044840522486,-0.0294781287928542
-5.584396653627733,-0.5732463700063075,-0.9696970462302612,-2.31610066701146,1.1706290563698651,1.7239814516583152,4.039927962550357,-1.57360105983207,0.1673932346268039,1.0572013085360297,3.5820338506714973,2.373128836545392,2.5678216382007903,-1.094653926251214
-5.4272413088296565,-0.2912906539493532,-1.4999524252405134,-2.478476903398471,2.421663316180357,1.242196341607412,3.266662895652554,-2.219350495488332,1.6901650619030375,2.6145003208901514,2.843691004721633,0.6999594873512279,2.8547479761619385,-1.2442591457645822
-2.674783648520308,0.040688545964301,0.2407375292968362,1.443516073998667,3.3531947146911563,1.225389408145986,2.9272987350425392,-2.076927653544944,3.5712708813002294,4.308308637352592,3.02114750500992,3.977094799100421,2.792131802182485,-0.2198836026703618
-0.9878118676546276,0.0510668475837485,1.2315615112559488,3.312217100381933,3.249465917028349,1.2495362298711108,3.471078181648562,-1.7565511090817971,4.075201092650865,5.202132691243534,2.8573028657325703,4.856626789328287,2.4358912234407413,0.0348281453207254
0.2883166761113634,-0.1409246793116605,2.188151742745093,4.195368232423574,2.0888774399333805,1.0235318831622888,3.2135206027061463,-0.5002396948681451,2.718754749632456,5.023230445625913,2.7560817974809275,5.067717336915225,1.9428663938787525,-0.1310085350120442
0.1225447621695482,-0.3577331762785777,2.164347685685031,4.194202667277708,0.6359017236879616,0.937215467504694,3.108293855121131,0.821145663064371,0.4172994031533754,4.31486912937482,2.7829003739603824,3.3908799463492563,1.526439117135567,-0.522091839714073
-2.231879744922829,-0.6271866371922705,0.6377625909079998,2.239244462114015,-0.2212685698998555,0.750770155649938,3.255981380936341,1.232364988862799,-1.467330773119425,3.8584476689527847,2.825086197303483,-1.3590028766309894,1.3757137431376023,-1.4529700763251403
-3.762440659920238,-0.929878006767766,-0.9225774321912342,1.998843340725759,-0.2299216283583867,0.3825587256756347,2.496843753333001,1.3377829019466798,-2.156987187374419,3.95898540661355,2.459409956189512,-2.9917930173433462,1.5846411471347928,-2.0003982797871123
-4.844293261979279,-1.224350889723273,-2.8960993769652936,3.318166578011461,0.1189478363051108,0.2100690145778932,2.378352086977159,0.7949938675000694,-1.7241733538310626,4.30762950707885,1.6149924309810064,-1.8090534143847263,2.095910040399911,-2.1778552675629177
-5.243348644737315,-1.5712683566641872,-3.732197560775597,3.270090727840109,0.1928288721871567,0.0802064348421228,2.162488354235867,-0.3336616162399544,-0.6772356829688242,4.49015080949588,0.775040292799413,-1.682707217301791,2.6634887782059344,-2.3189646803950144
-4.3381057269650345,-1.9490624404827377,-3.099287711567392,2.445656196117921,-0.1371466114718593,-0.0999670335002073,0.3089898800672227,-0.9576464030736316,0.4564968303175689,4.487514605452912,-0.1751324426211468,-1.500012883312597,2.8831825250740266,-2.221035979662448
-3.295213146451822,-2.3353988412579056,-2.166222795429817,0.9971946167906812,-0.4723148031600885,-0.1542604372390329,-1.2170483227417577,-0.3450476192508335,1.160660098908295,4.541620453381736,0.3097213086771454,-3.275236225031764,2.3413651281064816,-2.3203905554064885
-1.8318333465712544,-2.730801009117875,-0.4463448485616327,-1.551394067047657,-0.4461948731828755,-0.2021822177723958,-3.042487044041009,0.7379307458825759,0.857281678359211,4.541524374410198,2.4556397132436354,-7.681933397234779,0.8407187332087211,-2.64061852533215
-0.5930851776391933,-2.891763817779097,0.1422314753111936,-2.3491959570585164,-0.2062498771593439,-0.24435897705977,-4.982819410227961,1.5416198380589023,-0.8230757508044135,3.750468703689318,2.51597028191613,-8.94009509605014,-1.431948948495247,-2.53007680781558
0.217009394187306,-2.7862593055354568,-0.6332566745240599,-1.3043450075463905,-0.2739486667301385,-0.2005792535381764,-4.442379427707002,1.222085979183709,-3.526391034626254,1.4188887949260902,0.6625115825161491,-7.353217244212305,-3.925251872146824,-2.0483121276718674
0.5000457618517155,-2.759051332213548,-1.337664207144072,-1.1908524663244702,-0.944690395421329,-0.1488176569615129,-3.6084658220233297,-0.6676608081257036,-6.052297514209627,-2.1834110189769653,-2.6408421915637987,-5.4593290564444,-5.947327846525212,-1.4486361213237913
-0.0385626320824471,-2.7590239111871337,-2.472118284971903,-1.463405275876346,-1.8935841304769347,-0.0287144908185907,-3.015648116071227,-2.4439618580398736,-7.031439449978237,-5.437832073268176,-8.289779694573491,-2.1010975711935944,-6.979744184532503,-0.6092298324565646
-0.2152773335702912,-2.7073050983224745,-2.873419167930628,-1.980536662221477,-2.422147517050128,-0.0211838751720296,-1.5408338927682084,-2.615068595714147,-5.967673748765584,-6.363689344426504,-10.086999796193403,-0.9113796221919308,-6.908155487801931,0.0936778513362867
-0.1132980900181926,-2.6619374993340874,-2.315457348069653,-3.191212645202677,-2.095251769005888,-0.2412431701096867,-1.5747597959545128,-1.0103339427202234,-3.679277817885652,-4.252408419918819,-7.767311566939763,-2.330521001779399,-6.0422612534996105,0.6169857904415214
0.7245536686225288,-2.0764068147962096,-1.4003953689205073,-3.074136424515903,-1.1268688151680415,-0.4496596052243347,-2.013836136827324,1.4595095325027123,-1.6338353089453823,-0.5066013216160918,-5.634971058134081,-2.216106816972458,-4.920631260604793,1.6269994718566594
2.61659463193176,-0.9030696375251556,0.242242486672738,-1.6125138526473584,-0.1684351794517837,-0.7856787614433219,-1.1004671423965762,3.2658486230074613,-0.7330537743709975,2.1970928073724494,-2.2831743075869566,-1.3595301109187907,-4.027555790953091,3.0677036092845347
3.304470534826785,0.1559066689218582,0.8878007869136221,-1.2935132815059207,0.2333499914935295,-1.3255480814915148,-1.878915111076159,2.804966181516388,-0.6829422430321443,1.8554682295084,-1.7329795617147323,-1.3104575787023496,-3.5988766105829235,3.202708161456073
2.8617911531893125,1.2061755480967666,0.4114053960698548,-1.816767220766204,-0.0246787665489804,-1.8900826241959563,-3.622990300684169,0.5685435252425468,-0.5356448902188937,-1.3709209563949931,-4.792092042337116,-1.53708954260997,-3.612101570327514,2.006409464648477
1.7218769732403818,1.5007485758370902,-1.0683409978620282,-2.8749614048548366,-0.6943362477358246,-2.599564619455032,-4.767890618389108,-1.5761240783829975,0.1719131006709666,-5.334795773623092,-6.152601600788758,-3.140887128753823,-3.902377904237495,0.4275339614937934
-0.6480450829585441,0.8280631035087447,-4.077580265741712,-4.9626178069046425,-1.4634015938635123,-3.550931339778857,-7.992669679746854,-3.319417464285448,0.8615264539685263,-7.575596737366437,-6.792958523050137,-6.403372994516679,-4.261804352440935,-1.9409100719895749
-0.0857650315368504,1.920608063011745,-4.025975513845158,-4.125596431977818,-2.0957440856974348,-3.776417915534695,-9.235304105517404,-2.83351574103201,0.5306928673291456,-7.114801678377061,-6.22894798071053,-6.966545239046358,-4.448600463454692,-1.5256551544213235
3.6583160050386327,4.734135389073962,-0.7135608487094379,-0.1388430242584607,-2.3683124915497515,-3.0848806195032177,-7.1742899044718405,-0.248323731794299,-1.067705513630779,-4.970269689822888,-3.515807507646326,-4.827146244634695,-4.173280093101599,2.0741430094371216
7.875117437975102,9.054421217722668,3.42062685626443,4.077173784457422,-2.02700404806562,-2.281973196103979,-5.89650917542467,1.4407142776540354,-2.901011999461959,-3.092031103129603,-1.7355689827108285,-2.5421104320504786,-3.173878856702663,5.314252994563818
13.572116289814822,15.591553620603984,9.504048729991956,9.437520858637749,-0.917482643537685,-0.7771843214850944,-2.4564377080558115,3.6257989371912394,-3.3921105172060466,-2.7037820598125446,-0.575713882396535,0.837726582460706,-1.3848493339774883,9.0428976775472
15.004474268532206,17.584809629216004,11.41150464531347,11.183696826948736,0.8206010143832199,0.0879811695573608,0.0882392202904778,4.215808254194348,-1.7855484048845165,-3.444884109012225,-0.1187184256465289,2.6471547992396056,0.9277069576943332,9.784283369346506
11.406410640155212,14.681108980037722,8.480021271327253,8.538268349261676,2.7260477143302184,-0.49727714634463,-0.2775799895253474,1.4898401463119932,1.1240950301091237,-3.953635793561672,-1.016608806223871,2.435507679138285,3.2023083632057268,6.687858442953083
8.348928556686765,11.26716209685133,6.764321245812945,7.1733371267037445,4.219315061397522,-0.8486130779956458,0.9658069816351328,-0.0455137334220542,3.5860480349602426,-3.278935457226986,-1.559774851387727,3.298794602242682,4.805881809849204,4.553429032102929
4.402273974472694,5.727815860044873,4.841813175672461,5.935558328135439,4.878687913137574,-1.6923556697974824,1.1624244308013822,-2.939884878676942,4.270224312741295,-1.8126008754514569,-1.952894000672991,4.594105174866671,5.329889529308573,2.453188533626596
2.8742500276034884,3.4747411652293807,3.9669174958536666,5.181819699300306,4.60784770728234,-2.247367047527145,1.2333853003543198,-5.232967915400134,3.2077528593670763,-0.8947158697887403,-1.405957610467041,5.413386368744044,4.80769922043933,1.4974343393032
4.818649967507935,5.359057612131059,5.126681175090299,5.847663599681055,3.652061704544994,-1.5904449525458328,2.528114256698591,-3.113475884918952,1.5525865597234652,-1.45554891585782,0.4955716871147368,6.144926792486864,3.745408992185727,2.579642542572594
4.7780358745896345,5.420327464215886,3.7703613621669487,4.170262310136812,2.505048025299362,-1.2191804394611858,2.140373156994489,-1.712550734575769,0.5230283565949181,-2.9591896555131383,2.313542710929525,6.034649649869654,2.9216705019855818,2.4037510636907453
3.6545273429866314,4.97540619854788,0.2792097007371081,0.3430101051581377,1.707489498932148,-0.6302680054945493,2.1219383650117827,1.2801906428279712,0.5266375959741088,-3.687249382575607,4.348716996638573,4.941893885623449,3.000267235194202,1.4090908488864555
2.908472014137896,3.792752283067978,-1.4224016029170088,-1.9241843289683775,1.5360370024100345,-0.6133479296430947,2.001020341317119,4.179167255246402,1.128645254055988,-2.2156423322493257,4.990547993441235,4.521901854324616,4.123442991246192,1.6880873292846252
1.721072544132946,0.9654243746472976,-1.945241247029193,-3.1524795066023605,1.7255218005380737,-1.6575752274728384,0.6375610629708788,2.531842359895741,1.660526320192817,1.177136759821822,3.8601227266518703,4.6709917044238605,5.745204332479254,2.8224604349823936
1.2213037473498896,-1.5533269519411208,-2.388035989858169,-4.606656770067996,1.507194723386665,-2.5530052234217164,0.0391508160869283,1.1120267726257562,1.7825642068426677,4.4710662836079145,2.2288906729381197,4.830053393021572,6.894000055946292,4.463138564369272
1.5098544810911971,-4.084135702436254,-2.0929729637647587,-5.663736822036638,0.1094720637656587,-4.150033321435359,-1.4172560615832952,-1.3966337247801714,1.571977379243814,5.413114770309091,-0.4266849848017897,5.340618483921081,6.782914777392583,6.9432595841634415
2.261554909255204,-4.349356369293138,-1.151591178833058,-5.159807509098959,-2.537850113438818,-4.283044725206556,-1.9654011178301556,-3.545382971117101,1.273609815325773,3.3921723762127494,-0.2622289081364507,6.06038675877274,5.391606376851189,8.18381333255028
3.779639478189383,-1.7907883912500164,0.4653125286076824,-2.99880227749091,-5.454654318841763,-2.339122839362867,0.6298502956612351,-1.519809159917268,1.0787005234427325,0.0894390555418196,3.1588867535924887,7.007766378143409,3.585688213536033,8.043566021606798
6.934703719433832,2.4931012597578497,4.114951073683463,1.3963678700721305,-7.00714527050288,-0.7065452687257865,3.130302676085656,0.6159764387972119,1.0745839521189744,-1.7347492549408106,7.56240290449509,7.42831413686458,2.6207974773110987,8.658884209892484
11.902648928694598,9.332272554160747,9.95824113700908,8.495301984923062,-5.877764993983813,2.5490028124618327,6.836116781263248,3.47443337139094,1.2500863827327393,-0.3938402935144216,14.018419599829643,7.230634626398737,3.3210707682605625,9.600789534520944
13.301526192580484,12.350403061932472,11.71179574730521,11.852264400585948,-1.9568622144359429,4.5999579242301625,9.608337907011755,5.203506194762664,1.475590605366925,3.3851846330833784,15.480232322056784,5.853154797406867,5.486051751170635,9.445632188356702
10.93604165672382,11.081820651344868,9.202993751579127,11.238042197094986,3.468796769898864,3.689762275789104,8.097473036526594,2.705123989748245,1.5538536156749023,7.027891736547867,11.214446447381835,2.974993117412659,7.952681955988316,8.395470315144394
7.472563130959223,9.700024149440187,6.290157834657308,9.897297596711947,8.355405243393232,3.830469840639437,6.5692154564874,0.1321354489491032,1.4052145318426854,8.06901891261492,6.608065418431824,1.2022495967956095,9.29570701119484,6.715197051002648
1.5713489654610913,6.617128368571774,1.5154121178004554,6.245335973098097,10.943412867180394,2.776049732716481,4.386331607520472,-3.007031503763927,1.2097551835265472,5.851551245708,-0.1317326287175527,0.4583070071330566,8.705098834749343,4.127916659644617
-1.8632864042282555,4.486089558765075,-1.1020016753802602,3.1369890663822004,10.572739022560691,1.4112759418372147,1.7653441428837855,-4.90046177671984,1.258314881888973,1.669195055732545,-3.282388138438548,-0.4204669932465925,6.455515480039583,2.277945181212762
-2.3510730417670427,3.82458523456762,-0.9046243802171204,0.8626532104063122,7.859897764204621,2.3268846265084013,1.1725979287357544,-3.0372032145304435,1.576792102142666,-2.4980349811727844,-1.7987884186974217,-0.8806800880149656,3.6721184516718752,1.2602713251955242
-4.140863922042212,1.7889197494993048,-2.675984149399224,-1.8862238335147348,4.232922091730988,2.0890279205072866,0.071391612506706,-1.9548628013250495,1.7468753321844384,-5.353993521627029,-2.3499290906558565,-3.321979059281565,1.5885984659513763,-0.540284503624353
-6.080899382745077,-0.94662818704736,-5.472204835321625,-4.350154345371906,1.1491793353829731,1.5280812794697491,-1.828668348346032,-0.9364383752919628,1.241664905025455,-6.643940150693381,-3.5021422498589194,-8.005942467694158,0.8189928872673136,-2.7869193895362567
-6.665239172674333,-2.6963598312724666,-6.082641921862087,-5.096391640103653,-0.5677588574569938,2.184707967726295,-1.9752550086940648,0.2372233567434281,0.0264892805945216,-6.553299723011297,-2.8184076613051348,-8.498687120686446,1.108641070199372,-2.955216278079868
-6.252699258378416,-3.676713259331717,-4.951158006423716,-3.8982988112637433,-0.9581705075166588,2.0337417037696643,0.0829697249058952,-0.0730797294880032,-1.223491583172284,-5.089608258203514,-1.0543592702073128,-4.935360537939668,1.6612933478591572,-1.0423120278715303
-5.375195892093093,-4.801241571828934,-2.7126815073745294,-3.421445474515069,-0.6749256494249511,1.987374417969328,2.819823943191906,0.7505154133770289,-1.6322097078307962,-2.1573768846753163,3.1243089612396115,-0.1936382312353831,1.756998308328802,0.6471282442489189
-3.816372725147435,-5.78316765250102,1.2590440723295628,-3.3737848882627417,-0.4725507674910378,2.962225125095729,7.134940001597098,2.10370631033217,-0.9346857894404712,1.89619691145335,10.174082992596077,7.147383692546612,1.2259383264538553,2.6017011793606715
-3.3709902634867595,-6.163690773741728,2.805923378258124,-2.9203760544246484,-0.7729145025948627,2.7635800447252032,9.208521627585569,2.2209614075355213,0.2199068870130078,6.025915781846227,12.268945378053637,8.892162466372891,0.4809060498768538,2.5153722214337613
-4.266224025445355,-5.998450353904988,1.658467576935293,-2.5466079101491768,-1.5333899949991778,2.0217692810056924,5.841612964927868,1.7870694402212424,0.824839070719527,8.92109446717561,9.203529268738563,4.193424739098707,0.1178773789915235,-0.2174288895893088
-3.1103464624207984,-5.043473841868825,1.8113791022540549,-1.5960814818223592,-2.4059448745130485,1.8321914367925292,2.0068441161317705,1.104397390958639,0.4212198988786095,9.763647870669534,5.753852998552793,1.3747138574544857,0.3859785442133994,-0.6680460401430246
-0.177708176880537,-3.163388375692631,2.383623369306283,-0.030234257044812,-2.9978386635575927,0.5689801338412328,-3.35213186501209,0.2198678991648445,-0.5124764892649267,8.648518873141793,0.118349684199278,-1.4258610224614146,0.933666544092552,0.7005478429041045
0.9197258600310716,-2.525305227070206,1.981462707753968,0.1701916516583252,-3.055011239120448,0.1373186721675986,-7.385806361069847,-0.1160693202551378,-1.0371709891362757,6.382805741541344,-3.314952744471071,-2.740994203670182,1.0536656821799308,0.1091923341925215
0.5954275647812811,-3.2091484488424378,1.068012588575744,-1.014744494841605,-2.5209163792152545,1.059917077822581,-6.2274141464910615,-0.0325771636021593,-0.6158317664297455,3.930221884363647,-3.790530336511257,-1.1838125207414534,0.2500937061363695,-1.7393637343129398
-0.8826810410990724,-3.568004773103999,-1.5017597729809091,-0.6972528475337988,-1.5236137819239346,1.36540264975881,-5.458985868790187,-0.3423230213493951,0.4274001328670636,1.9392439517527973,-4.777727970858622,-2.010444152810845,-1.3664357903142197,-5.470554447145685
-4.277832410728736,-4.0800960668863056,-6.013383513991259,0.8542476012096637,-0.3351896168434125,2.6264953092548797,-4.130843131618292,-0.8963514387650181,1.1978513037625271,0.5683137084595842,-5.053747542818713,-4.644653130928877,-3.2452500280187,-11.830196899502113
-6.495876107920799,-5.454016548592005,-8.590130881435568,0.2894666281265093,0.6982755715359046,2.832085317871966,-3.137034731132736,-1.084239338921236,0.9351494280924716,-0.4404432268181839,-6.051452104283291,-6.155773832096312,-4.998267199866469,-14.951056202475783
-7.559388312098496,-7.576778166192124,-9.295959137204855,-2.079746639250034,1.250761516381739,0.8832792940812781,-5.0828358402615095,-0.8350007851701274,-0.4751825495131276,-1.5469729889405706,-8.160140185589619,-7.325287276369497,-6.838340659997566,-14.797828233750462
-9.702417638060204,-10.124912515137082,-10.00314757657289,-6.342901034633849,1.08346505613116,-0.653429570356857,-6.315064276099074,-0.5207636675923079,-2.508534225500295,-3.122540945853518,-11.599869846673728,-9.632716085191522,-9.341031382390536,-15.2585203757133
-12.334265048399375,-13.221609462695808,-9.86568911735347,-13.284244497408018,0.0594771288449549,-3.441685047607287,-7.586334660523828,0.1044150247549998,-4.393743725789447,-5.163938656364297,-16.96132838922226,-12.826805499478716,-12.671221424120905,-15.100362784668391
-14.316644829777037,-14.923548692034522,-10.105726243196374,-15.668139031310508,-1.8221864845692448,-4.594777113662974,-8.149974211385658,0.7162873423977947,-5.54193453962516,-7.160442400320176,-18.186100723556777,-14.164280266261295,-16.021567125109225,-15.842678293833105
-15.823711532075183,-15.004954092537842,-10.89510735285758,-13.207875339425748,-4.278019142677942,-2.614195520188534,-6.901030117840611,0.9933672678779883,-5.766634532434777,-8.250277549329516,-15.067159496102718,-13.6707747516752,-17.91839987684957,-18.02864124032793
-16.978158046178137,-15.780494602250462,-11.221964436254526,-11.03588953922192,-6.563169034312527,-1.2208112076230897,-5.982553390705658,1.2933211561586668,-5.264337604829585,-7.659743431226596,-10.822990041367513,-10.320419410149436,-17.283584068707462,-19.59228326426044
-17.54521006153403,-16.81976283274199,-11.384337525539197,-7.521726597015296,-7.581602531860591,1.9778052608203056,-4.062868266387679,1.245339818871408,-4.453340383595831,-5.242407853110281,-3.993161151387936,-3.240547758098354,-14.421062395140504,-21.00056164197757
-18.8451710117958,-18.465929716946533,-12.380813565454044,-7.488508664819714,-6.519872173596873,3.243381947021168,-3.451568431561287,0.1225289231788684,-3.777071927895506,-1.830297113063696,-3.924560277696511,-2.1934388633178674,-11.111397441341138,-23.56386967898769
-20.922497528944668,-21.14826670427545,-14.207998483425238,-11.930452661919288,-3.724395269153536,0.2137096690664523,-4.991115734855084,-1.5805153171768405,-3.544631282097224,0.8794615327576927,-11.640363977897062,-7.399409386702098,-9.707213249283626,-27.128404771941398
-23.10475314597857,-24.060338127889377,-16.666707375529175,-15.681719006287098,-1.0094472521963334,-1.76438300381829,-5.619245222898446,-2.6429410083626563,-3.853259884217548,1.013845729876357,-17.535597984992155,-13.631652202927803,-11.849538792423914,-30.238334626324715
-25.70793438709529,-27.44050549117962,-20.02855070889694,-20.056635083160916,-0.7307918360832146,-5.761323906974667,-7.847396532207019,-3.5368174959216323,-4.59450008302241,-2.418067786219169,-23.76198195095969,-23.178293121846192,-17.57138340129564,-33.04544348705485
-25.69038829920215,-27.782544271624985,-20.426840125010862,-20.97112587660385,-3.959201178519222,-8.013484191467631,-8.076306898497256,-2.668344382239527,-5.490798852020571,-8.653606025837421,-24.01703361207079,-25.25011001437116,-25.169986856328997,-32.46358305222533
-22.732524523779738,-24.65485045083864,-17.562405662408477,-17.349915547586587,-9.162527060300317,-4.890472746239155,-3.832438449235069,-0.0834810440837207,-6.106434662572681,-15.146446493348565,-16.22983531130964,-18.58433040277017,-31.79260550579241,-27.84588039579409
-18.106322315540517,-19.450273444180485,-13.154742965702257,-12.431795502921624,-12.789465873957807,-2.862336277423458,-0.4986456632113366,0.8865155590546397,-5.87004284026694,-18.65447097235121,-11.009775720592891,-12.802375750641266,-34.504087525012565,-23.12903181388744
-10.921071556396226,-11.09266647187356,-6.137193428234596,-4.850788671655153,-11.713885388987295,0.9829406703837594,4.995700003240317,2.4967975371824176,-4.249533054532779,-16.995543164876842,-6.597431524315872,-5.250729456474915,-31.5501532467619,-17.48990522990259
-5.161695643301739,-4.633314528512241,-1.0118204225505267,1.0195475984603473,-5.746998837702114,3.9985612805088895,8.919367810019194,3.330323710661526,-1.1551608034234118,-10.434199708018385,-2.416487388962804,-0.6102257012542238,-23.35833434688409,-11.926225368414398
-1.072755779517552,-0.3495602565330304,1.8973610358001856,4.6483175783547095,1.949417024535785,2.0246158622866264,6.19781516069263,1.921938009360744,2.6436582718043016,-1.72905426761323,-0.2873341797637841,-0.4922680231528021,-12.637426451251606,-7.1466441043231255
3.05203308067952,4.184044252749283,5.247024927528268,7.775954557846402,7.116526270278928,1.2278702751434645,4.322175996950638,2.6266365027057708,5.563717843827742,5.341437100219501,4.27820831629377,2.0473834857376247,-3.174461568831188,-0.724989742441071
6.171083598048679,7.6904044374074365,7.911007857809362,9.11383910736456,7.58339988831813,-0.4320083332687571,0.999039391672467,1.6729339534533736,6.027124147213499,8.139373838069766,10.946612000214076,5.612459154780382,2.2577756891522345,6.9420671068007405
8.081796763063567,10.499800128996672,9.72648639701132,10.064295487513933,4.747891797744074,-2.230941734962644,-2.780577957882985,-0.901663735262504,3.7028463282728095,6.653129276042991,13.524889252791771,7.879510092723122,3.600759046793464,11.525871698294594
8.637031997391093,12.58600977899108,10.765330586587035,10.500904915919197,2.1448456213786087,-0.8140212155874134,-0.7048952148923124,-1.520761301245309,0.180717890164461,3.332041949284659,12.361617678286487,9.68841115024317,3.49140261835301,13.003149163520002
9.993239712102064,15.53700132407624,11.48609919013023,12.254855549467216,2.40756972035156,-0.3621278422560504,0.5490638568765183,-2.6886837913916275,-1.774457626276248,1.3690384419181578,12.050259955067594,11.54008211434038,5.313523789273957,15.870562704963143
12.183677587143512,19.53524642992108,11.879468264292068,15.776939006463865,5.253257255227265,0.0652054022062865,0.8007448731771024,-1.481036361294692,-0.1573945895230564,2.5754597299669006,11.508499888644335,13.248588736415575,10.65012707931077,19.34423243678137
14.353410638708269,21.73948416147254,12.65674587913428,17.18765138290259,8.090674068169232,1.029194015485975,3.366621761407304,1.7204706836151251,4.574445930815159,6.271769950305467,12.142446467067666,15.149692158173217,18.103292826737025,22.918787752725763
17.032030666516704,22.405921602439257,14.01787000445359,16.853035041457417,8.480524678981162,0.6862838868434119,3.3915361071504746,2.139570021299267,9.552060796195995,9.91543657256754,14.78513433600918,17.351168601480843,24.45282333160155,27.35643963834551
18.190859621219385,20.929008839242613,14.687211140962724,14.259822075637786,6.166115927447808,0.7923880111676272,3.0496624827685825,0.4377277696190483,11.494998890507084,10.981559904348074,14.323619706258093,17.49988264944154,27.21059153710142,28.27794709402157
17.684645630919345,16.603290140731374,14.84675854872166,8.495569306019332,3.00880125601194,1.1421762596861278,5.468504688207967,-3.424976799389947,9.15851825892145,8.753652434597827,11.051684782063145,15.500797969300775,26.435365466649856,25.489328405702675
18.276217604001367,15.418009104857946,14.611153549390483,6.572919408461494,1.1608798471137305,1.1397854624212225,5.68391073995396,-6.505717471394691,4.234397275724035,4.769763902061653,9.413830490221502,13.59557298756693,24.321510178474696,23.90764478286467
19.621955140059747,17.42908903623469,13.747073576798533,8.566043171346362,1.2788659696815068,1.28007370284879,5.494538889250848,-4.70070080623676,-0.0238278052134779,1.6396261797805791,8.638024738746237,11.305091789927635,23.04250217932917,22.73403609941267
20.00791643218938,18.103209142700877,12.012447150696252,9.709524028853169,2.290988381875955,1.218795458294016,7.088800553816747,-0.1625217214200786,-1.262260916912441,1.1090192982997182,8.126832445115902,9.601322543850722,22.853588329398058,21.91570618157204
19.830647249855293,18.654584794869272,9.289841346038164,11.481877479241236,2.6596954015690177,1.092368831078194,6.142305647755268,5.28673875615224,0.4485414269438079,2.79141010315134,8.639686305741364,8.935997058182338,22.14388616718714,22.36307453709737
18.981492274490005,17.89002745482991,7.713618178778918,11.033810346881191,1.7893820042748605,1.0303450121388165,5.615487875828641,7.81053894561376,3.097862687603153,4.51426753748736,8.35139953347787,8.175098743881097,19.282789519840183,21.786343454449117
17.17845980069575,15.109136184901006,7.357803928424978,7.580877338052353,0.3224065625727479,1.0922690299438078,5.92445583478045,4.914053070301496,4.53972688127001,4.044106967781599,7.303997697661474,7.710365668957998,14.457954828380654,20.41749351971028
15.66986008008696,13.699090823988367,6.886410801423114,5.608591081609974,-0.733950101222224,1.3117330462017387,3.942661494170218,0.9132514436205162,3.99150949095441,0.8928849813642308,6.3618252342673,5.809530843484584,9.775056376421158,18.230217547566845
14.411092118212036,13.329960789030356,6.797932353330692,4.39937131848201,-1.0379402092392676,1.4034666621312195,2.96025611750412,-2.718893888986237,2.1815324252178523,-3.2114510139583343,5.160358328528862,2.220131650305156,7.557581975940837,14.75316589374759
13.705432124647666,12.391460935954507,6.902322110760992,3.924528662267945,-1.1043691903645765,1.2499733701062647,2.5991729706630844,-4.219683816776713,0.4187775726284162,-5.606952604426976,4.830796493486524,1.7845454678421837,8.440887147844144,14.687383662216456
13.896132635554991,11.44835484571122,7.092671714520318,4.995008193503753,-1.5942104144181652,0.8053727843163886,2.024413405113551,-2.1782779113966355,-0.3906303809766203,-4.740228222641566,5.526261120382235,4.388928890607094,10.96681724877396,18.251215935329448
14.403606165920966,10.15805112250134,8.22821849242517,5.6256688943834,-2.5155049310236053,0.1304534144888122,2.884165966844095,-0.2734934652916474,-0.0813165661036463,-1.315226115654944,7.11407442451959,7.595124509932984,12.94126481215673,21.780525668134896
15.447051885595156,8.340148669836868,10.306009628091664,6.033623082391337,-3.1496897300801834,-0.6896169090083556,3.471794299509837,0.7247673437320774,0.9919208776022588,2.3950094093944254,9.968709526447126,12.435054156847473,13.239495696866117,26.32075503206918
14.792956543875542,6.963454447373405,10.366572031308866,6.204990120022558,-2.748742395315834,-0.9038226409522272,3.398023379940065,1.2276643759126276,2.271839578266795,4.466623940753987,11.158261097074377,13.180969712489516,12.474631384923509,26.554824129001467
12.189516719908172,5.954602133690512,8.339899226336792,5.742171680122024,-1.305480796671502,-0.326815204166779,3.323497847028981,0.4230904406179805,3.1907091913461216,4.812293912271214,10.564314376315613,9.142130598318726,12.109049227690592,21.513078935335184
9.828562297951995,4.669256041012888,6.614155302944572,5.717417893207473,0.3346419484595984,0.4074534203128508,2.6519878888217274,-0.5577182465318035,3.3440178801994067,4.9826178750977625,10.914856775559583,8.267792157490577,12.984522395293922,19.87245398327096
7.175146645916208,3.262930488319294,4.564265724620578,6.020424022001565,1.12160297037667,1.650618668319175,2.084740769642227,-0.7718741105317828,2.71879392912442,6.536479757581336,11.617284314161829,9.4217175340993,14.599589966799195,20.528451042900127
5.4639468413354,2.115289249474084,3.948645325512729,5.470709129917605,0.6479654221669529,1.5848438751125649,2.2093632392627667,-0.7832458904746293,1.7860087019083346,9.483258027015015,11.808554365989668,10.172329415084349,15.608372655813726,18.799073721369545
5.120693673024404,1.169843903808131,5.259011730860727,4.16658318269754,-0.5026015105325441,-0.3807621949690486,2.314391006339461,-0.5244983315728919,1.2380097489909536,12.169946563725404,11.82224673790127,11.821172158101673,14.906348294082992,15.963784274234998
3.3064321748019427,0.4658849453523088,5.112682738768717,2.3305019792207924,-1.1814215695487205,-2.465077760679624,2.548664877715453,0.435998122126225,1.4856553059332098,12.654490750434668,8.906571912860858,9.552036277007726,12.3275677734878,8.243602356346507
0.2937628184261653,0.0889781447381876,3.906812495262551,-0.2950442242509101,-0.5570399906847718,-5.764677319937775,3.1848561284911967,0.9119021412315578,2.33703857534127,10.323835660377227,2.698989178244149,2.876598905170231,8.539972284481095,-5.385937926289857
-1.981270236824179,-0.5001333761461036,2.089470889467244,-2.930765229834389,1.1979503675938596,-7.121227010190677,2.818371654102295,0.8114832147657147,3.152596059663582,6.38992768141798,-1.331685216758817,-0.8889767286990647,4.47329123841285,-11.984454484061413
-3.941325667533361,-1.2997233870649878,-0.9937311944181612,-5.576340343292433,2.945694380595582,-5.302467605237378,1.687739210291625,0.7104012722711702,3.320594690474322,2.926491617443524,-3.5864869536161903,-2.5623432340015744,0.8353080670610555,-11.80629956925271
-5.416588627348032,-1.9579588900286289,-3.152750452131399,-8.538064802304143,3.3856068586479884,-3.8762871313325618,0.8120305032456318,0.0710415963234446,2.6201364017413784,1.3115155848577875,-4.458705855394785,-3.99835918053415,-2.0444195540166783,-11.09116476019178
-6.074580143600901,-2.585093149507101,-4.391323937006999,-11.640354224116887,2.07936549168231,-0.5831395461529909,-1.0330851219535415,-0.2424947462206721,1.228717112278085,1.3315832902046827,-2.6989340680271674,-3.822838751619429,-4.160180824631671,-7.040677916793125
-6.248434152173652,-2.327112686162464,-5.386922812062132,-12.357633669277256,-0.1030928868392463,1.3165507221556587,-2.473622607276625,-0.1694059567599112,-0.479075510647995,1.5870529749205669,-2.478939164817843,-5.152137687455022,-5.710338488235058,-6.322206714373285
-5.754586196503628,-1.060142297472481,-5.626690745450123,-10.415773569800184,-1.5670028534317428,-0.3243220506036132,-2.5326935616957504,-0.32656570562636,-2.068996293335505,0.8026543025564541,-3.644406953165261,-8.081620266385233,-6.911126125785057,-9.789432099058288
-3.4564085933334594,0.9839069976959396,-5.954206925169217,-8.2926329191997,-1.2363452364404672,-0.6502949319331572,-3.3000527687841226,0.0502428166296646,-3.0791850282178617,-1.018312820921678,-4.323024871084908,-9.278355884066707,-7.752189551785414,-10.639878994334312
0.789557859035142,4.086494556393245,-6.3541654029871575,-5.369820999897491,0.5540861740885036,-2.2733972284949027,-3.7272229514628736,0.4885422492543322,-3.122921300276707,-2.517245088696355,-5.347752658854637,-9.26532925600162,-7.877390988860235,-10.403281942449564
2.125014547041509,4.123887897545717,-5.819311124215289,-4.565693569064991,2.335196876344143,-3.20058566070595,-3.51920027195197,0.7159914653159394,-2.127241631597027,-2.0886711597216285,-4.935109216694994,-8.662024365006861,-6.816701161468782,-10.077777871398846
0.4592447459989467,0.7727432916328524,-4.450467476771617,-6.510965553261843,2.7666608747987445,-0.5987589086580152,-4.406126391748564,0.7108303823215791,-0.4880526289192408,0.6536277287411205,-2.8438596319656737,-6.899196070034426,-4.507061253711478,-8.768138118003703
-2.147394336668241,-3.229149137597896,-3.4192986713851603,-7.722517052199405,1.7683169388652096,1.0524184784407862,-4.9911814851251926,-0.5731605054440538,1.1068153444467508,4.245637549445046,-1.5203035766604476,-5.928726582995445,-1.676543657388643,-7.900128291406768
-6.891863278533297,-8.929128875348745,-2.620432481935352,-8.99238273780658,0.4728522055424276,3.531866915031797,-4.865535105302611,-2.448445683551492,2.099824157367438,6.207345583779857,-0.6162879609905173,-5.824835221571111,0.337679499953448,-7.460506484693479
-10.337855853600422,-12.58529412640558,-4.142689344879367,-10.052676563660649,0.0546317459336982,5.604853032675686,-5.42466381059769,-3.215214642199541,2.3329331055850617,4.808625079030208,-2.098078699178412,-7.058385163933068,0.3162431449401905,-9.25032001334814
-12.24009173350274,-13.65609674979354,-8.4745429506304,-10.378725859045089,0.5835762353401952,4.666029857219041,-5.447104073851883,-2.1107728533356203,1.903329852371925,0.3902478922677543,-6.645169463392167,-10.241949962789,-2.091216116304795,-13.806483389063835
-15.2649279130447,-15.811235779128282,-11.631129253627003,-10.386960667142525,1.028922391243489,4.18022719380212,-4.712189495961598,0.4949535380848139,0.8214640686728363,-4.864628121665389,-10.35458435663186,-13.595134132522071,-6.160457223961476,-18.198530480228616
-18.63729237876799,-18.117269292856328,-14.062431724213116,-9.782235189750065,0.388967242439469,3.04172083461856,-4.675687119463086,3.424808162626648,-1.0547218449849796,-8.54838323236225,-13.748107371564515,-17.41965189559298,-10.55867383662034,-22.936052788486084
-20.313586157144,-19.096116847175274,-14.878749211958594,-8.452145683543074,-1.2145574116594589,1.6648674129492822,-4.584040799711428,4.245946221374189,-3.6569444232597887,-9.69551738902371,-15.253502391589372,-18.30024073211765,-14.094757780590935,-24.897568884418178
-20.37866742926032,-19.06856802631956,-13.148921139243308,-6.309562560780598,-2.6083500925681373,1.4809388312510925,-4.335060727249816,2.2547177868579507,-6.331568337608663,-9.1494479637566,-13.942080549676856,-15.585798497886966,-16.233128265946668,-23.25442930200173
-20.052299256318904,-18.919201188080955,-13.558855319983357,-5.32562337294999,-2.7523621595789947,0.3805882420135189,-4.736642712615177,-0.1529836890208646,-8.018033347938404,-8.474547845155412,-13.360245805341632,-12.421843695071294,-17.135482467197114,-24.630092711473036
-18.89906703452532,-18.46413619111017,-15.83073626302136,-5.608394910089945,-1.841470424574834,-0.8270056924212777,-4.937980040332604,-2.071129782588093,-8.01260368402604,-8.522057203018905,-12.925992616895863,-7.815897846991586,-17.352934601763405,-28.380846231872354
-16.944944933937023,-17.181172140714935,-14.836155978144983,-4.275546053771835,-1.179589643989413,-1.487794883198703,-4.66920237277898,-2.301430905435885,-6.657509665462946,-8.921856634464065,-11.67308393122116,-5.119651433858186,-17.426336820020392,-28.0559634930662
-14.290609413188514,-15.17477406207968,-11.161459394871043,-1.6413884336374551,-1.886298231107412,-1.7925370714379711,-4.6611746108317895,-0.7129408812559516,-5.212279718308255,-8.765641747428573,-10.123008081681704,-4.965163495693995,-17.566478690174133,-24.445652596987998
-10.167934977687592,-10.663833846494772,-5.162895696758526,2.374602528121894,-3.6653383276032394,-1.3966516367731765,-4.768992535877279,0.389385349531051,-4.873611259723116,-7.639686995912132,-8.10889930255189,-3.6151488029034793,-17.49612850014119,-16.190742498981873
-4.542539189267883,-3.3695404357751944,4.240959428243409,8.405654473692946,-4.844347855723895,-0.8171495628139318,-4.577734001100971,1.024780809052482,-5.761363211075792,-6.002819430063084,-5.612974549081211,-1.94069134599195,-16.543457851305618,-1.761455074880757
-1.1790437318460942,1.1196335514046756,7.9358567036875325,11.215463407878044,-3.716717644777281,-0.3304904339014201,-4.740937280390456,0.9226643872841824,-6.816815050991121,-4.696838458706525,-4.451610311906685,-1.1145309956228957,-14.053938259403193,4.459926048335957
-0.2343283480401726,2.8826882345588007,5.47344116020134,10.634347123241506,-0.0086574733191309,-0.0533682869025509,-5.600477606450019,-0.173794089526905,-6.768303715554982,-4.207408470089304,-4.778770044846619,-0.7340738939010266,-9.99280221628228,2.210711790753797
1.7772881121893425,4.690565484578767,4.177933950140082,10.907078777932252,4.800754818429274,0.1564993589618993,-6.215974537013999,-0.9186451042515584,-5.326079942856175,-4.383569294140053,-4.278094468750385,-1.296702874975173,-5.331971546452138,-0.2559634133747371
4.069837165021592,5.3174818491363895,2.038569248388758,10.932916243378116,8.525731082663558,0.7404901129161011,-7.07420930900605,-1.8454875136528155,-3.517167077494438,-4.754511499421716,-3.308070949498465,-2.9933013328444464,-1.7757571998775017,-6.207659213412755
5.046686161883452,5.754713011279666,1.6053721728673744,10.889882541253035,9.735978667465332,1.2297536764647394,-6.97451054293244,-2.153077824248528,-2.831722519183291,-5.034740261148665,-2.726557099353257,-3.0651204622339727,-0.7934863156548051,-7.471505207804359
5.066565339029521,6.186723326953172,4.029558623985532,11.352365178252558,8.460279034221488,1.3025504208577898,-3.925328076902451,-0.820444910576164,-3.924260295859094,-5.353672724794679,-2.1831088332456323,-1.4581788765015993,-2.558027200002304,-2.7649891097245427
2.881228122825222,5.150553972126875,3.1896056134382644,8.953496855169158,5.7709995509037615,1.460640304305618,0.0446746814173458,0.126568391435571,-6.001636762910371,-6.069619571480391,-2.571975427713179,-0.7896164583986405,-5.655285482707651,-0.9214636844887384
-1.9175996753408977,2.8227265846441103,-0.2646209220920223,3.673656181080424,2.862570519220732,1.4199702593661978,4.780798367294979,1.2601572768318965,-7.393940914765807,-7.345619651003471,-4.042654960284738,-0.5323340319187198,-7.952139615681576,0.0254063076852932
-4.411876271444127,1.1940203876779112,-2.2815868573831395,0.4775410042474809,0.4673978798026894,1.398015324695101,8.275518194980842,1.959079053119368,-6.775401997200737,-8.789847853337918,-4.112321472901651,-0.6107980625625778,-8.067290069867497,0.3132929834342642
-4.662157976960055,0.1678063432934955,-3.7391942040062713,-1.053792770421369,-1.119237381176866,1.8989234428074824,8.389996805754635,1.0123605617589284,-4.032260679596629,-9.44181198352916,-2.845604687201131,-1.4488524998655343,-6.29770574183603,-1.3327133785340282
-5.039027500610911,-1.687023398637253,-4.035433789376066,-1.9713303422653767,-1.7861949556873036,2.3343989329161934,7.952270111445421,1.0132624833929107,-0.2019878716250041,-8.240507224173115,-0.9459246872183166,-0.2562407971015629,-4.224898712157874,-1.0011571594187871
-4.459141727328506,-4.005883326599422,-2.44173326611781,-1.2293247578725364,-1.5746350111888638,2.7390799530334315,6.755733232333875,1.3091782722231806,3.2765857558972677,-4.80638660554208,2.167594305396939,3.057961670226147,-3.327953288672971,1.140625122341723
-4.315896932852772,-4.801168211169293,-2.438647870375442,-2.2680650001336717,-0.8594532381072781,2.6645683488983773,5.409455094293977,0.994863102093293,5.348415257550116,-0.0241542936692198,3.28805981135317,4.09913867151657,-3.7991842583342006,1.6596981402687752
-4.803143341751405,-4.066563391630639,-3.840285756209799,-5.159561416139486,-0.3652567133071596,1.6549385358815478,4.276141212142383,0.5141215012648103,5.719276045532551,4.142858656903151,2.21622631323784,3.2306301795671515,-4.5719545880149575,1.1467054730998305
-5.752560331954151,-3.2936013806061037,-6.348676271760053,-8.414117180172147,-0.7774090135527167,0.496198087099802,1.8877707770991337,-0.7669237405904519,4.816044224929961,5.715805525941036,0.1826473672152377,-0.6978456088420172,-4.4670014793175845,-1.6750993063462645
-7.598723416711454,-2.0574441769396152,-10.770729415886136,-12.83717204354346,-2.181753540073064,-1.1726279809631894,-1.0452371969890633,-2.263817378583519,3.5146058271129874,4.028703698627979,-3.673218641975859,-8.827006124929083,-3.352055114078663,-7.571714203808855
-7.437324187878297,-1.6745532778150796,-11.767196920615032,-13.516860530080791,-3.8392965661977296,-1.7418310708352114,-2.5056515764478515,-2.5122354380752454,2.7460673613755464,0.3454509499553513,-4.660054262268141,-10.964512646611832,-2.2318317587404604,-8.658645462911082
-5.178934176561076,-2.456570462377443,-9.15650744421552,-9.992067666095776,-4.584868614612564,-0.1509807079168926,-0.7081315364680795,-1.2264388391211456,3.0465638814677964,-2.810668858312844,-2.449475796100716,-7.018052567793342,-2.2076561140849726,-4.892462657867424
-1.1158057050217354,-1.8396618764366932,-4.557640816736274,-5.40259018406287,-3.631920728163073,1.4141970227768332,2.3375332763072416,0.2209240144152491,4.237602032848369,-3.265133555729249,0.1032258803639936,-0.7709490135114339,-3.299979634809477,0.8537310709583326
5.568335051803759,-0.0877026850097542,3.4281133650296445,1.533261462312956,-1.2127686845471608,3.983551039475425,6.314530034261858,1.5769203993397476,5.494994061331342,-0.6533309690462801,4.168873562305095,10.248901462581932,-4.244960628022652,10.48719360169078
8.641033525764461,1.312126311581303,7.638543617183055,4.418028934658684,1.4438225435260357,5.068666548481291,8.774509632226465,1.953875292834756,5.861757836361456,3.31177373985596,6.005339055088342,14.446486740268496,-3.4802602510402405,14.3137220021167
7.848389921366405,2.7616741513671785,7.688010819469185,2.463961267095799,2.850823474681782,2.2226385994224134,6.720987201069758,1.0609467728507256,4.900385595539465,6.009281284347736,5.108722731248294,10.980370612191123,-0.4671626841131537,11.618665548746128
7.012572847674482,3.656544239817239,7.898216353006498,1.6732454810265744,2.256158519202536,-0.5083352067680316,4.287811163100998,0.3009523232270347,3.018327912992831,5.754620544882622,4.7535756425625335,8.21028844161048,3.787587975045316,9.30107353108579
4.670074166090789,3.734070254118195,6.547710869861401,0.4773798075809946,0.1824772512668495,-4.4545864134687685,1.367995645811548,-0.5314901569213596,1.2203829067077567,3.0365420871416777,3.992871573246848,3.3754075516600546,7.4409214052011805,5.029714181407305
3.950396619029384,3.4974559620652634,6.284869508277905,0.2463331634708431,-1.946465831335676,-7.71977786708735,-1.3489402252392146,-1.0207302153563973,0.456175531981053,0.2171778842294891,3.567680142105365,1.9053682861624284,9.141757062865436,3.467932469911398
5.402316396443085,2.6974991598140967,7.596009432813852,1.8753402027358756,-2.891866842071714,-6.666273503759494,-1.0358382083424975,-0.8378975984285161,1.0028846573212462,-0.181065329767776,3.910263567966605,5.0926255231361495,8.89117824411608,5.670088713691621
5.889790315581386,1.9721779576692788,7.704788577415509,2.0829545312356994,-2.573908948193207,-6.072048707667718,-1.0209382259140525,-0.7609532146459231,2.2829250924362867,2.593412712601875,4.2295387035905,6.4233061142584695,7.800356392502991,6.561086941168917
6.214246765689624,1.3742166112206329,7.267102569065263,1.3544414347667468,-2.093955456847258,-5.224613373080884,-1.5198975932374346,-0.3926743642176721,3.2427274843235345,6.855707757963179,4.855092791276923,7.361350960115621,7.056435607590544,7.421805759871745
5.4806775899424265,0.6926244661664476,5.534628187273856,0.6518036910654774,-2.703943446622935,-3.252988155363074,-1.209443666632755,0.2930288234743395,3.0735034349591377,9.708408077795822,4.736047124676136,7.405494207868793,7.021775577790329,7.200416355113868
3.1988845992825,0.1033940631466655,2.047371338418797,-0.5292129496107447,-4.580272470768209,-3.566415458653059,-1.6236738606888412,0.6344548042030679,1.8089703792846343,9.300026670657218,3.750006697693497,5.569851587867337,7.180125890301502,5.142921103468013
0.8439553521700676,-0.599046638019919,-0.9627136915673428,-1.5756610599098415,-6.535395044479285,-3.450189779859925,-1.9415284465806777,0.6638364849795718,0.3491895512084841,6.3174125331801445,1.3989084624200894,4.086217192693201,6.849071251371475,3.0485157512336785
-1.9262481151758333,-1.3922903569228189,-3.708147918896673,-2.4196513529800057,-7.018029978227382,-1.7777617300992987,-1.208852178035274,0.609858847981497,-0.1803729107114016,3.4042928893815905,-2.71817771071922,2.548648928160543,5.921555537246771,0.4359993955505236
-2.3576336987285607,-1.1140676977923485,-4.083762263999683,-3.013006955423337,-5.547453527161174,-1.9396292678104488,-0.9090586947797078,0.1068212841108264,0.7001147875549236,2.8842349857440066,-4.768356740966807,1.402915542986738,4.956594739067759,-0.4551792659220389
0.0297090227732568,0.3184193827320713,-1.3886473914023514,-3.163169129181844,-3.2459889999546725,-2.432339260406124,-0.906403097541968,-0.5393915446649733,2.4091645311512835,4.68477095386319,-4.731220848189328,1.0445714408569564,4.600903875626432,0.8014588531406469
1.6026960298443174,0.9956212305338964,-0.5153930981447065,-4.364255765012315,-1.9149550337842705,-2.138898672869463,-0.2740446216938982,-0.6417529005264992,3.713285634103976,6.321679246057887,-4.380290183043523,0.3900291006506787,4.942262276140431,1.644981199749192
3.018510206890366,1.095528465415783,-0.9866296317622616,-6.643588169690194,-2.4595976538762088,-3.78869400861454,0.0106404934757058,-1.163657315008004,3.652798187937336,5.088498358940536,-2.8288899137987844,-0.3401793204610245,5.410514561774255,2.661579597162586
4.406435790230713,2.0635954531531318,0.0987898547050761,-6.202969016167072,-4.096712955576631,-3.9728476647020767,0.7671500201405833,-1.269714910193585,2.2436109143878475,0.6202850794957637,-1.0104144134132893,-0.2782289207737513,5.302079408955082,4.543723611419711
5.156733750148419,3.6178493329366135,1.97046297148004,-3.077620576652379,-5.04800311235147,-1.6371766572903104,2.742784830302,-0.3370762364343729,0.4263178108745009,-4.452424576781681,0.9878093421928664,0.5049776881452089,4.456158151089076,6.997688240612613
8.171350862447866,6.401932259197241,5.95810021978271,1.60627804202189,-4.044067789260563,-0.3902121049064583,4.744102544058852,-0.0167811481014595,-0.6278965939137997,-6.454771895960889,4.787952723705781,2.164034224986073,3.53035744048708,11.40439459196351
13.46775968874876,10.735254709025366,12.595598584064126,8.777750946698031,-1.276454037618656,2.3930928300579595,7.273670397594976,0.7780989554518932,-0.2833946384946237,-3.62769715794396,10.285933033940958,4.9281888606109785,3.681808354670114,17.95982750219783
15.730850185634184,12.372607463918776,14.795590349992564,11.8909003300644,1.9409553011315523,4.676209839399896,8.283126955882013,1.281347935119152,1.22625779559867,2.4292038287967177,13.766717481825332,6.578887060325199,5.873025310031185,20.89267291224873
15.21012661041204,11.226917544437246,12.47091956339255,10.484021672204966,4.309547030975509,3.928045567065551,6.638098830242681,0.5660207104258389,3.006283857917861,8.044815801021828,15.239934373624852,7.058655909792782,10.197049868634736,20.094819623456107
14.54701229555796,10.764902993087398,11.603192270545565,10.34577827874021,5.382911162488536,4.021372953294054,4.468042828782267,1.0826018427800752,4.045287912992215,10.318227763287569,16.457627187516465,7.873068895674536,15.571801371735768,19.519755161724856
12.664357352378891,10.116649888200898,10.793280166854066,10.01375024308236,5.506910742734213,3.459283925195587,0.7243038919151572,1.6051725888461998,3.806376024736771,9.065478428732789,16.557898519305294,8.532036788087922,20.021072651735413,17.9015614144793
11.265611990957792,9.752045811968566,9.844946403718978,9.40943697986641,5.207220183147619,2.5908253395518104,-0.9383606754951328,1.4509103328529978,2.584820279226306,6.380384498440296,15.315219657909608,8.536077734407371,21.53879928515679,15.745684554570316
10.664799135056729,10.192541648633258,9.615262650027914,9.29453650297974,4.753580221937941,3.556720407599353,0.5714264909436446,1.269634986749742,1.381829335424836,4.519797777320349,12.707111688001891,7.974289353533507,19.18677600107513,13.487067001564355
7.6239512079943,8.700969218051297,6.122807594772865,6.384119361547148,4.206910793520335,3.8589322107532658,1.4825551206604874,-0.3012050104727649,1.2368004772893322,4.162695001499404,8.794261045851572,5.932397007060239,13.768837202222034,8.308159884124219
2.417546871191881,5.384886339878212,-0.6728668138412862,0.6851750272605234,3.651918511218572,3.96862435367985,4.287726417611712,-1.8000202407908996,2.381691149214188,4.419733156619408,3.467132543372105,2.204341947793331,7.511449162792811,0.2506750132102797
-0.4305359711238653,3.3738830528743025,-3.288624771575012,-1.615457466999728,3.22519482462831,4.091701497500657,4.9946622124224005,-1.9105422392728943,3.902586448508115,4.151325292987073,0.8104930491553889,-0.0865043007966527,2.7995499828487738,-3.5967578483213662
-1.1926707834125474,2.307003156246011,-2.055585536840258,-0.7641291963188627,2.9431080792066915,3.209468089831385,2.580387312306312,-1.4149738930856746,4.34491115745441,3.0695299167303998,1.1983249576171566,-0.9887413602334768,0.7743830861998742,-3.2516843166690914
-1.0160267843470194,1.018436721015578,-0.5732722599863932,0.6046365576687912,2.6297917449857326,2.3500339961409327,1.6802791156168535,-0.6735671676936712,2.9000487701871585,1.6696102499257195,0.8687883850302958,-0.5594056941734639,0.8111049777259591,-2.467687114683272
1.1086115289954286,0.0658544846972308,2.6978833767268164,3.816348758163618,2.093578685811241,1.250530865063049,-1.4655582158996503,-0.8767172376181009,0.1658986316587984,0.4280978208198114,0.7896662537535316,2.0352762424055806,1.2606075291374772,0.3508134173903628
1.5843624671279006,-1.1138194063384794,3.559759419443853,4.740331741829087,1.3497260455333535,0.5817446823663484,-2.8527045034611778,-1.5396622195172855,-2.2740853008452757,-0.6477397000880991,0.8755847125962489,3.1941351402529685,0.8318072958340714,1.068355620603564
0.2820022722790988,-2.6043733598255194,1.432558281071,2.9564541681466188,0.6164251459775638,0.6825323436203362,-1.065870748217299,-1.192719837113412,-3.1462527696164013,-1.676028165503323,0.6308360660943543,3.00377809481873,-0.5178989180545468,-0.8852888235341182
-0.9912324557438906,-3.2122736472088897,0.4917884337447739,1.4040408481146402,0.0950933160656268,0.630195834456212,-1.3107268063010742,-0.0099673155358581,-2.478267050695941,-2.3549991698774253,1.1276017834693175,1.4581700383672898,-1.8454289491684577,-1.9884809983509737
-3.086368895095939,-2.9948778003765693,-0.271177840813386,-0.952627418947416,-0.1929639271170398,1.1821139830986511,0.8220197302611357,2.720631466544653,-1.3638428910772435,-2.024948648099268,2.214075293880742,-2.3665375353004303,-2.2707826609988704,-3.2915272248700616
-4.423714158112732,-2.91779149354466,-1.2323027255367154,-2.1251539641655,-0.3260581480596212,1.392590413100558,1.7173715829138358,4.312207243509538,-0.787578216554746,-0.3745502654305443,1.7884612798120294,-4.4408568740822805,-1.7946819314574292,-4.306613088421109
-4.824625913430025,-2.781905902572134,-1.859995747677392,-1.6937284133741897,-0.2767575193810598,1.13692994782362,-0.9421088994140444,2.5387970318424373,-0.7437088177281934,1.970785423791947,-0.1739647315167886,-4.874638407060655,-1.180743717274023,-4.62013315992194
-5.143687063139579,-2.792386954429418,-2.4375516496189285,-0.7123159424973001,0.1519013275630794,1.5397701042923864,-1.446364691406612,0.0567229186900509,-0.5501352824188706,3.667769062033383,-1.5937832302420802,-5.019907920911021,-1.1422403710157862,-4.386589529936236
-4.962647035963217,-3.1305125414415667,-2.842889685999538,1.460599178918431,1.1503715702948725,1.5201589159261062,-3.920242730863562,-3.666692738829414,0.0529877739985593,3.560000556054277,-2.8680892111028835,-3.989759860677997,-1.7052044682484144,-3.297359910863957
-5.223931706062306,-3.540923772727841,-3.0207774133623557,2.1284859335950874,2.6458869596789008,1.3225511804364891,-5.94469859904741,-5.466791466911396,0.331788585017307,1.499150147919842,-3.549214481429094,-3.886133672158529,-2.3427811380372106,-3.1634867842746
-6.017698419227738,-4.149163259792953,-2.950980660490789,1.1030898925464832,4.195415558336944,1.0475580171831298,-4.216981914421333,-2.7617760678305934,-0.7084594422681807,-1.549476240515542,-3.234926834073326,-4.804168306927448,-2.626043478937424,-4.019714298571571
