AF3,F7,F3,FC5,T7,P7,O1,O2,P8,T8,FC6,F4,F8,AF4
-4.8749923531915815,-4.828525691856231,-0.0344152329607468,-10.26264737077642,-7.331980682203229,-2.4312059803752133,-1.838705948761904,-3.985771940666551,-5.81092384687174,-15.566710371923357,-8.533462525299647,-5.432644570748898,-8.073851713236552,-2.734778859726901
-2.2477287490808338,-2.526530830099954,1.2824110308620504,-3.923984301816686,-6.845540077746912,-1.6639926122592956,-2.4699379733889537,-4.999780771102532,-3.850171921715826,-11.9473175739844,-1.2212948508357144,-3.20511180963371,-7.306161159889414,-3.2734129394088924
2.89458094542671,2.3736502533943167,2.768907767179458,8.735455349849984,-5.426297151590666,-0.1946314594204445,-1.4634377191397654,-3.141694107635402,-0.0694282343485488,-4.5237741453080975,4.140944916195807,0.3421713592316604,-4.623402329574819,-3.533227635092763
6.808132774510311,6.315071314754817,4.048152500313683,12.91734107209563,-3.9363813974567674,0.7876775989782503,0.2666058544800296,0.519850999771192,2.4997628182419147,2.170486320654049,3.746101972350216,3.5118124836911964,-1.813996938244065,-2.655824208469552
4.625309239091082,4.325734334306865,5.071010227937152,8.304737440781116,-3.152381683020905,-1.5924517143045454,1.3105092821918962,3.529415082530158,1.8456957994484615,4.531440024775637,-2.216327383091713,4.935387348543142,-1.0644274901695523,0.1004442853441039
1.7215451482070132,0.2099775904634367,5.350429985386006,2.0830289483960898,-3.4075089643462477,-3.903104867591464,0.5478507799446564,3.9879397994401047,-1.4748361194833466,2.2801527838928197,-9.533401178130646,4.462218536165208,-2.9087178918554173,0.3332367767878187
-2.8064953899687306,-4.369558004254026,4.700858882901441,-9.24541028858402,-4.511346102581813,-6.646957429277894,-2.224348649319757,1.7781490092165422,-4.945167760941654,-1.7993208558449774,-13.04351096427458,3.020975462996144,-5.588029818195702,2.1246765500193785
-6.58444536604067,-5.992509703835178,4.45678473038156,-11.47704405437898,-5.836871711660638,-7.874995618484591,-6.037423348973418,-1.6944196982427604,-6.306675547816407,-4.313676171635471,-10.32625691307106,1.715716527133695,-6.385363176676677,3.884962187034185
-4.248422634744249,-1.6951294312802156,4.510748726848467,-3.14207961728227,-6.494511990581413,-5.517434818299716,-9.055911108628305,-4.639656609760626,-5.401549652051989,-3.7834368809524426,-3.1332604411607825,1.0210817344916392,-3.785492654010399,2.286089689666168
-0.3381371180514236,3.1456694500774462,5.107456030799674,4.143979549043063,-5.665801569075638,-2.874935040876911,-9.464636821305357,-5.840546220622701,-3.9990076304735855,-1.3031264984051534,4.2804422498716175,0.7101956083265666,1.3309535282728788,3.0190731368512504
4.219918497015915,6.578262465853447,6.576909782935604,13.85034854957471,-3.110845280584253,1.3038797116489256,-6.5641041568768,-4.971597390489743,-3.833536091232288,0.8800244016076406,8.265821860841683,0.3941930881327904,6.346785087063759,1.621149536657435
6.982995926851928,6.183984481894435,6.577813005904536,14.94515627825358,0.4508672457310538,3.833224004958286,-1.3615372440804665,-2.523767771051505,-4.772714079764972,1.3907473730385318,7.8736178263432866,0.029521036593159,8.769688404301773,-1.3601207250813745
4.1804578479905965,1.295414736733459,5.121138491703837,5.078210743917977,3.5479910911825794,3.306947660471671,3.903425203421676,0.376260102247786,-4.921925075804969,0.6059406672407386,4.741711379951017,-0.0940339160874308,7.810859481103552,-1.3181130697044232
-0.3901679798754297,-1.9919883021479985,3.339107795325872,-3.61609098535005,4.842122663035344,3.977702102304438,7.147724612740718,2.344586034467181,-2.612328458949875,-0.1220598705700997,1.4460670692666229,0.2166996739904343,4.624266174248477,-2.773004635993229
-4.607086015348466,-4.16277898482384,0.7124154458385556,-14.166582350810522,4.095492027349121,3.078238022817468,7.830853095917098,2.4500412499436925,1.6466036543133558,0.0886853230699862,-0.1989729809452733,0.7179092986092797,1.2782078239162211,-2.795695880595851
-5.759157644843056,-4.124134799536382,-0.8380801341852917,-17.55441941819613,2.3635509535031645,3.244122726568304,7.278545914915386,0.9140098411755692,5.218539471837911,0.9368946430677618,0.0894726882164798,0.854585839482084,-0.6336455669171248,-0.7462466943110979
-2.51559206449435,-1.267372345378508,-1.0924797008669087,-11.280276518656372,1.145217205802154,6.187263298323019,7.603716646492238,-0.8842385570305461,5.494717919630234,1.4656354744624995,1.2949648705007235,0.2512481802761879,-0.8077643428032695,-0.2649681407160423
0.6857447671456158,-1.4577480211733524,-2.6556689456583125,-6.262724932721865,1.197696860944072,7.425935415468597,9.973193208461424,-1.357023367610942,2.230764931126313,1.1280047170714018,1.9433484715046072,-0.8876175974312384,-0.1051903052996365,0.9786989113112492
2.5365232708117107,-1.660977339654251,-5.154991898694243,0.1924009183393056,2.083971767357844,9.917077756830189,13.558114112149388,0.0469549136198175,-2.082261225730841,0.313057928365009,1.1217397352600944,-1.855029800428767,0.2470719625339241,2.1120678029662177
2.317950813747073,-0.7809159076732078,-6.350194581848371,3.498668455558193,2.8234773879014825,11.26482881939896,16.053354345180153,2.400278886571201,-4.177419111329804,-0.0831882689084215,-0.8051400400239381,-1.9803986996764795,-0.4684286331409368,1.9078066950435355
0.3257926728931208,-0.7534821141213567,-6.519314683027487,1.770300131016261,2.9296094603136065,8.704051885305173,15.430704696795985,4.115985875451514,-2.5778766259208266,0.4660364652299344,-2.3235971019334327,-1.2060929387198764,-2.043151461961088,2.071021969678346
-0.5546165748218703,1.7910990438243146,-5.099170039014641,1.2469980220455896,2.7671764489852064,6.715439007950313,11.55116502346386,4.310426758745765,1.4097036931509177,1.6207655885477816,-1.929222583972205,-0.1946527556645747,-3.5791867895217986,0.3436589764267443
-0.5686960176398779,3.627475326446064,-1.5443046355834154,0.3318605190366992,2.929742928535904,3.0826249854648635,6.304981610303296,3.4517153071020363,4.948361696220754,2.441936882695476,0.3743987790601273,0.1937776190192164,-4.156030966562436,-2.686026299407743
-0.1651447228793725,2.597254655225377,-0.077749498671927,-0.1840008799748097,3.398337634573221,-0.2502135574194922,2.127934904693746,2.7174316044771323,5.89852634441064,2.138582459755484,2.568456598815533,-0.3312669270756134,-3.460100382484086,-3.5786855688945907
0.3928341794486794,1.3000314677477618,-0.6777805022766937,0.5350380237445219,3.466093544153084,-0.4739029825776077,0.1210600432710713,2.7473130640250805,4.135129872096647,0.6829535270541234,1.9346158565847575,-1.1550906683532898,-1.980045657835012,-2.5568575963379523
0.1581403470599482,-0.3813895701523442,-1.3478603639856326,1.7528640117594798,2.5544703603531618,-1.661148616621959,-0.6227884448798275,3.051485050370967,1.1506903876196155,-1.143238181477371,-2.541009351573816,-1.2359700290412796,-0.6762142322001683,0.2823466611298759
0.1776752280058843,-0.8970066624362643,-3.03055599728066,4.018927299041975,1.0380439695743529,-2.4258209370079444,-1.908517144676708,2.6475952136612304,-1.311876924699031,-2.270769874405631,-8.700027206765995,-0.0622132811839843,-0.3437257062440819,3.86994066178214
0.4205895127353253,0.3483721900701972,-3.438847468998524,4.938748913922013,0.1260215297276045,-2.384830687870228,-4.550080556802477,1.2360803104560705,-2.288863374909909,-2.047725517360222,-12.289977114495972,1.7547577363903386,-1.0491846184067375,4.521166105312069
-0.1488535084759082,1.092487131391643,-2.313407325757208,4.411016879610018,0.8090187420723773,-2.495334847192633,-7.427897092244361,-0.3238262566992587,-1.6815022109414564,-0.6368988086147542,-10.11072264715682,2.852553694778832,-2.002743287705345,1.4901072859589872
-0.0708514458333521,0.8225023701961037,-1.170450505752714,3.132068300777515,2.864821202653697,-1.3948937799187324,-8.385374804287103,-0.7542418590246447,0.186180810930761,1.155573272114112,-2.7472118168552253,2.205524523385572,-2.0329362118263514,-0.8582525849827051
-0.3163886574815722,-0.3347933941197889,0.5805491128592443,0.4688562821237726,4.8997897922655405,0.2831483634361432,-6.199807398112748,0.4161591888612337,2.8250752210750805,2.464825650155255,5.549853045144131,-0.0047794093976158,-0.4662802871618927,-2.131052990276172
-1.1284170780806555,-1.6765268501191064,1.2323396640041926,-0.633824249537643,5.4074931072723365,1.1393621249579624,-1.8740147418713688,2.362247677155424,5.477822959283726,2.904681120081266,9.965791803862317,-2.5147108451870546,2.1851531161590207,-2.4888359779551354
-0.7420688054430234,-2.083865835434874,0.5322615155885564,-0.0430825532747066,3.881634847082078,0.0587103730235392,1.9296995006181372,3.669394178452535,7.080062099986623,2.6636426206865917,8.7079907252716,-3.993870759724154,4.370482362117471,-0.8714069157606222
-0.5727929434979292,-2.130308558718076,-0.4126600234121422,-0.3438482041331872,1.056630373720984,-1.630748825806481,2.8779750741578365,3.506889407047542,6.676211323293828,2.160552710560802,4.065369067076443,-4.058507244842236,4.564774540718816,-0.7197329792924853
-0.1800529766591758,-2.6828133995327983,-2.084699159600993,-0.9288117884253854,-1.747375903075242,-3.346397260580781,0.7314890352146737,2.1451614443895344,4.10230343197377,1.632192339919886,0.1274652141790122,-3.4211937602835683,2.4906017559720093,-1.5696516754528242
0.6949350004886725,-2.7816754260114145,-2.3457656925136585,-0.7452806133068934,-3.4322578966887582,-4.580065312796879,-2.53799708540264,0.4593231216589819,0.3197624965890009,1.0269515768034538,-0.6972381259579841,-3.105086069330292,-0.5701699711951855,-1.052903237759887
0.8081147204667332,-1.7185618265237117,-0.951680833760856,-0.0580992277872233,-3.4570868721221384,-3.547800341876071,-4.313230848588709,-0.9001052941302619,-3.0164747047671945,0.2364506932538772,0.7428406050140435,-3.4582897027671287,-2.738800542268889,0.0109148532907546
0.4007150808814726,0.1419005704437232,0.2338332605648616,1.404655903069139,-1.7915574124252291,-1.9407311125149205,-3.2768092878478363,-1.7922895941128194,-4.53277589264602,-0.6386039003177717,1.8617019102349837,-3.830808282427277,-2.977886344675181,1.0663607179226973
-0.6164012184862911,3.791681395601902,1.7362571498706922,3.84338913232294,1.055948652287113,-0.5502912678195945,-0.2320437952238974,-2.217593072501071,-3.965018108716336,-1.2876486574574613,1.1917763678071374,-3.168582438289064,-1.7471653918065044,2.031080313804763
-1.1717851049454988,6.363525954332407,2.292778544169453,4.012846753738317,3.898702154582307,0.5942272094289177,2.708617173618521,-1.961608355543279,-2.245568474176719,-1.4488889624277044,-0.3022159615446769,-0.9997420787092568,-0.3798918529673587,1.7889406752869776
-0.2869829259347933,5.455902945649518,1.561132575956774,1.7574428910575657,5.155016932228604,0.1586077963871227,3.784082959526524,-0.7977462708525218,-0.7860690300321667,-1.143119048904175,-0.5951606149128876,2.023140760118712,0.1103216273846166,0.7358307229431842
1.5759229264127663,3.694496247180017,1.431685656424621,-0.1926608471507312,3.8700226565346254,-0.6747637244551731,2.7636177249434466,1.0186547369416588,-0.4454210863815482,-0.6320465442048138,0.9793397087021418,4.485883409344559,-0.3233750890317632,1.0120946091920024
4.418162724408006,0.1501135412683608,1.5734670601671532,-2.5470197365554075,0.798265308073326,-1.294878840188995,0.8540840337489626,2.701652759208613,-0.9002895801343547,-0.1491275879450027,2.896637426061518,5.213329769666415,-1.0424915282476248,1.3327982170835428
5.491826715623594,-3.2357504207674723,1.421979391724934,-3.4530762264360044,-1.7182960501739053,-2.10948929034003,-0.3889028475902383,3.5707830612869538,-0.9135964578858696,0.3002447697989472,3.0691609709317405,4.1235621326242295,-1.373100948368236,0.91365081009909
3.2646774970192154,-3.016897451890842,1.2453032076414274,-2.3655304297010367,-1.515639894061234,-2.532646654324654,-0.1789158988901313,3.7272180734436495,0.5998266180804248,0.8437403654592677,1.169758390679986,2.262660514124661,-0.939747115841978,0.5781927333799624
0.3402068235023523,-1.529299979794715,0.5854728151584467,-1.251416439266685,1.2739077494097424,-2.958966528423412,1.146326872029434,3.941540423435658,3.4655810891022485,1.4629947926144635,-0.8640982759138256,0.9953522496686684,0.3621740055138802,-0.91894851715876
-3.252920665909844,1.3295026059151611,-0.6254548040933301,0.4852374598783409,3.848372316132446,-3.8945694113464406,2.590638840204239,4.76236853281833,6.0612266478024415,1.881976630525891,-0.7476398858274229,1.003305668119463,2.348898734627042,-1.6283940486988442
-5.31483557837127,3.8111489761940143,-0.8003405039734763,1.8751616924020935,2.907706374482787,-3.519939720181762,3.2509419074785,5.788378830009959,6.412311810657306,1.8254891959155009,1.7734667136464994,1.8805866603246728,4.374706787974812,-0.6300645007475028
-4.38058179648105,1.752165522418211,0.0691966930863926,2.631357886769519,-2.2732909769437466,-1.4702920664556327,2.810455900298535,5.969537028194257,3.8391915676277866,1.4171834561825951,4.568101200605781,2.598432561078238,5.413768863249409,-0.538606666806811
-4.494275349965481,-4.143395476469704,0.7223268353821389,2.1953349841230723,-8.686111721012237,0.9769772582585972,1.6114202384297998,4.709394466597066,-0.2393146253065219,1.238857964308489,5.200109302312149,2.390692976525702,4.705200750474754,-1.849776633042516
-5.694016369495849,-12.266118463481671,1.4764915932037288,0.101228469661325,-11.662495975585667,4.803668868675396,0.4346254130217861,2.6070515950869697,-3.194635460652642,1.8501290346694108,3.349753118773427,1.316728461922286,2.543799848357402,-5.069883317081297
-5.513967424676419,-16.06263956331762,2.0127070564282614,-0.4040553704664257,-8.574176460264564,6.746172402506657,0.108441948821405,0.9810687040168844,-3.174691943182375,3.147239313377263,1.1338310379321828,0.1138164020046914,0.3651720330544252,-7.39948460404572
-3.756294267257514,-10.707566187626725,2.1256130629933394,0.5780042702919271,-0.9889038701473324,5.6282519976527725,1.005276156412758,0.5839076320094736,-0.5476153776651191,4.210342922916577,1.027700413612368,-0.4216517716286936,-0.193753063905024,-5.705381847324651
0.4363243004843925,-0.0324175173682557,2.8744737857775067,3.8086659135992833,6.5356712998466095,4.631586210787456,2.6184900402488336,0.8076279126361405,2.4279363209919125,3.895453682268344,3.4914172753031734,0.0315361555706676,1.440910048141152,-0.823162003393203
7.46587499974416,13.436735045531508,4.1762494465676,10.19850195507975,9.867789095263486,1.9266625448533972,3.6037769582119017,0.2201505714462142,3.394072780943049,1.7228071916989165,6.619454490502013,1.220249712748431,4.295528202090483,5.8779868358354985
10.981816269368244,19.880972190082257,4.155707096598294,13.24368902216994,8.005217423904437,0.2538197585225694,2.5193694786005425,-2.068122715165389,1.6098749757349045,-1.6774199417288265,8.03330159770772,2.572556274330952,6.57807569913597,9.132260094286805
8.510311829550396,14.356578042950623,2.860392305677001,13.003152569900935,3.101251468633369,0.5075976816124235,-1.0685875235119815,-5.531398775621129,-1.7401480706942962,-4.896129062266867,7.043998527285303,3.510564928725916,6.9892432155066295,7.231909819224825
5.335664259890362,6.933219199066623,1.3800882018350722,11.21184046549368,-1.6429533521959887,-0.5652665239645032,-5.94766638139869,-8.644079358189112,-4.661398675811148,-6.531500231942243,5.019815092936623,3.640994964565782,5.556547994798089,5.259900417756905
0.5131968605891756,-0.2032817644305454,-0.6761795987631244,6.297973296661137,-4.102785138253645,-0.6971449020736624,-9.753349482960974,-10.097192068631976,-5.789102533454041,-5.857161726425878,3.8293116089839048,2.853578281478653,3.442929823540233,4.546112001366611
-3.0069384366724234,-4.065624674000322,-1.469546546331106,3.346306619289566,-3.867610414379188,-1.3739165515852074,-10.420244046175076,-9.63634561710266,-5.0671198071826815,-3.0789736087026323,4.079724657304581,1.3978792440665044,2.025236241619139,4.291649058528961
-1.906160801169409,-1.780755161771311,-0.7255933165026479,2.473556179276519,-1.632133112581979,-2.186796183453075,-7.60002661302688,-7.886374588657019,-3.4340359551802835,0.7626905293327226,4.80921031874486,-0.1172159247489534,1.978494028061743,3.692785230611406
-1.9487601980541844,-1.1383241169336649,-0.5382644805467593,1.534172435776671,1.4835072912824252,-1.5386317377476584,-3.0045220594693385,-5.618728710077809,-2.036421379117077,4.141126693231337,4.6222425864345205,-0.9344053841451002,2.93491502776223,-0.0897515064536883
-2.840115148874116,-4.658573264208028,-0.4683328837372031,1.7290467132246414,4.103467885880143,-2.038419022693263,0.5964121694086941,-3.3533226493574237,-1.588815829627494,5.639270358876667,2.891016972997612,-0.5789445160749804,3.82219498979536,-7.719716001436016
-2.258032893993217,-7.008593702523614,-0.9340252276934744,0.8605875222413438,4.737683255056263,-1.5260973302444774,1.0399766843407707,-1.573678665178953,-2.145280383500235,4.6730851768893,-0.0700638243409355,0.7266878959949535,3.59458247820871,-11.7947251361801
-2.240569414776047,-7.011773082723004,-2.303105615049836,-1.209461432419262,2.4984151815967817,-1.3194094926223108,-1.985821213326698,-0.9754150186216872,-3.2174668485990585,1.9237836402276065,-3.6008547943473546,2.0220826747619336,1.9078008944288756,-9.265009757239898
-2.559193538495523,-6.457548005766002,-3.7966072555224506,-3.677968774993472,-1.933993455713072,-2.645153784532816,-6.846937523643221,-2.108620795272857,-4.067203184586891,-0.9554740121175616,-7.052075189981875,2.120778710744162,-0.6385139009305432,-5.550239546617433
-1.9416885189240969,-2.39409024699244,-5.641304500862917,-7.102819822400164,-6.176540573275143,-1.869899013972192,-10.978969421095185,-4.603826886581288,-4.025144418328072,-2.290278743524003,-9.52218599266432,0.4357718603457674,-2.8117335311986515,0.0764919877963536
-1.5247106065140636,1.336310465381053,-5.9945520764820746,-7.74097090882413,-7.43954035167656,-2.0791664925359337,-12.338795912118602,-6.902326165784016,-2.7333518270326627,-1.3358840334514508,-9.688249040970378,-2.4636204179982157,-3.4176055317598992,3.7530131174479706
-0.6988443387133774,1.58557422839663,-4.594254256350233,-5.306217743326746,-4.495181686014714,-2.4720425874590477,-10.44233414423585,-7.114145137950114,-0.2792103676236923,1.4444675547790362,-6.545033950054448,-5.07933922965148,-1.9581750925163068,2.436200304533532
1.8403561171065752,3.0405693740656687,-2.0861254259624564,-2.978433185785376,1.2688526544337446,-0.6749043530138475,-6.458532251458927,-4.492290558771542,2.7621576456459795,4.835095787063052,-0.7231560727075994,-5.9656361677860685,1.0489807563092164,2.663336971951929
4.50019855595925,4.219897504563386,2.1197161006057046,0.103447706133625,6.668373302692249,-0.8633956266356908,-2.4158073342486164,-0.2256890016199673,5.40045319262964,7.526609103914964,5.026976525612985,-4.782105566144001,4.220996837906765,4.340851745309212
4.834299808102673,3.910619437732672,3.8316076708695337,0.4197053609966429,8.826827314351892,-1.1943827181164552,-0.0741062168433626,3.279050952137446,6.517327410470346,8.495610673203487,7.212961140880966,-2.557700812119696,5.876833438836655,4.297087463442405
2.340039391377214,3.610666857887857,2.785305713408651,-2.780394039824378,6.943875365485804,-1.319933554836453,-0.1268962881171527,4.115195399641172,5.38962395986901,7.141827116371333,4.139718398787004,-0.879383307205163,4.832285252958669,3.046318636150487
-1.0759868300518678,2.3847097681389338,1.368417706692835,-4.049568293610059,2.4809323541112183,-3.646655683780114,-2.082034280103322,2.168734485362612,2.205688388936509,3.4997580240629347,-2.485752534110052,-0.6399846196156349,1.0994013360977073,0.5031672625388645
-4.734611077620789,0.2086614057402488,-1.473616834967365,-4.203789757690043,-2.1454408834821157,-5.162011226639435,-4.703775069978614,-1.0289725707696014,-1.8522552279843436,-1.4692099118207076,-8.501108747597922,-1.4198185480510763,-3.917185360923458,-4.517199790986212
-5.397870245546729,-1.1127255362099708,-2.2589024086921534,-4.352719592528652,-5.189488916430256,-5.267230229601658,-6.636193220203834,-3.603406333549592,-5.169026158269592,-5.94794983051448,-10.273068342123558,-2.0430323018466883,-7.990761280798522,-6.816038431388888
-2.4708818591445856,-1.496367635475448,-0.5723621485496271,-3.581241470038802,-6.344185501917926,-4.566634612555116,-6.901542558236759,-4.582622648660397,-6.588122853956083,-8.052712112058472,-7.341124001894785,-1.760114078753548,-9.236985346896782,-4.24704800457483
0.0912181428298966,-1.4393288141458107,0.5577497670010808,-3.944759197140358,-6.35156485970638,-2.4270567431086727,-5.191010849150528,-4.134609836145621,-5.997971541635041,-7.005810215042729,-2.5345489090677917,-0.9052588340641732,-7.226684664905939,-1.4731561174223669
2.657937735267458,-1.295498825749955,1.9854442449835668,-5.481973545803004,-6.062131893402269,0.183125863242261,-1.972709262390152,-2.895560957981133,-4.215063568320876,-3.783481411960748,0.4647038050828804,-0.4011668224003817,-3.3007700756818226,3.1635627456596653
3.278433226601467,-1.3137119117300493,2.1662031367835444,-5.997332711325699,-5.796266163648056,1.4389742403067007,1.6206255019006877,-1.2467187891388132,-2.33938606707049,-0.565410233167416,-0.0290154244176097,-0.6569735044901557,0.2040670303269154,6.021626640828594
1.5365699309561895,-1.1673126433733532,0.5970727804473969,-5.821846864946867,-5.400880043385657,1.4182064156343417,4.210036097618325,0.7821703918011063,-1.1116764164883266,0.7354685883326315,-2.794043080869981,-1.0404831979073468,1.3761737722107936,3.722115511490328
1.7102358512049398,-1.4539719674831526,0.0363688115716541,-7.159535198665028,-4.727943910383196,1.2914046563856292,4.8402846281146825,3.075510897671556,-0.662466876790886,-0.2378971010575012,-5.2157470898039096,-0.5163589327057029,-0.126790787924756,1.9114340451042997
2.212725610985277,-1.1322558107494256,0.0868412991245986,-9.811457733848185,-3.954163158075893,0.5715637279480843,3.5739149602985765,5.077529027990881,-0.6648831840460216,-2.2064987110377365,-5.6031557135372125,1.1875838077349248,-2.989526907362786,-0.7010381906108742
1.8914685859463012,-0.3400025376979365,-0.081948117999426,-11.11110478397968,-3.423396189773418,0.4408970047397832,1.55830832239758,5.969873206620767,-0.6834026129437456,-3.452163483382282,-4.262090865661039,3.1133172598916508,-5.272861114517927,-3.070755402870769
1.622686166793163,0.0895656157956444,-0.0308213904350812,-11.304519314901222,-3.230965521929545,1.1950604426286484,0.3707864735017171,5.251571791502391,-0.5195485651146945,-3.308338488636034,-2.7252272225485,3.839978652780229,-5.827087391770605,-1.8740193285448312
-0.905421082550904,0.7364618708012397,-1.262353998031134,-9.017410454227928,-3.056797282851338,1.3852784532568956,0.9827078054113304,3.205018759181064,-0.3901826704579587,-2.6961714718241696,-2.2482645014383422,2.758166389736396,-5.031902586242254,-1.2726489739094684
-3.708155315469672,0.8550550201769618,-3.93213755855608,-3.4909117862579464,-2.493082514727738,1.8484685189190733,3.0845022810130924,0.8441755338757855,-0.7759972679048333,-3.2280871595417926,-3.01479435149275,0.6006034079345195,-4.30081692134053,-0.911061191375399
-3.5292322558988483,0.7113783708359603,-4.740332262430898,-0.845479949560333,-1.5560972669310924,2.4579274754268816,5.352967888695337,-0.6344300607708924,-1.9242385354598488,-5.603575604292513,-4.426051888667311,-1.2704289449779609,-4.776551923482127,0.3096298944482658
-1.911592155479986,0.9313153090733324,-3.837643682551176,-0.903801944792046,-0.8095298452211233,2.911259598264087,6.527194122927934,-0.5281752319818734,-3.336210759312263,-8.672527855524422,-5.754851678938989,-2.083049800807119,-6.3326228954578045,0.3307414733310956
-0.4428123773937842,1.2340587885149217,-2.77402463247064,-1.7071008565075363,-0.8845053790839628,3.849409897275833,6.431107560520367,0.9916192609343863,-3.7964273084112015,-10.063523244873195,-6.441388390049429,-2.1970146939194017,-7.742419902849902,0.4860228353177107
0.2956129072063455,2.0098006897726823,-0.8757416614160215,-4.635950580682115,-1.82468624586442,4.812917262345374,6.037834810671218,3.005452427438515,-2.1888715066458917,-8.006114303757755,-6.0913671145242585,-2.521400356959893,-7.830826713800816,1.5498132299536498
-0.4850871392762064,2.15501569803828,-0.3715873240276176,-5.0485435466528745,-2.936166387083773,4.970646666482077,6.466643317850908,4.372727114201739,1.4026371986772868,-2.9396490714239665,-4.650551582892616,-3.48616437694079,-6.527492582842008,1.7010555488193488
-1.3742690082005755,0.9251239437760432,-1.548781303205056,-2.6964239065322464,-3.360816934458036,4.143851576366719,7.7958555905197855,4.332369063860609,5.3024973562452615,2.432151555810707,-2.768484678674691,-4.603164966276428,-4.857842789009204,0.9641846483180118
-0.0621532359622699,-0.5006617488025614,-1.6130061254394,-0.4302290743885651,-2.8600064279023303,2.890531411710791,8.82527088773505,2.838204428548502,7.160113261289668,4.824088239867656,-1.7480813545750036,-4.963978449882394,-3.931197803469975,0.2806534171375002
2.4347566157458918,-2.8403647952642923,-1.035158654443079,2.837936530546689,-2.037876193788159,1.0572064215527748,8.10727555896232,0.4916451505004378,5.671741184716157,2.6348568098552576,-2.675333653444401,-4.078461441739534,-3.9189271155274583,-1.5284189465780038
3.5100781025087624,-4.148204886068426,0.0020188767199148,4.038970494174185,-1.7370754230339631,0.0752464843851098,5.380892391318691,-1.8035890005617772,1.7538813196869856,-2.839114493204348,-5.269411219757288,-2.2282704677047684,-3.957810505141124,-2.627520971407029
2.431038168263087,-2.797996323879591,1.9824003437809463,2.688582310518688,-2.131764107146597,0.819414929249431,2.095915705943015,-3.2243442709566925,-1.917664494080897,-8.143288976056493,-7.601411850510397,-0.1235439713730797,-2.9922204079306685,-1.5071594207953325
-0.0298139532052478,-1.3809345329809128,3.8038338252961856,1.4643095429809816,-2.3669841982875663,1.581849782352512,0.4598503453883644,-3.29714165454135,-2.7935381692012977,-9.878502784767049,-7.261076036009808,1.643100650125363,-0.7356539960974482,-0.4757151235959038
-2.668960213238215,1.336925277527529,5.555878891094403,-0.4460142516209932,-1.1457008508761293,2.9043840463757227,1.723821751132956,-2.0452475055804245,-0.3105465439772049,-6.875603329644111,-3.2194164925219244,2.7986325365235483,2.0647675217565684,1.3752902761359669
-3.0508883115890684,3.5663320597936115,6.397494128771007,0.1027475469271262,2.1512854805416137,3.5130968978082544,5.0916975593260965,-0.0202628685928385,3.7843595555619536,-0.849832422928968,3.152368501570747,3.2388028838156058,4.179358762173437,2.788716493275514
-1.1987000346534362,2.37815131661957,6.00603381162393,3.700525497933832,6.721541002930494,2.2317177377248814,8.136542114765671,1.866966914428446,6.900578267244893,4.876485561607302,8.864214883110861,2.927972722412016,4.743234996614996,1.7895177924358974
0.3267908220577686,1.1524490899390378,4.953662930193235,6.695687491272191,10.644219729653557,1.1963026844385585,8.426504216592635,2.7775902618154213,7.604407540322239,7.633314575595416,11.368861730366826,2.059480089744887,3.7973603281103614,1.149873485344826
1.0437301609825744,-1.239336819658481,2.883269396658559,9.894414040588853,12.113750065839383,-0.343966063377904,5.190441533552594,2.4601513602805545,6.477751063128391,7.012914270668081,10.307680619111432,1.1947707090911557,2.261059087992747,0.0421215642764648
0.5753608428502377,-3.740840630036927,2.154402168158028,10.910117559949486,10.739165661427428,-1.356449875746921,-0.1012879619938748,1.4494231072819173,5.222711371637179,4.737237791605153,7.591619402170309,1.0034101734638967,1.4220372124100376,-1.727653328742508
-0.4339421643805706,-2.5121530794305635,2.952045581114546,8.958928686748314,7.909214684682464,-0.540864652287035,-4.576914444461457,0.6866270140730961,4.981242369853959,3.0550815567810483,5.803445094952915,1.710673488917584,2.207149883597981,-2.1106543593131124
0.1052375511964731,0.105577202439356,3.880161132457122,8.208273795567209,5.858166786744024,-0.1459539302233883,-5.660615412046026,0.7991376712293372,5.460223010474973,3.045271969245163,6.2272146457600055,2.8326981862902976,4.585628767758352,-2.1727496635664942
1.694176897906697,4.025652046922652,5.546536998285696,8.007130392269811,6.050655895166178,0.7343841056560942,-2.5998398635479822,1.6621701335715666,5.558131291686611,4.133180074877919,8.056495669739995,3.585137951967118,7.473501208156662,-1.5311209000856634
2.564081307617965,6.887483624449272,5.565876385211464,7.767704543292824,8.089717610263815,1.4291252296586758,3.064291819856781,2.6554224818555934,4.6926187483234205,4.988775844751846,9.323731456178162,3.614653979295268,9.31239636835294,0.6052025120663522
1.941613520394278,5.011566980971851,3.6558906020046793,8.192080363561045,10.019454599139523,0.2213227985255744,8.355263125579572,3.3422827225937435,3.412545041487137,4.813355197033439,8.661461854519724,3.280581903813783,9.04956961341439,2.194854681989689
-0.3569447117663728,0.6290660471818529,1.6508496523510607,7.834080017795021,9.826991490579305,-0.6292724743671642,10.545935012647137,3.8442915475095942,2.7133127347600845,3.86809375128929,6.36701459068878,3.1664814830034915,6.855919871064652,1.84259103753586
-3.2463123446426,-4.790042875802559,-1.0631199083713267,6.750306308196908,6.98197202849941,-1.609486586593803,8.661902205222258,4.496786504926225,2.850019954474229,2.9674409438632283,3.955170133000541,3.3701267419619643,4.005954431592217,0.9476751682011416
-3.979226561715424,-7.602452614600227,-2.483486282124043,5.846429825123366,2.7986913926495856,-2.7882700261365985,3.897891005164677,5.180132938410812,2.9399469670119003,2.6231063962330188,2.786251580677291,3.391867171337416,1.9610432820853247,-0.9157987515364368
-2.10544330311034,-5.33504588865129,-2.252278872852413,4.874257597822204,-0.6426596505032647,-2.22640924040051,-1.2511187000840898,5.147689311058395,1.7942170612030064,2.68043867114612,3.111778582125895,2.7492968491090872,1.357120332601346,-2.838614398398214
0.161939292511878,-1.8810594121703192,-2.123176936877272,2.0268190903764274,-2.1017018526355287,-1.5437865867075815,-4.5033779595800905,3.6835897732425833,-0.8542020591261636,2.6478950859053163,4.267018229617534,1.5835484095343604,1.693956322621888,-1.9554342992191749
2.1947622193421994,0.8110693921868981,-1.538583440918228,-2.7665749279589837,-1.983297602591832,-1.1774285870911376,-4.952775031834828,0.9832705060747348,-3.947170688449957,2.2425673247773448,5.467960020686896,0.5221210599937972,1.932111077467136,-1.9585442645120628
2.406541472067262,1.6451929451323477,-1.3090718825801229,-4.887088796489091,-1.7276596653342713,-0.484028570846813,-3.2648152846486083,-1.7183282271531015,-5.912380473960139,1.5966596455113786,6.168075445571902,-0.0425492052188565,1.4380361458390722,-2.146331398024996
0.6384686536767715,0.3499797697974352,-1.675913058190989,-4.418312868277358,-2.395690832880692,-0.6440152703852438,-1.0287368940534545,-3.06996244408969,-5.919572570977684,1.0198929527227023,5.744729964155001,-0.3752818694472378,0.4604030950002453,-0.5912675296925605
-0.5213476657642157,-0.4023980561729919,-2.2486302415565724,-1.8063817274470264,-3.7345201587000014,-1.214682085411991,0.1415717579010215,-2.787720667656424,-4.461746640618644,0.6393715510538597,3.3758406325961787,-0.9783611825057424,-0.2155641890158866,-1.6594334404225404
-1.357575890383547,1.140642791011152,-3.326542965019766,4.148528150304736,-4.532044654397152,-1.2822256628411208,-0.7279005511521741,-1.940518619294448,-2.8400329538932096,0.2747543692779457,-1.1480572837573713,-1.8168665846375975,-0.049264817923261,-0.5814522429965625
-1.199499111634294,3.1421005327769587,-3.538541632039465,6.483901717785339,-3.8693421794433114,-0.9547174398223854,-3.640473304231437,-1.9757578694741231,-2.114455975538544,-0.3597223758053469,-6.309688468589592,-2.1633031462518635,0.7625485186576477,2.7895662216165142
0.3999385683822015,3.6909200559969,-2.8156855183951093,5.038284923806546,-2.0583436868143576,-0.3236113000839121,-7.549740451148309,-3.339488059685503,-2.434302664200488,-1.3090192841621768,-9.060963173709323,-1.3537069481430493,1.4758017743845886,4.137363910082503
1.324189341984392,3.251301043124529,-1.31956010476096,4.46297698331455,-0.3787537417533668,0.7655362982460466,-10.605154325288105,-4.985548433989877,-3.1829012119762576,-2.178180458811247,-6.989986202605358,0.3426632554329749,1.4253518987387377,7.322208063350619
2.5053814931637697,0.9618551944332848,1.3436718733882744,3.245227732246164,0.102451713278183,2.1533452494806435,-10.911430381878814,-5.273059719239518,-3.634776946551099,-2.3007676125582126,-0.8736853290207436,1.757519723561821,0.5074636316638285,8.957496273334666
2.895272319657737,-1.4621873462751422,1.7954537284116256,3.009854871048004,-0.5346031563054155,1.8663584470157184,-7.68698362050904,-3.460640868132902,-3.498041417330839,-1.258083165186338,5.054065948837094,1.8334742608404528,-0.8348789733006448,5.946312283779063
1.2240227910243089,-1.813998477706594,-0.1295475115353555,4.3596896311940405,-1.2638586007266914,0.3155949996107585,-2.139083765816397,-0.4376653325452859,-2.9730399648432533,0.588305049839255,6.089046041736106,0.6054494509380064,-1.9874056316723363,1.8024658057208591
0.1864186382338116,-1.114138928560716,-1.7459379067643577,3.106422978320456,-1.1951139883399502,-1.3034925243477593,2.8083992069321013,1.979374932751547,-2.4358645739583755,2.0566621330445005,1.0753232921655291,-0.8573958646254771,-2.523086886237189,-2.383972699551808
-1.4634787859267913,0.1218597540974458,-3.801964764215445,-0.4506821700391862,-0.4285210627163343,-4.603413362820423,4.140860668441847,2.549227652264687,-2.11031205853174,1.850222311328435,-6.236628048829081,-1.4922720579297375,-2.333638956285772,-6.550974430562497
-2.822403335115464,0.8153699647697615,-4.301204746846119,-3.0180325230967235,0.1348606825316769,-5.586756969905985,0.8081527719044992,1.5552890830662438,-1.9805630964011047,-0.3716724258548409,-10.105605841145731,-1.211396273850264,-1.6085922281952565,-7.226502526543895
-2.095300025380217,-0.1322778926826488,-2.7186332283725654,-5.234010608066678,-0.2479574825373116,-3.4298555444033307,-5.325387150220712,0.3802378000774105,-1.9193169348383203,-3.4354280650332605,-7.675051070547839,-0.8594967725070322,-0.7827358333017083,-4.956129073727569
-2.418742316279824,-2.3828258918446843,-2.801834629750822,-6.243696256745686,-1.4440642929090757,-2.0541222002464035,-10.53652478831065,0.1575150812610197,-1.838170614125304,-5.272941726173044,-1.4764825222404734,-1.2701123073274154,-0.4035573190102369,-5.243325538233625
-2.6079064620975103,-4.920487070095713,-4.1110671888908215,-5.3847873842235705,-2.629813841481139,1.6143950307244628,-11.685690955157154,0.7765268460198298,-1.7173614118897902,-4.451363972027925,2.784897204912599,-2.405552476106483,-0.824169552394072,-5.786422147352026
-1.6614750155573486,-5.460988062468417,-4.854521876657108,-4.56694099838617,-3.0629273403596557,4.161824690582853,-8.268781468515881,1.1405999454331073,-1.5378117933054507,-1.438153817281581,1.2576037111404683,-3.4107016923361035,-1.8579455992251108,-4.590827213475771
-0.8706376363255361,-2.926435568375409,-5.624894480906081,-3.398347481148677,-2.601162541683662,3.204470321360889,-2.55331038611716,0.370359054902067,-1.2382946951775866,1.5562935638060804,-4.683802906314455,-3.465599003275676,-2.756318195497008,-2.274070449404925
1.132288332006519,0.8524963268965934,-5.098617892960587,-1.1451406050190256,-1.546604014373251,3.95989229633132,2.2104594384372525,-1.2350402197539283,-0.7695043539056718,2.2204386692284355,-9.672468826824655,-2.5638226880548887,-2.7025397625381213,3.3231449528582964
3.803865966953973,5.586802782797354,-2.9542368745048155,1.9860370746238525,-0.1905787392137963,3.599635753925817,4.024246083196434,-2.4032183244703407,-0.1856406516298108,0.0210705056237094,-8.990602520834049,-1.4904856590791769,-1.5017386715442136,10.68848795933109
4.35818764466611,7.827951818272129,-1.8546269104478827,3.2025347396510084,1.3189005588344505,2.1446015087607133,3.143016728486655,-2.0573135950166432,0.3428798148943457,-3.263085845811746,-2.4778359723501837,-1.0904969871904069,0.1643171812493573,12.09225427911901
2.760869302329208,5.172414360153952,-1.5462370761209792,2.323091167875427,2.687594296535598,2.217171663181376,1.3382891896589186,-0.3418781481764839,0.6338046030255517,-4.89597176767419,5.562197877599448,-1.5651650257551526,1.2297698673791206,6.148283525281791
0.8111984182201935,1.7867192190103176,-1.2073496542379332,-0.2695463333312912,3.271625182344137,0.6700716846442849,0.3311433682967293,1.4406318314557884,0.6307788247889223,-3.371355124527972,10.031203901434528,-2.418439553438401,1.0874047759256502,-0.576149798214877
-1.7010764537649123,-2.4774270747279514,-1.34155211725961,-5.432861903889309,2.415026887934136,-1.7392939297375294,0.724040779381887,1.9083348714214303,0.4514014002512638,0.3760501935920821,8.844064937541877,-2.9888451314164235,0.0197967479846017,-8.931496597000386
-2.681220837156055,-5.030568417753194,-0.3203743840833851,-7.531339716578036,0.1174784419620253,-2.362488277392467,2.0085123271436656,0.71719264052245,0.306719010748794,3.742864386959014,3.7608486192963473,-2.975505995902766,-1.1499387033635688,-11.494543338846272
-1.2216116592901136,-2.9806652357498757,1.9789405014293848,-6.374846534986374,-2.6806169822324986,-2.652371427498639,3.215291415920743,-1.2413238259596868,0.358945523624337,4.537804772056202,-1.8403273783477665,-2.4907892370829483,-1.7976120506899278,-4.6226744715134
-0.2474061482261559,-0.7639962671425558,4.181784002534738,-4.664671527404108,-4.631059272082303,-2.991568499895628,3.4830345621004497,-2.668375307478923,0.6130595326093253,2.6140382416309,-5.681575966716572,-1.7388302398677045,-1.897301423531129,-0.5115381632569833
0.5935627027539215,1.2274215823057022,6.650682154012398,-1.0277784795571572,-4.952404303651546,-2.051522281030484,2.304777637324009,-2.9397666613307534,0.9001918621158862,-0.226182427679555,-7.377360331103965,-0.787774674005882,-1.763198491770149,3.457556840076289
0.7315703605906183,2.228407814889975,6.747284553677644,-0.1013108348637092,-3.96955541276478,-1.986183665724328,-0.304865207413866,-2.506365585728872,0.9738199596633677,-1.7859655774329737,-7.285510375268383,0.3063069981957658,-1.508451236743518,5.236095096108367
-0.5747974601414693,0.5308832358944322,4.026527924898039,-2.329090286342297,-2.719659501892406,-2.880617422180572,-3.5914954978232965,-2.314148371026251,0.703751456139714,-1.0495950789679205,-5.342654742704363,1.2637012518014392,-0.8379137040919895,1.1131644940722998
-1.0261051578997382,-0.9173367760271608,1.8791845060381256,-3.227068480378869,-2.021489824774002,-2.751139029359792,-6.119113716101005,-2.8011553782550647,0.2673316517199318,1.4309664090814,-1.358538571868992,1.655276359291115,0.611739630023302,2.1206354035807675
-1.0546656968903585,-1.2960075345924296,-0.3235649723127555,-3.825472514902171,-1.9111921035715744,-3.2257518618595924,-6.470739735177209,-3.388156261218211,0.1421498406246262,4.307165192593841,3.788910298813013,1.3357262797676135,2.7407961250025226,4.512701559674241
-0.7434921256978899,-0.9029456516325166,-0.5921601869765432,-3.82835113393734,-1.9316280875540208,-3.643601301415304,-4.322519639843625,-2.9484416126801256,0.7779583617452182,6.388325207244833,7.806337050565335,0.7795714201375232,4.792801940643287,4.107184269523812
0.3101751249437965,0.3542265366451497,1.8509878827654656,-2.554398670563065,-1.8548610069510787,-2.9520433079689736,-0.9705528061634756,-0.8710075891974185,2.1285667110871795,7.0124091692705575,8.302921224540514,0.8380915523318127,5.709277383453759,3.1595941314137805
0.4202714011844549,1.0811386336224833,2.1527537729086164,-3.674612230014541,-1.9817266015982036,-2.728942169387959,1.4073752173744554,2.2320978168396746,3.5037830098679184,5.959926370835703,4.706495370376514,1.9955360048505768,4.79679382829111,-2.229191732791025
0.3896849484656281,0.936042538413931,0.7866970761530325,-7.142588450397208,-2.67579409137632,-2.273751735956397,1.3829219968101292,4.853352232356441,4.043314932339554,3.479497004467813,-1.0100979424911165,3.7804358319419737,2.26009997600896,-8.286456201714763
0.3349638840811706,0.1014187131460494,-0.4865905240883227,-8.491260412253485,-3.700925701506393,-1.6620001053218425,-0.5383535442678129,5.719756412172817,3.5094721605563115,0.5141078650849469,-5.478416411883413,4.95130913003548,-0.7615708440038684,-8.362495680862258
-0.098529511743157,-0.8625489251691607,-2.542477205098203,-8.233599777277265,-4.215441273566393,-1.8312419189407887,-2.3126438661099344,4.753574036194098,2.614524198458765,-1.4473694109666884,-6.033566823544751,4.4002402909741445,-2.749258569011344,-3.4381263995137985
0.7911024872367014,-0.939909171769274,-3.01061975686222,-6.247973724801783,-3.570704146280109,-1.9256585637354988,-2.1161638362981803,3.029707873571519,2.383824957477206,-1.2997466252006151,-2.2932614072664474,2.0427097630191438,-2.712704893964259,2.7962750229175897
1.839901399147532,-0.9329597942733256,-1.6302422985518474,-1.5582285014181991,-2.1080112216056914,-2.034207167823929,0.028376409221932,1.802037681405304,3.0136697448383005,0.5464608591788265,3.5873997550708454,-1.0664393660678688,-0.921690431838502,8.124103793652406
2.2098738179388846,-0.6824530695717225,-1.4930158499571753,-0.1893848951149203,-1.0341936255393818,-1.9009726839347787,2.212252511766378,1.4870747186502344,3.371448638733301,2.0480265567487805,7.940012224064958,-3.49273479148257,1.1075564013290058,7.709021651275096
2.3813335356096133,0.1478800518493643,-2.1432692933709947,-2.1943246752159884,-1.3743864093341185,-1.2769457236756658,2.262543435849141,1.4605264271466316,1.845309245504328,0.9632541084576438,7.458475326329808,-4.420205988108965,1.539942010634598,2.368283108650753
0.1382244601512476,-0.1930409745698369,-2.6877395267514896,-4.556926834325891,-2.9972094914672667,-0.672214809531112,-0.3704167757998995,0.7304345757929441,-2.0608963628732093,-3.1632581549179046,1.2573428525920844,-4.081593077744714,-0.4570577209071835,-1.4428020679517894
-2.823198831453923,0.0604473766347771,-3.6305432985235897,-8.643431473243156,-4.684478619830801,0.2768149346647882,-4.069347620386328,-1.1887141254746214,-6.889612656784109,-8.277084410813835,-8.008855754893279,-3.337210892192143,-3.971471126419578,-3.850749374113377
-3.741545877009485,1.1601793166198096,-2.6115576689361086,-9.06088758028586,-5.171019114929222,1.5594610071728203,-6.260469784051321,-3.907769252590602,-10.111384557590664,-11.221488762242306,-15.164752923327914,-2.8500603448732384,-6.868859830432142,-3.133887793535417
-3.237123600240745,1.3096295671799,0.596365444117808,-5.18910298279266,-4.1182581100170825,3.4069701265798997,-5.314280756085262,-6.453456502242264,-10.097380346920056,-10.211039472404464,-15.713982864737975,-2.600372017328241,-7.312656607038755,-0.3103326277354672
-1.1222954887229428,1.820193542023933,2.959789050610152,-1.3189886924774852,-2.1266380707677,6.000716062645851,-1.6210951012544577,-7.860868799095588,-7.440481363231534,-6.2338444850772206,-9.27398281627382,-2.106603386134696,-5.1387983122171885,-1.8276879240961368
0.8004479812768487,1.2196378867070288,4.935407750636533,3.91264679558573,0.0681906812345554,8.82910928218169,2.845873138852653,-7.645017088499589,-4.394137335539289,-2.142856147036104,-0.3714260173225199,-1.0446273499607164,-1.942027800880333,-5.135359602205407
0.7660199811422972,-0.7607248477497048,5.332149168373838,6.172812802662204,2.2679095821408186,9.897641220950778,5.9411682707109215,-5.967806030640137,-2.909097230347661,-0.2491000055556362,4.64557007164716,0.3807049252542744,0.2575232117155597,-6.828719482585425
-0.6616732825455232,-1.956711177945626,3.446738007469239,4.616899332893516,4.666764626240461,8.611207652995645,6.623691981972083,-3.5164228012647563,-3.037884887306711,-0.5268477126112976,2.5397455315754627,1.6465688494994777,0.6741030585388632,-6.314970410686909
-1.0089311726295098,-1.648664028922519,3.355912941732013,3.938635624911617,7.161784722010963,6.440372083660885,5.335742241968493,-1.173355698429656,-3.127543308180345,-0.927749404875268,-4.084658055885095,2.4186418107268324,0.2919937383484949,0.2963503750245988
0.8871287181891021,0.1021314964664661,4.764829414696783,2.985728163263488,8.98276343475171,2.710486952510631,3.4573468740682607,0.3821532677451029,-1.562431840524316,0.5809060570920384,-8.81188486074214,2.7845889906678054,0.766069877131967,9.236032264542436
2.742717332012772,1.956253721034444,5.362772558805433,3.1577689451412163,9.136364631082976,0.3683734962324463,2.318730785560655,0.922166582981065,1.5918644070059376,4.079288830724595,-6.738652080063915,2.992006115352884,2.670752277257204,12.493659026377458
3.581309295088184,2.2995312244211603,5.85587178366857,5.22047307048039,7.285244920787983,0.1848225329572423,2.3740045009878794,0.6140622439317918,4.56212530430434,7.505568317151759,1.3970505381614815,3.048461147261192,4.771704806805049,9.587282960175155
2.89362800165321,0.2361392892551544,4.430167130235929,5.280536352150589,4.224585583752039,-0.9143326482150248,3.0051106456514547,-0.2367546378212999,5.45981300737896,8.33958052183063,9.890606978958743,2.6983198890217377,5.1270672087745,2.969450309452667
-0.0770616842528817,-2.816177039798885,0.6394114566682626,3.7138372400926967,1.4837798766047836,-1.0537067483991245,3.105084436477764,-1.3507121383319955,3.999402125940809,5.741350736531729,12.971668680523278,1.835115828521506,3.0772099354725206,-4.309840303140427
-2.579142523856504,-4.282413776375405,-1.087131224858754,2.7454110622888344,0.3513726847397049,-1.4815528654511414,2.082503067766706,-2.3966591298280364,1.7487668089804815,1.3691085846161783,9.59392370756259,0.8500191868029192,0.1897015808837654,-6.661757612078364
-2.3228721566283785,-2.868831719226072,-1.0248204765788664,1.7608943869855862,1.0685415532575124,-2.7255907572206155,0.4985122223833138,-2.888520952622806,0.6800403002997903,-1.848195594977069,3.9083965470927566,0.4212172362723336,-0.9388747976744584,-2.912153248501577
-1.265402065991062,0.3937366009124994,-0.5314832221136679,3.578563213743642,2.7456113237578563,-2.576457698163884,-0.3135715005226664,-2.394428960365002,1.3584376447226785,-2.067670675663349,1.1679748648539885,0.8573729505940735,0.8944964414806442,1.095887575514355
0.7037213204469968,3.728422375695286,1.3189947312027317,8.78005187358425,3.990019956811924,-2.78878982759089,0.5371068221074395,-1.0266852983345798,2.4415418054964686,-0.1197486435801096,2.9461090743816314,1.672150862110116,4.081204071454778,3.233412830807205
2.8762093189906084,4.949618552890234,1.563185170962233,10.338449134201392,3.779264626631024,-2.6290077378579566,2.510029212789336,0.307155142315815,1.961923703809071,1.085819145468161,6.0369017444490005,1.9235354648179257,5.2705117719128864,2.8379790627116845
2.164416277098302,2.88027583259863,0.0303947849108624,8.625118998776435,2.0399311232062023,-1.8279811895907148,3.9127128568565617,0.3914474991402743,-0.7571585462331658,-0.9670184781079714,5.844934226863465,1.09212987202337,2.191384435795541,-1.4628041280008992
-0.6053217203033623,-0.4542191894651558,-1.6458738389665142,2.9780457977919523,-0.3531989331611056,-1.5064813030676922,3.3829113249599185,-1.247222368866379,-4.270425463956326,-5.99878771943394,0.8994476826979296,-0.3331529394998044,-4.17098804657699,-6.42338278451387
-3.793106698219566,-3.442909766695128,-4.184171860307933,-8.405059376280796,-2.099083052036787,-0.1332334798926019,1.2778579218477732,-3.6076340680916346,-6.009317325733501,-10.718069048818448,-5.728614777813997,-1.183020494841038,-9.986307616538763,-10.26741108857933
-5.534464247973857,-4.360245481986924,-4.540397194633327,-11.620203594240676,-2.2070747048809096,1.254517649236358,-0.4039483196949667,-4.620359182328448,-4.271152436640981,-11.223697297969068,-9.215397771379171,-0.6099007728221109,-11.342314544259589,-10.32168096010184
-3.6480785880228663,-2.3229572582464666,-2.3602991521571925,-6.43290148194334,-0.5610272919269064,2.6977055163168004,0.344582410486149,-2.59917234582476,0.4345684590652094,-6.196600875368603,-7.165466911897928,1.141601947239643,-7.155874023400177,-5.188997289720133
0.9501197876876896,0.4127829716290129,0.3907732743584476,1.4664911064782795,1.998034902000759,5.209051738894355,3.742814345208563,2.340469841984728,5.710158212981699,1.806760058427752,-1.359129682180371,2.9090125456124096,0.0571845870038141,1.9464990100174837
5.418291155287222,2.424437641786904,4.534098561172079,15.446430251567165,4.146703583537675,7.288544365724794,7.8752468446338915,8.08663412216923,8.924271482253458,8.166798870389325,4.186640991266577,3.56483894760158,6.076925808259704,10.484726955559484
5.990450750443531,2.526108393390435,5.358121248985632,19.31108074265922,4.866126967457534,8.364803320290187,10.12632280759946,11.820411507040152,8.900607089772151,9.666328797613154,6.68867359271906,2.873920924748204,7.982617674640647,13.294522214926396
2.203505527954379,0.5624090680413902,2.3108285811924936,11.72782456796889,4.053854239890067,7.723085161328015,9.153978881884036,11.85787684386337,6.456661127084184,6.679860667247147,6.416209234036023,1.5168119841024317,5.965261117184387,7.872694050604261
-2.2009544246677377,-1.0188165875789723,-0.4341695390388231,4.988878403879463,2.5288473990407856,5.733182509804734,5.740753715253674,8.673896302173564,3.547331931005477,2.303058221325528,5.619097019280329,0.3581632549660174,2.7054305832391137,3.049284980278516
-5.412194094758887,-1.1541680661972,-4.047030031503954,-4.792333253368841,1.4106183845254243,3.189458946183228,1.9342642251419035,4.407757037509305,1.7643248980744817,-0.5884883494656816,6.032546070663587,-0.2777834497970231,1.0057022286977515,-2.399260339783132
-4.871018668647992,-0.040246568952845,-4.643052752939027,-7.172005282493028,1.3401456699674914,1.2476945816499458,-0.6100480088001594,1.329169791778582,1.3212172677936809,-1.5468149782100546,7.3772352863574175,-0.6606372676340413,1.6600416690981774,-4.7297238622728415
-1.0833101472290416,1.2334665092960484,-1.343471247652131,0.0977768336276412,2.138903824544098,0.9655615031268888,-1.60769174232227,0.4624257711170703,1.2208520942597598,-2.101271824420264,7.969509032189947,-1.1030463984348875,3.217557483216737,-0.8223253701158251
0.8665465534962501,0.969999142609305,0.9316975049129504,4.155458273121561,3.10600716963024,0.6673558222177187,-1.7744986645059946,1.298105201141313,0.3773306271124284,-3.4240881654592883,6.549080200139722,-1.4649773627730234,3.64467541229684,-1.2901515584298855
1.5518875986714116,-0.8733845721105398,3.2139640106884286,7.712403250603174,3.591319841608396,0.1775969171951402,-1.74536958780216,2.5825039153147573,-1.2761587455993118,-4.71083955254684,3.5455175771699032,-1.2502738052254152,2.289926856711059,-4.044368276172095
1.497802818865237,-2.444584750725292,4.33062199845145,8.873563826709756,3.311984127226612,-1.0923950577611965,-1.4858813856810595,3.3829112312307936,-2.638120862359525,-3.99653869560653,0.7526627451195935,-0.1686907704351394,0.3843178162043408,-4.672049484876843
0.9458043023317804,-1.861085488023479,3.4084677316340044,5.482970343823399,2.250841841604053,-4.2517911953938965,-0.7290592247966909,3.578555475679497,-2.3747165170668607,-0.4798751472535922,-0.1457364419933657,1.4485487754561626,-0.2658335611083906,-4.558639421623335
3.157465680369543,0.9246523537232866,3.143423663493707,5.374187850527009,0.4519619502939767,-7.649609367278146,0.1909803882742871,3.554491897151024,-0.1303851496145895,4.213052084634312,1.1515255045398387,2.8138827013839203,0.9625955955690816,0.1852424911335851
6.064655974338691,4.702868969754402,3.033197583271226,7.7166321437212755,-1.9404028299891785,-11.450881899092597,0.1898512070459972,3.5632608807373325,3.0334074656942347,7.282930817428562,3.5233685869263454,3.256650564743788,3.009089463094676,7.648137827918426
6.008716105106849,6.282369888270844,2.127041129747326,7.453610138958972,-4.474191459135305,-13.613233623048824,-1.68308531966375,3.400030977061106,5.331377470720396,7.292142684615127,5.489440203880785,2.657259771204046,4.2624767001215575,10.000488333026231
3.2496058834898705,4.0502379764905,0.757292072259856,5.690903868375998,-6.409355433590372,-12.322479476809956,-5.141507256639557,2.646993476061975,5.4815642544317225,5.34306369069129,6.286170942186127,1.3992679498296745,4.051211720909167,6.08002227249182
-1.097999237789126,0.2961375102535716,-0.4773979004938714,1.760111346728478,-7.150107257914225,-10.44419762945778,-8.515959010227506,1.1998172490146564,3.4974128926294017,3.6813544814447146,5.97338897273109,-0.0003501987562879,2.945964901738932,-0.1333746039755307
-5.910900576540705,-3.5662487877398856,-1.6158797426350582,-5.234702995433096,-6.752362903163468,-7.08922028933683,-9.875954662044784,-0.438974123089368,0.5367004833920965,3.2423065271181177,4.661912979504921,-1.1786910007274798,1.703347252189097,-7.167119489966947
-7.341455192744953,-5.374517853521792,-2.310317097130296,-8.067360928253857,-5.963006066579103,-4.257042025501222,-8.487343215446055,-1.3898673623986657,-1.939277874950468,2.774446035496613,1.9231006423642043,-1.9402211963606648,0.1825989600332525,-9.47185424148132
-5.19005804922586,-4.333668731823465,-2.363714315697764,-6.641820834560226,-5.64527387524957,-4.140817013880303,-5.320913056967321,-0.9973640283431592,-3.044132413185771,0.461708217066183,-2.7348391350333383,-2.155567122646177,-2.43760948977022,-4.837953600217496
-3.896596028081509,-3.549781248442992,-3.278054564547233,-5.185691584907454,-6.053912321257034,-3.1646187827939167,-2.2177052184902704,0.6536265243162,-2.863327471409843,-3.733559161395496,-8.676231922092771,-1.7847714455777737,-6.331593724668725,-0.3130213794933546
-2.6740433364813487,-4.061759396486095,-4.999723242885051,-2.0919203314108885,-6.597343500037093,-2.153399141574701,-0.535057805790933,2.7158094818003518,-2.229171260039044,-7.5701457436522785,-13.608868294943386,-1.0314708075386685,-10.129820236096595,3.169161542314285
-1.1293536268561977,-3.832949281205564,-5.120874020616393,-0.9699121439238766,-6.298436914027262,-1.184059390951437,-0.4376544851085882,4.107587604674428,-2.065294009285963,-8.48516132899858,-14.71075408687294,-0.3983430673024433,-11.661737910706115,4.084234698058107
-0.2058544390450264,-2.142604265416879,-3.775683610133218,-2.4570549329277847,-4.5651930444310045,1.0200259448561737,-1.227181934958282,4.2248339569903886,-2.706953811346932,-6.042332983462654,-10.823024078028538,-0.457433646329298,-9.825560030301968,0.9811058276766074
1.952061217101617,0.5561899808851001,-2.0426067886640094,-3.3587637602525904,-1.6587033737904076,2.861637380723838,-2.115315103328665,3.293249684339176,-3.660472069216796,-2.4022406919773163,-3.862032902414132,-1.4241467236297425,-5.776376343020289,-0.4889557354515784
4.918974674739501,5.863161703724767,0.5692581657254671,-4.649101932531443,1.469080373401216,4.624932947557738,-2.633507597919048,2.0655172626742684,-4.029586631549993,-0.3738877737497635,1.9944920954723024,-2.864466485279909,-2.1611503098350964,0.01574674332274
5.249584978871849,8.78727208503615,0.869051845876276,-6.136413170257284,3.798601006648864,5.756683760243112,-2.504857718705692,1.107006134342028,-3.3245421480684807,-0.9861378909335168,2.974494486053384,-3.8369602318263873,-1.0016447168261746,0.8543116708769786
3.2453210227398914,6.284274853593027,-1.5006208273709003,-7.488997126590586,4.845373618671776,6.020961857083373,-1.459704038644202,0.3048959799288415,-1.967524728316312,-2.8487254829767754,-1.7393961691272872,-3.4787565416979174,-2.1494827536556365,1.922007995773639
2.0958798418053,3.832418252888084,-3.4248357640247598,-8.528514316669968,4.821878079679518,6.203655086314808,0.5616765727843132,-0.9213008479676472,-0.9771251137313212,-3.695856360965125,-9.481551282861394,-1.6820066317822249,-3.682017556806066,0.799972856294507
-0.0022706693676389,-0.9092756451982554,-5.660009194410252,-9.038430642920703,4.2953165796419785,5.346996539275846,2.9915395091553467,-2.875520069761984,-1.0365137055785631,-2.4564783277422557,-15.879484798417211,0.6467283409442213,-3.751080679342969,-2.192364667515821
-1.5406763861698731,-4.741320270743724,-6.73132704302811,-9.309796030309288,3.670315584077898,4.770962974640134,4.610040630848286,-5.035052098008161,-1.7822240674708762,0.0515217992227841,-17.51798588443167,2.0352810641761714,-2.091003552861297,-4.115319794059287
-1.0168476473502317,-2.9245109590423697,-6.060364245701765,-9.183747681679412,2.955299632578062,4.3668526917176775,4.238890611990856,-6.30790055308148,-2.035433623216495,2.161412137148251,-13.68140029514951,1.391335315498546,0.1104892894218725,-3.734639221531263
-2.1118347730582494,-2.226222039445628,-5.56321514774506,-9.198515415279443,1.9914887855638843,2.7756347928755485,1.7138660579925964,-5.961515887048031,-0.8608063190610848,2.874570535074079,-6.355528611502697,-1.1988163231967084,1.5769414983276384,-1.2120232976905478
-2.406072559432739,-1.0589591155016669,-4.727973938986041,-9.390642773666874,0.8546784515199652,1.5532203532091085,-1.761789299401788,-4.392936529615716,1.454753318757278,2.424208709790194,1.04835925877308,-4.436587494017653,2.011285263537533,2.4616466556567
-0.8614690438049464,1.082254177734303,-3.754129669258846,-8.364827443501833,-0.0576209708964745,0.5049152600613767,-4.379685574790581,-2.981813673307151,3.408052288480689,1.6244179276554238,5.280488914377542,-6.627451570012507,1.8691406753510356,4.702043555586788
-0.0409539113645517,0.0499461959531116,-2.8815672606636067,-6.142083353174057,-0.4131112314304646,-0.4829726536447817,-5.100958276231279,-3.0763063475079218,3.352891833561527,0.922152727278204,4.524159325408778,-6.781683852962025,1.3566997299577963,3.987442175261312
0.7216810523033607,-0.7159736335532161,-2.4425106663798264,-4.560395649226126,-0.4063705622539398,-0.6007095823299824,-4.461170929788392,-4.952377077416692,0.7987824096386289,0.1473208845845635,-0.8341215345914659,-5.2044943899479215,-0.0009687970055152,1.3729748338310357
0.785124086423572,-0.9153967400539624,-2.640426402466755,-3.430906006247484,-0.7254781350116084,-0.8894064560037437,-4.003532521740056,-7.614944779500261,-3.12855897846163,-0.9353520189529896,-8.135535605294294,-3.172276193540932,-2.6214037865142714,-1.493323283533882
-0.4303943380353284,-1.495444610688344,-2.541994382507895,-2.600364787927464,-1.9276798146163496,-1.2090001438023354,-4.765018696386149,-9.567928057047622,-6.455323386224093,-2.025292440954145,-13.446775194513382,-1.981304752678295,-5.814058202253793,-3.2751636236698607
-0.955409098448031,-0.8835884012297641,-2.27149201460772,-2.4622398641806487,-3.792449798815912,-0.8426619098411801,-6.195619190328998,-9.873623240979535,-7.739477024880557,-2.3689815108377674,-13.606383433823806,-2.0874907443946897,-7.78160067692648,-2.841646107790549
-0.2341704302294678,0.5885914562227474,-1.3681321618859017,-0.5390388030658323,-5.335859000053621,-0.4670364601343816,-6.584604536762392,-8.657327944109806,-6.948355173790002,-1.481506943838056,-8.314020615190135,-2.919532260918973,-6.971337029862145,-0.7452544845310877
0.6054817688121172,1.7295103028552226,0.39729172287206,3.2515527768964385,-5.551275730725596,0.3099669793502442,-4.669664287590021,-6.762293777286738,-5.170740358868738,0.2516125122190944,-0.6410049384959855,-3.4081099136089423,-3.5541581340420567,0.5072859933967735
1.176568538663433,1.6428620701847376,1.3798868763964485,5.617160177695685,-4.2109279555869135,1.1374609110523404,-0.9303997432428774,-4.976822506701971,-3.520904008320357,1.770463354038692,4.875489542536102,-2.7787010624936697,0.4953493553865993,1.2487886749234784
1.048380609063602,0.8646717554175375,1.6647086019803117,6.943261356209349,-1.9914559124287237,0.9734906790065688,2.6872215293341144,-3.525296488191618,-2.271078715858673,2.2223428927729287,5.461699892300056,-1.0434855105411027,2.9300696507131523,1.71731790241037
0.1898046488726762,0.2954775553515113,2.412279126728204,7.544179767924966,0.1398845772889023,0.8132025016970694,4.386831744964973,-2.180681528966322,-0.9573578160830762,1.6959816174047957,2.161883585093274,1.0855147318139142,2.992001322768433,0.6609260893544363
0.067989350263675,0.101540721920553,3.339326400161742,6.751620190156715,1.6381377023162536,0.7350435535170949,3.969157282935768,-0.7745113933574959,0.7748946326364887,1.0752385283930552,-1.0975161992380418,2.720155001114936,1.804536940800637,1.3228965517339364
0.5437389146480541,0.5405247751596436,4.148950632351439,5.979305654509787,2.5382707938684126,0.0930825225130244,2.794003209330856,0.4400086669091845,2.5243884474231613,1.1411572620307506,-0.7889954609364382,3.363818805682653,1.1525057314424618,2.0223111089993893
0.5372214602829146,0.9589083136724024,4.978744366661241,5.097575727312494,3.047993510545748,-0.5752318159140272,2.376172288237753,0.927723911145871,3.3650634873763243,1.8199282326727555,3.322715854007376,3.168960587602289,1.9159781038536936,0.4771817128087683
0.677797229978569,0.0732159481134293,4.952115223230183,3.94611244343356,3.143293667338642,-1.4364265454506435,2.990273946918622,0.3752273631799201,2.708464300270596,2.337444367764915,8.117547747292104,2.767197962530653,3.583634870889973,0.8944596564302321
-0.0096238672926766,-1.1125499613910823,3.960926975369506,2.800604929130933,2.643619556701888,-2.9739381024172307,3.5467184411124237,-0.9267341909876774,0.9249593522199596,2.091921023194776,9.852706097860622,2.804265889687923,5.054817164708883,-0.1484042201155693
-1.2452116364105317,-1.3503862405557157,3.7457965263930553,2.573387474439248,1.626806567261684,-3.634123368141752,2.747404248853462,-2.1989674389084364,-0.8713125592887763,1.283177900921897,7.26563544995242,3.4610562511062897,5.708664526766379,-1.831131253527856
-1.3897807291740587,-0.9383797270485296,4.1844532264321215,3.4646312760568634,0.6159260899471133,-3.234733920219725,0.3952815633392736,-2.702930216849612,-1.6454752664344277,0.6074321291517117,2.472100498508997,4.270995993139632,5.692523766251929,-0.8937728838374166
-1.510374025103404,-0.2257129158625211,4.48774209273206,2.4399230750245957,0.209182985164694,-2.9159513339977066,-2.2981371382001274,-2.230427000269696,-1.1244183373767314,0.3942483540074315,-0.8538996921971549,4.425497621073584,5.398604371260355,-2.5819856868281548
-1.5310399690671488,-0.2304061229429439,4.988377823828452,-0.4301032638392698,0.4774169568854491,-1.7658283778427917,-3.615836698946097,-1.1569939462188437,0.1871955522448809,0.2468703332601398,-0.2835184480650383,3.461173273901117,4.943122872423029,-3.818927759916427
-1.0077699771240685,-1.1641788429974482,4.580635408546311,-1.628441420854104,0.7908902787535235,-1.1722443931550626,-2.6549856541220964,-0.0678945329213016,1.551722945273684,-0.2979602417569085,3.8154333210779807,1.8447472986030151,4.274223788125855,-2.648226923662663
-0.6430305194616588,-1.6841699141842783,3.113290858859668,-1.5954553375546476,0.3580336695021504,-1.632485863902021,-0.004989828570882,0.6863044018778339,2.5753913140172395,-0.8374880428856333,8.86314027615932,0.851644695308702,3.652812874706946,-1.4351522666361527
0.1520664359672306,-0.8009354257690308,2.0830616448760617,1.564137136216055,-0.9853009434753002,-1.4037178659879517,2.7136554707092406,1.162076816818492,3.354738353154445,-0.177480030593629,11.963412694695425,1.583180145190316,3.743910335816283,2.4075241902462574
2.1186375377417552,1.88379450440365,1.26264780230115,8.784863615821196,-2.521056042986861,-1.68217959293697,4.061950491681422,1.668666040369093,4.127003913829329,2.283742377535898,11.620559411462374,3.803679717896304,4.992609837198241,6.553964246313475
3.521623991456384,4.300237878090977,0.7837292069618021,10.78640356780408,-3.238170356629837,-1.2265201150670897,3.801900103516669,2.4802768552799965,4.771928830548864,5.1673090957181085,8.320241556880951,5.724366374035448,6.844383271705124,6.5392003662646
3.0543583155122302,4.024550718084477,0.9434485199717833,7.658327812944451,-2.7394266886149703,0.9231341280414054,2.9369548339642693,3.628217676529322,4.679680032489376,5.480087469167708,3.943281706393594,5.245800249440859,7.725751101064121,2.954055410645414
1.2727804518671664,1.1951635678401142,0.2545891137524654,2.1831992536059004,-1.5924778762159946,2.776365664894856,2.764560665226361,4.870912662889058,3.2547333733347665,1.01185552683188,0.5787962876523123,1.8093381159322528,6.090047235713225,-2.179430947457248
-2.506894761349609,-3.69385344303652,-1.2399487831230749,-7.8638101002432785,-0.770963047842578,5.5083846029558,3.746944686665721,5.843395538932636,0.7306628293718118,-7.127544948717798,-0.5638360910719973,-2.8167496874976594,1.803673245092698,-7.962996098034286
-5.379690631862912,-7.066043527182188,-1.691688181612239,-11.658041723197623,-0.7244979145986576,7.394820232098388,5.164951891059541,6.32096433079735,-1.5140445194781007,-14.363925052126916,0.3878220797022429,-5.747352332023946,-3.3264290482595147,-9.14784610620942
-3.9965719747160096,-5.656395761264286,-1.2897410082532867,-8.568905908303938,-0.9860020915622644,6.899159364228358,5.830331494088071,6.4344434946070965,-1.7327190711944531,-15.618028599903244,2.3069826459810963,-5.292420646742234,-6.505882181933841,-4.177692782264301
-1.1592801669939845,-1.298319222765694,-0.1892036737812603,-4.711365391266944,-0.6914087998746066,6.561891965587882,5.176321882956019,6.621144064469324,0.7125919248124131,-9.249358544682822,3.902054625292859,-2.3193821292820704,-5.8249939763103225,0.7984871387730338
2.882536793555482,4.326302683121472,2.0070091673623613,2.5813267134427327,0.5138965346467455,5.295117350517458,3.725663943125963,7.247655383092082,4.468615753515056,1.3297968091270769,4.470301266201812,0.6009082245623354,-1.6760912189987194,6.867639963017319
5.952508243858632,7.689557052196997,2.4687762690785777,4.848172502546444,2.082348000498694,3.887130439106076,2.556435311052261,8.172440474590125,6.961809760757537,9.944298969016158,4.132482081859287,1.4575049876524062,3.393488332268288,9.772380053914612
4.23431029472578,5.749176701616011,1.0790196870407986,1.0515230050799,3.068246752685397,3.4220665123361287,2.335071852508518,8.695862464826346,6.434026408629517,12.141428738398687,3.541496885070506,0.3514321210879423,6.343227659347126,5.400435971757687
0.7646220381801657,1.1917553347750125,0.212203500836906,-2.546781802613165,3.030893842898103,2.018547356766907,2.8242337899586945,8.069307642953879,3.4940431968039998,8.25025042724079,3.360922593541053,-1.0090071185910643,5.61483018980638,1.081767444443393
-2.770940031938593,-3.003721878717002,-0.7302879579106512,-8.146638215612038,2.453100305972983,0.3984865134437975,3.2181871846686008,6.175609343112568,0.6433747756320773,2.600032886812139,3.790132887928312,-1.157612021088941,1.995075942036847,-5.279225843831941
-4.894214264350721,-4.704724294546412,-0.658657672864923,-9.401255711075466,2.2560505025969126,-1.123028700148542,2.846990140352176,3.7250185421614015,0.0390077566754332,-0.2457974251447474,4.301519763634646,-0.1359101337337005,-2.1818086040966627,-9.956249617827751
-3.5134777779976583,-2.684283327299549,0.8590691502525671,-5.2018346571967005,2.849625805886894,-2.4598495436238847,1.5623192999907154,1.7117826504207994,1.500350369623706,1.034403703378464,3.7918015863276207,0.9543816830117128,-4.767442525902679,-6.617097732128817
-0.0422589578737729,0.674639985801831,1.3637168904663206,-1.283484665111479,3.6194201622130464,-3.3949342792246906,-0.3931159514444244,0.6177186212875423,2.679510642908605,4.104458021246797,1.3290217332440497,1.3820468620133823,-5.102582675895652,-2.134874047733855
2.870009477536544,1.794183183759881,1.126936684313947,4.076429498655863,3.3889482883855653,-4.598062132954755,-2.6632051038881173,0.1466971711192766,1.3396514370052357,5.56039985267353,-2.762577190691662,1.5489076909258586,-3.997480527055915,4.504596114153847
3.3582658209263325,0.7446797882943755,1.2526223499046274,6.274503203302142,1.5221594762984,-4.623598329994613,-4.813721218959142,-0.2499589013714924,-2.3438327195760635,3.9749449842475615,-6.389082829493157,2.3307649858691493,-2.6417064608290577,9.578493937553835
1.5133871524426132,-1.0107067241090233,1.338824049248687,4.260333214343984,-1.301038830692811,-3.733385854366417,-6.203418270165104,-0.646109526587999,-5.664237257492189,0.8075309797638877,-6.658155569012784,3.862504061470332,-1.518849348475678,6.518114936702293
-1.3877805477014538,-2.5756891240399558,2.0738975373913875,4.433446059279419,-3.408310436309785,-2.922012583015462,-6.091438141155299,-0.5515251549492497,-5.683089279359603,-1.236823332560972,-2.105808409581704,5.195322806821849,-0.2432504341284733,1.7894907244781022
-3.118491495498004,-1.249081225575411,3.6218491441999614,5.640377468218613,-3.410397796109581,-0.4115451439455033,-4.137398933127397,0.3821516558142726,-1.928241573920756,-0.6133886853651429,5.522899578104928,5.223773226633217,1.6955935814924867,-3.3460694068583035
-2.5093269059018177,1.274765445782906,3.992134121866135,7.083395591079965,-1.3931849720199114,0.7322118205940585,-0.8977584756899137,1.63507732134582,2.9742353261168155,2.002878417908203,11.82376418852886,3.865596227804416,4.116831704486913,-6.346550717578
-0.6969792526330814,1.6101355479951414,3.248157084980681,9.770785244716873,1.0537090160594715,-0.5591222139111853,2.276192154515231,1.998602687222764,5.390058728450075,4.602620456764065,12.732504551583624,2.214044150949582,6.08411063659835,-3.425571605948483
0.9415425924920297,1.3465506220895125,2.4937455059943434,8.885815683229053,2.105544361659417,-0.8017190119741792,4.058450931676742,0.688423803907213,3.70674013590136,5.570309077023934,7.763450554788243,1.499161477645508,6.653158133725697,0.3684956362088163
1.3863570172421775,-0.5047552730535202,1.3274075787217088,4.2307406631911135,1.240149258923502,-2.448681717337096,4.073482828422604,-1.651864796868594,-0.3337085618453681,4.746822224780315,0.6825340888631573,1.9391330070913064,5.730937140389029,2.5623907846269094
0.9051675417872436,-2.4434076506889757,1.0773471816725448,1.8667576675011777,-0.3061764571045042,-3.330532546804924,3.086366129418653,-3.1903910092446037,-3.1425761512839774,3.22036868225927,-3.1969009305739338,2.628501605539216,4.272775550973726,2.5060341095775733
0.6629190203618561,-1.1066338320915678,1.964094407599225,0.9991277247089506,-0.6174667403235468,-0.7030443175361629,2.225647080534767,-2.399009265434957,-2.28682464869521,2.3449151920821816,-1.0001495763939907,2.497006668911819,3.647280802054249,0.1219787745555085
1.1813278240245244,1.0334048495444177,2.673300003607743,2.5709306225297337,1.1992943964712666,1.1396747506983826,1.9304460710890776,0.4829920639468579,1.5960160150394902,2.8367694063290134,5.6672866618662905,1.3110079610590244,4.665407770914992,-1.391167067236572
2.5748975947100594,3.716589676219064,3.5498568718333448,7.918469724127419,4.185042170296586,3.7175991998034426,1.6375150259660105,3.427770676282984,5.487187457906927,4.411414820045737,12.147952946897831,-0.2438098171450864,6.959403766469538,-0.7309315987778013
3.041640415459779,5.077382572471986,3.3081525537894008,9.16106176170363,6.314066615018716,5.74286757883468,0.534964693188245,4.191135969788743,6.4948981726995925,5.941295242074058,14.227614365605245,-1.3335228511796178,9.081630843076429,0.8337694234604818
1.5760287056208226,2.879440794354502,1.6537208327164734,6.477872021397489,6.200530193171016,3.9196935303875096,-1.3690280112015485,2.1389095107104232,3.974611528643397,5.964017269244264,10.793981042966822,-1.7017469429172944,9.246213297033194,1.8189492209612292
-0.1589665391171185,-0.1131107820938471,-0.2875450139963652,2.683053902616101,4.224987016448129,2.041358387214825,-2.999519787030316,-1.2797159371861806,-0.3391250367169895,3.413722745016244,3.846679292479577,-1.653468157948863,6.333101718089329,1.3448736112393298
-2.286406370951388,-3.670935986563918,-2.912750785696366,-3.982460741340187,2.107885658397559,-0.4137374585871183,-3.147610931448233,-3.793111924422048,-3.9411166837082607,-1.6453878822450658,-3.5510723010639644,-1.506432657640799,0.6481068064119455,-0.0339268730085287
-3.1475986279031822,-5.375814335595567,-4.711934050224005,-7.20729047389159,1.3269315785550502,-2.896491328320547,-1.7223682473435522,-4.143241090800842,-5.352147127023285,-7.724114874301945,-9.333005462491675,-1.2720504717508696,-6.041921491712001,-1.3310459783561586
-2.0087360776338223,-3.613787864949934,-5.453621992019797,-6.546775781012196,1.7696416742987715,-3.161205452400403,-0.0529126597307296,-2.9260165632003776,-4.776789767237293,-12.467203814551128,-13.023683288726732,-0.9382854917875764,-11.373801556395968,-2.031467316877904
-2.339909171745398,-2.1923851873787967,-6.725258907526757,-7.010809683126245,1.7974411852557903,-3.851546736620578,0.1553615601018094,-1.8692296761323748,-3.4943811878183872,-13.964527630362587,-15.031307132145203,-0.904258587703068,-13.738244547597883,-2.357816177925933
-3.6079600921847264,-0.7827522178508235,-8.152593153090818,-7.170552783213536,-0.3092494268161481,-4.754532502219348,-1.704775309161178,-2.3432936724224174,-2.7737728183127217,-12.010479841679352,-15.80632552173056,-1.8580118597668944,-13.20912095111472,-3.7859607491413088
-4.080637708825496,0.2698945023370355,-8.880733383421374,-7.957851411776134,-4.720143626213412,-4.883702402628568,-4.586415353209685,-4.37455434924234,-3.122691019193142,-8.303729054253232,-15.64297456286917,-4.032388103218793,-11.320051835055104,-4.344339033911182
-2.984269098722472,0.0161680831334728,-9.043240411087895,-10.039707816366947,-9.611398179965285,-4.684313724083683,-6.633489569131141,-6.784667521196739,-4.16752304487526,-5.267963124922677,-14.899050110555883,-6.601977979878392,-9.850612032195912,-2.145481169239238
0.3534816367936786,0.4483143925179531,-8.141288296899802,-10.20146662439836,-12.339744236488748,-3.838845196920067,-6.629669650331127,-8.123814721596462,-5.043668254073579,-4.321230994048812,-14.015577264531052,-8.01916861977843,-9.6408936993702,0.0187387924762876
5.4288436075526585,1.570974897699029,-5.942492370675749,-8.688527498342241,-11.36290750685422,-2.2624929866998067,-4.806093747859535,-7.644293094971123,-5.032093138507983,-5.004012463721822,-13.22631631809071,-7.196483081842206,-10.390740436852225,4.021014157423644
8.290461062030026,2.3625332343326457,-4.897913429026484,-7.879786612268632,-7.420089343066403,-1.0967696686345176,-2.472753338926984,-5.764033191817691,-4.108721247723824,-5.719274874803762,-12.437437358758832,-4.519269868581933,-11.409420881011478,7.110091727726873
6.250758765851774,2.55006408727061,-4.993411851394028,-7.288281278214296,-3.0485826826449687,-1.192878136217381,-0.9837335554726224,-3.844302429414389,-3.0389851184889887,-5.403067919366688,-11.590645213017163,-1.7029690644943338,-12.380661063733603,5.531768887049888
2.430770959021386,2.393639335607081,-5.33875698876715,-7.575836540207407,-0.8053150922468575,-1.2349120140868988,-0.9374475648625232,-3.366731708749772,-2.8556067083306136,-4.550926741026163,-11.104082542290795,-0.5226440664823251,-13.364494411316912,4.600910934061727
-2.25159356611944,1.7333572434732831,-6.511661702162913,-9.21197302923859,-1.543129044723925,-1.231307591244542,-2.063735968985963,-4.869777559176084,-4.0336460305614725,-4.607961990458166,-11.692651458874284,-1.4735481826326389,-14.261226105553009,2.89349901564924
-4.949417916719224,0.6526644509887136,-6.3472343191204414,-9.291389136747537,-3.995102532492103,-1.695737426248003,-3.602852777141858,-7.322570471496101,-6.0257350271789605,-6.316181360208462,-13.524734962410152,-3.4858906714031743,-14.617866346668553,0.5848900393308646
-3.3177257403293674,-0.4098945469268659,-4.70155830066104,-7.946218364840596,-5.875106344206534,-1.5886281171054752,-4.75528635068207,-8.602863543587713,-7.606077049611898,-8.677698453590097,-15.579253389109232,-4.88395145510178,-14.17114555352514,0.8423040476758001
-0.6527585031040497,-1.0344936420899766,-2.7980874361231245,-5.406185161084078,-5.576017696289412,-1.501183788077915,-4.987884353006485,-7.037606836571149,-7.789383259777581,-9.647183450522911,-16.096309722215793,-4.72861863907804,-13.46628960184957,-0.1080565332958169
1.2602513848213022,-2.084071724780482,-0.0994863231793693,-0.9762723639140504,-3.2071697691933405,-2.1959368047016112,-4.208891415244104,-2.931092483497995,-6.566041237238839,-7.994381405746531,-13.957132696633645,-3.4385599029556286,-13.591151061105322,-1.7773549758367395
1.541391557065359,-2.6992341392980177,0.8908625017438508,2.064615827858185,-0.3186532236778161,-1.7190813809495098,-2.8176404529146764,1.320296248006759,-4.845179103319413,-4.59477804365745,-9.760994251799112,-2.272339023337457,-14.999876478528543,-2.7809192064235257
-0.023708594535174,-1.884286343374401,-0.1151044106511415,3.70479819126858,1.3504285214867933,-0.2483942613547193,-1.5363904190040536,2.924704926853904,-3.6751955264158287,-1.864874402047235,-5.492630779295327,-2.201393685390486,-16.57318001056068,-4.666617761771564
-1.831322585408662,-1.4126721113915846,-0.8772212569735439,4.714733703517363,1.1354640749742035,0.9451424319904386,-0.9973321777236376,0.965219815158754,-3.38896498411395,-1.7278757045565456,-2.952058972518128,-3.118805903542769,-16.07499116442723,-6.86484751468629
-2.312277654780334,0.2394929559712685,-2.0072672466302093,4.278530905831671,-0.1432097041579307,3.39878961356151,-1.2880120298533315,-2.706416379658859,-3.327694721150861,-3.8246746949115806,-2.28470086301689,-3.965289352099255,-11.841993256977153,-10.059922267383966
-1.6056707080060892,1.965328438125032,-1.784574522071534,4.602934391281584,-0.8295346256177591,5.443920521975223,-1.8041244037272683,-4.8412045084018285,-2.321351184871162,-5.517999331270314,-1.8666138722186811,-3.597224371588271,-4.223982096189611,-10.88135398484631
-0.660154654432167,1.2557497286507049,0.2346929468726221,5.665515659248013,0.3758785673431539,6.186476280007431,-1.6095442406077731,-3.3380663180054544,0.4282157920053038,-3.778388316521332,0.3801277917691603,-1.6834751644710977,4.586583174295344,-6.986266890454825
0.7649439177593877,1.1134110922048903,1.7472183571454802,7.642813539597659,3.523846160827629,7.886123477094089,-0.1205294122917823,1.1775279196746702,4.6533629688678495,2.4532823442339,5.311547833082251,1.040751845116036,12.18803887559378,0.4323030835537993
2.049599277648096,0.5406082644041004,3.223962758631409,11.122188053120958,7.408990633488957,9.15746633188068,2.389628464709295,5.997530857459184,8.982351827936133,11.207420424416393,11.779840096534622,3.3151648702971634,17.536516356742027,13.255611867268502
2.372839133124876,-0.6805559068315149,4.542512864520062,11.903075567175256,10.378972868117728,8.833481403655167,4.91120721540897,8.488329697317171,11.635540298229603,18.55298746268448,17.271266761794617,4.250303530643013,21.066935979154536,20.24184688670408
2.0010237791120877,-0.1798877036534379,5.332666952448497,9.936625607440089,11.330039563378904,7.917331403112333,6.417196773869222,7.868165723639697,11.473694442105904,21.06995243841075,19.519217220965015,3.900814558623901,23.48940507212283,15.042807489448007
0.7962672690327521,-0.0930249568648683,6.321183560514648,6.61740012825717,10.20405573428461,5.826971246329709,6.61709169709215,5.304018207567488,8.741561808362615,17.993069191966157,18.03397951303337,3.1144641917574027,24.676967963518564,7.251118658370819
-1.0301209086605394,-0.4982881470264012,7.359029280809734,0.908853961295226,7.772976378616189,2.214932887084965,6.084921458159922,2.6474580451943237,4.9896031384619945,11.533321893383508,14.49472837906406,2.8221347336040026,23.83573848075461,-5.37661160236283
-2.075538374415562,-0.3478943196751154,7.427977603184354,-0.7390360558065082,5.050690983608192,0.4600180799123786,5.633932807828373,1.15158705102672,2.1901219201340965,5.223290275882292,11.60969817618367,3.352207775258936,20.69759312969022,-13.286478870926366
-1.5631927116872342,-0.0727833644538435,6.525219856509273,2.1357157245072425,2.827618476287647,0.3486744419920877,5.540944500771726,1.1274632967125695,1.6296033407939277,1.5900566297836498,11.128281278531531,4.291230837076704,16.351450439080626,-7.27965777017101
-0.3895484760286484,-0.0798310648036886,5.456234659118836,3.6251767269346207,1.5183145286752795,-0.4484714331556305,5.407204372331108,2.360499974302922,3.302209282176861,0.8815710031961572,12.4927239806703,4.934483193257535,12.708039494968354,-2.500532774078141
0.7033664192089306,0.2419036514654477,4.009621424609827,5.147776236289359,1.1514590404902236,0.2389959658486178,4.794281772155042,4.486266403843942,6.122028621265166,1.6116993183572743,13.3395299203602,4.888764203618251,11.05220816783618,1.2660421876257646
1.099854302381386,0.8139832836764664,3.291421680146069,5.162240250104872,1.3278965375622462,0.2538234509893123,3.912518745587491,6.922582204418298,8.67051888007936,2.1746297581770726,11.614399671602836,4.314292393854377,11.114884665988528,3.5908000202530577
0.2689038092622975,0.4198701702198592,3.5209103939421067,2.681585468098069,1.267260347143985,-1.0762068844237649,3.5172632870908416,8.718667535199522,9.911559742424885,2.035777914875009,7.55503833863073,3.661610305144873,11.560066353249097,-1.699098328015611
-0.8467640159613252,-0.257276687368257,3.4348715140010726,3.68458997783832,0.1983164632536649,-0.8328888419084253,4.037653832212907,8.857010141782773,9.507858862400631,1.650210185416423,3.707698186712325,3.2219532471574936,11.325532985266108,-4.267682463993999
-1.0017603680760654,-1.238766834168603,3.3291206887746445,7.856306816412251,-1.9674394923706624,-1.198916857329387,4.911488949190716,6.961887839803385,7.767218330056565,1.5675892563270466,2.8073694681231096,2.937579379380889,10.442439346903171,-2.636414767554164
-0.3457556841649488,-2.1739243300360185,3.4055767586467938,8.959414866600957,-4.2278945655744025,-1.5509094785677116,5.005906642237591,3.752655466798068,5.431159606507379,1.8399472684259024,5.351451280833452,2.614120505858679,9.623165752240006,-0.6645110704316562
0.5589184745841757,-1.904054184890143,3.5091941033756164,7.805326335111781,-4.938684033082488,-0.6302448549893412,3.824342738234943,0.6893031575137556,3.404904480958045,2.275148666341781,9.095742708572192,2.254393473216432,9.263431814730396,1.9500846599198305
0.8680108425947974,-0.5120994776181196,3.990048223547616,3.215560201392369,-3.0518522301898123,-0.4308698971404843,2.195822053752334,-0.9860011913553244,2.394299589908883,3.006185630367238,10.994384113187564,2.1133096796227164,9.048077949016438,1.794574621925164
0.0523499686598025,1.356543543459052,4.866038603841523,-6.23393588393666,0.772572731152394,0.2733327315815147,1.5394615737421802,-1.0011432455722833,2.511854384790471,4.487074776633996,9.840721295491695,2.3867246883163133,8.529008649353102,-0.3059311701413651
-0.6512883791135674,2.5309229977727816,4.903262333886649,-9.671885216855172,4.25921983525614,0.9903094013998835,2.323460540996958,0.0152716707467277,3.1371169388073774,6.767076483124697,7.206138213412615,2.878823754002127,7.859774806781619,-1.005184251679747
-0.2723043174672054,2.6005409845049523,4.076067106576059,-7.084991496527129,5.018531208401306,0.3010390916286269,3.3569177523034632,1.2485203402776328,3.294122937110528,8.87770731054934,5.846767910360036,3.0765786235077464,7.694409204042675,0.8552083417620929
0.8708047363187221,2.0086066407278595,2.875149833431598,-3.0734603554766795,2.399157256061088,-0.1009859581587166,2.8276013353424965,2.3151016502952206,2.392173921881824,9.235609554900046,7.060419608224503,2.653009274771445,8.27585707265149,4.73423394325016
2.2803288750626693,1.4388447059827931,0.9908114203004348,4.883231637903733,-1.8468569227318452,-0.8030215156222313,0.1570831249435187,3.247020485326644,0.7208571513478859,6.940363151793942,9.377927582248432,1.905359050934269,8.753855638353588,6.953880821398677
2.248417740157709,0.7726979918679229,-0.4477413329884087,6.791506434645395,-4.767408492381442,-1.679998237764092,-3.2476330689272253,4.020698001143291,-0.8406285715811954,2.77658815184391,9.710256219938737,1.583919589228218,7.611965394078755,4.69938433011363
0.4264107948215848,-0.0274921638031556,-1.3643330935119584,1.7694187013746043,-4.416101324167817,-1.5080181192902606,-5.235811331983006,4.254008454684758,-1.7401718709371892,-1.185394255104761,5.905625149241992,2.135629061576584,3.911290765640622,0.0895910352457742
-0.7873790257469266,-0.4458789066763105,-2.2030043769502994,-1.8669173448654544,-1.311944759382703,-1.603629149889396,-4.966677492942768,3.4456084360189667,-2.420219605028336,-3.211244652194896,-1.449862686067096,3.0583270055677847,-1.8247058492587591,-3.752931830020629
-1.134960139342284,-1.5199044143661522,-2.663253448471764,-6.454121436440471,2.001761385592173,-1.853941146424681,-3.675925704447892,1.504484584709061,-3.948524417596264,-3.313269717301477,-9.38269344765906,3.1002613632707003,-7.908735539766523,-5.375472669183099
-0.5944290201641905,-2.1319618461694816,-3.668663734608107,-8.680452063919644,2.8978388243296624,-1.8098543299632297,-3.3385828840210614,-1.0003290820040167,-6.807792873434057,-3.1046341499673407,-14.61912368125739,1.2932236323003892,-12.638072230915334,-3.196287167698949
0.2309704336469735,-1.7872723833834396,-5.264068838303239,-7.243619617491742,0.5441961589351063,-2.282533549014733,-4.59768856665294,-3.147383213179204,-10.015853542218828,-4.191758046042323,-15.72980986056751,-2.0615824610100297,-15.230933325181596,-0.5558004493884361
-1.4156617229829225,-2.6865006422556927,-6.785496972924828,-8.794457789701328,-3.6516892501759166,-2.817458470404617,-6.114133084263331,-4.260391092602712,-11.627369643277143,-6.6155813321673,-13.823283987973468,-5.429282432151782,-15.8763969612496,-2.125251642330994
-4.576246537856527,-3.044809502861772,-8.435634109705934,-12.45256958710672,-7.172715291384308,-3.0798526461579625,-6.01626517529366,-4.292847690160208,-10.385947452612754,-8.826971999671798,-11.500530974935746,-7.188025081414992,-15.174493095637208,-3.997327103921727
-6.008363752014399,-2.251804640719106,-8.499351058110012,-13.38068261314746,-8.097135194993932,-3.7687675368455102,-3.9350356345247968,-3.7449019055457216,-7.04176235179544,-9.20574149008501,-10.990448138906352,-6.915284762634408,-13.705638987056076,-3.878222932230229
-4.167168085649525,-1.2566983659903446,-6.731367453076551,-12.385989076674678,-6.198018723616205,-4.74925152386085,-1.5035768345152194,-3.2631379468188983,-3.96920513683274,-7.6462460914322845,-12.766648070518238,-5.647562032522829,-12.056959738411605,-1.8633096898874228
0.1430877442022422,0.8929485117810698,-5.769058123046022,-9.734505517115077,-2.9162293613973533,-5.62804768326807,-0.8072215139914025,-3.245200866571288,-3.2533452292364817,-5.698180505641039,-15.44449400225963,-4.869254736867436,-10.957725861444407,2.967366130193008
5.437030330960971,2.800082565732024,-5.271826521871758,-4.515489600015967,-0.4407417359125034,-6.918596509514496,-2.3817435878285407,-3.658633305963328,-4.927952129491784,-5.169460970106101,-16.851257892153875,-5.167194061031884,-11.046468603459704,5.599464136555688
7.858915192066412,3.1271559652638614,-4.764112114213673,-1.5954403517243494,-0.4649962833864425,-7.1825742014059015,-4.77069263639771,-4.110365113203041,-7.003150537662201,-6.540945993099431,-15.458747828288152,-5.788652469118816,-12.317077821574836,3.50309827310725
5.503738130171027,2.7734173863287053,-4.731832970780599,-1.0676585523230326,-3.1820360611644425,-5.611711572796457,-5.999086678708833,-4.11634290088676,-7.279948594583342,-8.619622601416866,-11.247445745028456,-5.464579561867135,-13.817926239231385,0.4649989859325195
2.2946977366586965,2.649400464585476,-2.4745895003178098,1.2566276583005491,-7.002031471193485,-3.7541490024013418,-5.386653226881055,-3.4616175150363078,-5.278517950298051,-9.609442120604214,-5.5491961717624765,-3.661920427612401,-14.076315134474449,-0.3922031401871234
-0.3987307028867483,3.057427612352419,2.157613510887588,4.431057765353401,-9.304044787219963,-0.8844667977522351,-3.909397793396352,-2.4458688825514336,-2.5390106652852467,-8.524895939211678,-0.1413492363200035,-1.077477480860125,-12.061250118920468,1.8708080399368607
-1.856541956129464,2.7398270756585448,4.258245953146271,5.724584482633373,-8.034175987470235,0.8187870582548274,-2.930955068185177,-1.7913808354615457,-1.1321528199814068,-5.778669423018719,3.675127638982613,1.0174922318736392,-7.957777640123531,4.563921847219249
-1.5829067285296723,0.7939374377399467,4.143564200381546,5.488001316865893,-3.25215068936366,-0.1239540832772608,-2.782961495451495,-2.188532094495141,-1.86626361749304,-2.7150135027360136,5.421984452680597,1.8512923911441133,-3.141466275204788,3.087557467298905
-0.8997349339994503,-1.425803768398921,3.3558258477848084,3.55903103377548,2.570746875414521,-0.8373514897210967,-2.6598048007267607,-3.769121451296748,-3.817187003431826,-0.7328939317997651,5.207003620936412,1.6011080205718995,0.6131423373469076,-0.9983361004460498
-1.5667975204277602,-4.598705013418955,0.8636121002318876,-0.6891951387584014,6.021791553404327,-2.522075214541821,-1.7619639353982777,-5.9217903236443306,-5.403080277713869,-0.6611729998856148,3.3797656614512874,0.9189895923041432,2.0975421704960624,-5.633340050815401
-2.364988801556404,-5.698520616999963,0.4705585979693648,-2.1949474220051446,5.1343371946555365,-3.4164775160027103,-0.3039828228354082,-7.623941726085725,-5.768640339530698,-2.4959020903332174,0.5005917540479317,0.204005206849331,1.2007852921236335,-7.082559481611558
-1.6002962387707176,-2.958269874690376,2.427441248126133,-0.824158816908236,0.9063373044914442,-1.775076700794437,0.7239916210735373,-8.062015295947745,-5.149177994000389,-5.313169089338949,-2.459990347341787,-0.5509719984162018,-1.1779269750360726,-2.654316476628501
-1.2872075397771297,-1.1898468601123389,3.2034375804096213,0.7152655810898207,-3.350727581273375,-1.0209753489742797,0.6928091817305386,-7.104857051463483,-4.110247874133769,-7.415827605819153,-4.168563831643283,-1.278160065804144,-3.6231851283796734,1.3698270684974037
0.5178303893961187,1.7456563434841337,3.598510525408376,3.613230824982723,-4.438315441771941,0.3787045572795956,0.038970034599032,-5.336820492263335,-2.7224994364010726,-7.006525866767646,-3.52880402169707,-1.4523140062274464,-4.81028758253413,3.6557302493222426
2.492056774902092,3.901095299062543,3.49723192615923,4.685312995813552,-1.5872719757056115,1.8424550128966224,-0.2507025875994628,-3.666613364425146,-0.6362763138065901,-3.3304543592812834,-0.5218102905040851,-0.4341375455642406,-4.046988926403465,3.3926190504050537
2.154755129997592,2.240081497917448,2.364274542571084,3.5283388619044804,3.158033559501952,0.945638937440706,0.2415633423255414,-2.756633763895316,2.1223279038462266,2.4640347863533805,3.466506110535285,1.733069757264282,-1.613256509898534,0.5836470090222715
1.7640556707256485,1.784053304427909,1.8712618246948596,0.7164499870132165,6.69499316797468,0.9558965653765212,0.9362205062630408,-2.596220425479231,4.688248174285505,7.668271413484327,6.325705816899216,4.007245235250899,1.30240704301022,-0.1539678685905398
-0.0027806826824873,0.0001112111999654,1.8893352779451,-4.760444279014928,7.21712772942891,1.0107955939424766,1.0192633500112152,-2.49782389204664,5.918914690938912,9.661518712802703,6.578367305626465,5.0456782953949,3.20063736441594,0.1928132147468875
-1.7712247829717649,-2.5606205043512658,1.6897833620152392,-6.660289528816227,5.269354190245707,0.3118808321683544,0.5276588692042736,-1.6003760929630602,5.488216090168841,7.774670608450592,4.420940228013521,4.357199779918233,3.185066199565924,0.922253307933038
-1.4683463148068547,-2.130452705994608,1.5687653080654396,-4.774033956866199,2.866674926204496,2.437714758546211,0.4841039290984099,0.3966330370071489,4.337591378950236,3.8816698175179374,1.6030053665414243,2.7558039428667627,1.6024905174370048,1.2363722354810784
-1.1477290353679526,-1.7668370856804452,1.2307984171736484,-0.2778864147372167,1.686267215206371,4.839529838710413,1.8368348465134403,2.8495053625889284,3.9126401530757136,1.1323065773695475,0.1959918873275228,1.5954464903013417,-0.1436415578125576,-1.157217544925198
-0.2962707300052115,-0.1169428294102828,0.6038749328744472,8.532214940185101,1.9229646669620024,6.328993230296932,4.312619600483714,4.584921318500307,4.877105122765116,1.7272643818919704,1.1896283182761351,1.5123024589966434,-0.5812551289102004,-3.869189745916943
0.5816737748705213,2.379993264347758,0.4552060579998519,11.860400071219448,2.5672234533367373,8.848633546359538,6.467277999976972,4.9111057317362565,6.57132555290778,5.419171538321109,3.961940895077405,1.9277639665428692,0.7447826439048697,-4.607014891860017
0.1142635029780968,2.197689383176157,0.7533644711577424,9.349661075195106,2.5587929545029766,8.861800439174733,6.986078216085772,4.37051023577223,7.743800524556107,9.84274514993399,6.9222877120835165,1.7860365385480748,2.9438474953732907,-3.2090166563967197
0.178284381981322,0.9620485669999276,0.9882621514178134,6.527731407101934,1.68193289808994,7.319487170812393,5.948727465890528,4.438303648459808,7.799710179739918,12.348269631513958,8.705355290612246,0.7252531505295252,4.478285741112245,0.9753721951122378
0.8665033289834495,-0.9250621316602952,1.3015419547407636,1.0883146201127687,0.5457379835654734,7.358157663218885,4.764255246477148,6.255934834747137,7.313650667926637,11.898159286966605,8.967729131074094,-0.539456221818952,4.320873489263434,5.7837073599204
0.9558128350320656,-2.5758618609110657,0.4574413500865255,-0.7168980644960617,-0.1032041762892959,5.970748530135655,4.821324445681668,9.443867517808812,7.323794945324323,9.617134562134908,8.288785364540729,-0.9819898163981976,2.646382649273164,6.653487549945711
0.6108273256330536,-1.7606367670883607,-1.7351003897794766,1.9756405946594875,-0.0144456208804797,4.260428634336596,6.172617891132404,12.105088420009466,8.145813532308111,7.665433800352744,7.42706631766643,-0.3461904836897957,0.5626521097556179,3.2125780032840767
-0.6473870111344865,0.1759284721236129,-3.623959452164837,2.2332461690884906,0.478259876750073,3.794958532583885,7.475343980865269,12.15263481654766,8.883495364944352,7.384691058619637,6.610407574265054,0.5714640921185605,-0.7984862037811808,-1.7810703570434043
-3.0598125970921908,1.6924140046172462,-5.488455265445835,1.4838180495357534,0.8464248134837646,1.0871318802388743,7.131046265334263,8.92775773198575,8.105492736973886,8.197573500689614,5.401438363142191,0.6762352974237444,-1.04388317173715,-7.080836889757585
-4.07878350121621,1.9092925977568385,-5.533773832390601,0.5568056940617129,0.8113422262449319,-0.9417238156263068,4.490586342535835,3.783724238516214,5.066820900021071,8.133275753067295,3.1880001028086866,-0.4400304624347768,-0.5889168037572006,-7.761861196052309
-2.479917123542917,0.4927859500066299,-3.279456467143674,-1.5545632867677917,0.4871003794338548,-0.607709517568119,0.1583589037009218,-0.8380815382219424,0.4147816261082013,5.546069520822627,-0.118191632581059,-2.2295568118138007,-0.1302377349511516,-2.503710592157709
-0.3543078035373845,-1.1601540132587915,-1.6536734830222457,-1.7597938673706484,0.1924465917327324,-1.378087319213437,-4.544840837828467,-3.082674259703012,-4.163327569977447,0.6115765869487149,-3.751933119868852,-3.7680038694722953,-0.0504187403749085,1.426316788874751
2.2666693755331893,-1.8940236352115096,-0.192785190734274,-0.0164329258011298,0.1730211055526354,-1.026891369103442,-8.22758062828035,-2.796064248729124,-6.999710733481237,-4.643774276814717,-6.458883176675258,-4.485776891562146,-0.1972545701571562,4.125305402241645
3.732689396999534,-1.3070315974885272,0.4137401925247729,1.237643172686446,0.490019251638671,-0.1090891208230536,-9.743506271504586,-1.300919180244243,-7.381481595859704,-7.798401085945763,-7.344765957889791,-4.354932811367959,-0.0914873610058322,4.296438218348588
2.7303242817628743,-0.042510886096474,-0.4405763555772876,2.597012463239725,1.109309249498445,-0.6071506896091138,-8.401355989240216,-0.1572348725079564,-5.750986180815062,-7.751231436623726,-6.549655719112614,-3.550967536763544,0.6670587526078293,0.7060573142992246
2.588503432052325,0.7529258611876979,-0.0970087353353643,4.865641085339065,2.001644089239789,-0.1870921330632654,-4.380359713886655,0.0193450589679713,-3.178288364284086,-5.320252146539545,-5.149158367027681,-2.1645037959255617,2.054774437331268,1.038408358030413
3.730269477319933,1.3536700339483112,1.1999840021080186,7.782944479709151,3.070815038504456,0.6183574477208883,0.9028401757788131,-0.2210822198276609,-0.6091653435549063,-2.3871351205669957,-4.307588815245168,-0.3398401413513383,3.5230027450631525,3.709575791760922
4.228187129083386,1.394177754617155,1.0178787251722767,8.487810595124204,3.975163116071186,0.7819407044439547,5.112771622615647,0.0616490923829466,1.5479780804817906,-0.4871491762797468,-4.385426629282975,1.427395244594372,4.261555426769931,5.000802796658653
3.3112544781592,0.570533106903409,-0.3146302943023887,6.790173385922057,4.125446072349622,0.5856076630509248,6.1778500249617,1.19243913950827,3.2812288615222727,-0.0308417278138719,-4.770223699592517,2.380829638022952,3.797296954768125,4.462399293837683
0.5255121943650872,0.0101012529222827,-2.1939158786261896,2.862913449760827,3.038312928685226,0.0999767010256515,3.6135356753571592,2.52426333275098,4.538688205697367,-0.5536724878567689,-4.543343085501746,2.0809997856924376,2.570931822847829,-0.2129704524516554
-4.628585700319211,-1.1173647185582296,-5.064521197495028,-4.199777758597206,0.8378972747522404,-0.5547928198547578,-1.069448925230733,2.993570410151298,4.987818374708768,-1.4323312207564358,-3.340309131229797,0.9097561978869316,1.8991540463019123,-6.379368626183015
-8.034122722356024,-1.4839045638147244,-5.566248390096013,-7.3686741321841245,-1.5759779283703157,-1.0153027743301646,-5.249953699419795,2.0774445771430354,4.252944282949422,-2.313273834893446,-1.6477559388682186,-0.1247006566889157,3.028647215771446,-8.905047745857523
-6.7332925210262,0.4354281837819911,-3.4221854165078303,-6.397068812620244,-2.984613287682688,-0.4495371300479132,-6.71752181973926,0.3346621274667951,2.414204029272579,-3.063464718780173,-0.3647649916933053,-0.2199164484931142,5.83700846270827,-6.41097633198898
-4.237683301510062,2.238378029018218,-2.4400571796404,-4.816413569828556,-2.675236278348141,0.4967393716910041,-4.777416616462432,-0.9284870958388218,0.2207113651490253,-3.5945316793506503,-0.0990293706808067,0.5248516385158482,8.395318433476561,-1.8565726179587148
-1.0351714520813782,4.082328440256047,-1.930988794141028,-0.9178153147087164,-0.9907889881525273,1.1999941019157414,-0.3819344255313943,-0.6327201503683071,-1.3254632083994835,-3.8594484032347296,-0.7695067148570516,1.2528374945252096,8.194482188009005,1.4719052811576971
1.3762076732899444,3.890673871189055,-1.50647465298605,-0.7547710148023014,0.8623148011585045,1.7725046041969286,4.516728454050654,1.1915876138591734,-1.74001482046614,-3.917653699338629,-1.7005523980614043,1.1994766823394798,4.383314217794911,1.736148405178454
1.1997765759036545,0.9473765722036052,-1.7898625825155676,-4.9557931568763545,1.625319858160374,1.7045366879558494,7.888109619436349,3.313872687812548,-1.459848658211122,-3.827800228573992,-2.0199070581932688,0.3976326211794188,-0.891753034179402,-0.2686279886921467
1.070290155227794,-0.3452239092824606,-0.1980630127396837,-8.61405942378345,0.8148133724221864,1.345460166854569,8.475796521801172,4.155596673470896,-1.3928614309281355,-3.4174130963479428,-1.1068320004351122,-0.4332771164690854,-3.5994501325624952,-1.5336925659961185
3.0721127407039406,-0.4012118688738308,3.320045087470429,-13.203786593645685,-1.007299039428155,1.0813042740712002,6.381481146049566,3.0261463907110127,-1.9293310140786843,-2.2623161786754693,1.074517294418058,-0.6126326327341758,-0.9259984790174868,0.7599521382406466
4.828122662643877,0.1721168677818429,4.87278183278266,-14.381911187312271,-2.658533275101348,0.9929853592141792,3.09634394606465,0.7917830517147308,-2.3562831863264364,-0.0486614019113886,3.893293586292401,-0.0361569891018973,6.101657019723362,4.542513622845766
4.2718025183379895,-0.1966940241225908,4.785217569141017,-11.193582378380356,-3.131357181260753,1.4032840087044898,0.7215283062594722,-0.6561817354764514,-1.3812539306261726,2.9651113985413105,6.331611121663869,0.9550988569578608,12.934048395888055,6.003901009141052
2.644967985660581,-5.825104157091086,4.592115297173625,-8.835509181459324,-2.245894527114885,1.6625121984435876,0.6055388726826862,0.1349141775322095,1.5431449036693436,5.868752208869978,7.537117046402258,2.039507626069081,14.872375996007449,5.190501528634395
-2.130181949502356,-14.381270447417066,3.5466678942057057,-6.146575937097755,-0.761861237006471,1.900833848242862,2.2933443418772868,2.887474488110925,5.277860434334741,7.562262436712132,7.305228569884932,3.0487034471047,10.846201780253397,1.5729454197757653
-6.181401241577261,-17.375513437319665,3.2441081855535576,-3.676262970458148,0.1321096787474971,1.5815948335079084,3.7554935450927047,5.573207321044961,7.45622497641844,7.401362602355249,6.14117176429906,3.6485146769180554,4.331487135700087,-2.5249575176308268
-5.240582395400438,-11.297368939906873,3.868522762712938,-2.233883724636513,-0.3417623581750888,-0.7086631897225536,2.958339303569033,5.792708278651148,6.1617377082769735,5.49212647446825,4.860564437259342,3.1591037691294304,0.4618606450406446,-3.55419599820252
-2.4658927620057938,0.8246733113405373,3.053176521270157,1.048412803413587,-1.9392418887094325,-3.4373040072105803,-0.3977132351091939,2.521924975312928,1.4650500683111716,2.437753727526271,4.015301520673177,1.0445771178141283,1.70803779813194,-2.0908836237627737
2.2698085097266896,16.010250485371838,1.07293374452343,5.903393465709493,-3.495734729492767,-6.540776777837784,-4.504439190143458,-3.12498473220208,-4.538740058233913,-1.1641341156646092,3.48714767630716,-2.262164699892594,5.833020889394703,-0.5235835947907727
5.404494721958159,22.056440689850344,-0.0234820546140584,8.041433686257228,-3.7493017036673,-9.125727143401395,-6.899446330546027,-8.644101294140029,-9.26711332382314,-4.9957115535816286,2.45375430215816,-5.184305905949657,7.881278674678981,0.2176805857751658
3.604968429622265,14.756284358849998,-0.5243869784504246,7.636463076374771,-2.3116884187004985,-8.69759610714344,-6.550087743280756,-11.733561917715122,-11.428663157995317,-8.860580253521562,-0.1859161941616776,-5.992396430264193,4.437554076262643,-0.3499608846104954
0.7017316426793017,6.821513157254277,-0.6236999956594643,7.172246581839792,-0.0262060585001506,-7.712927513139082,-4.689929353602167,-11.539176822465066,-11.533500961132091,-12.33004081098801,-4.976997757448885,-4.24541348205679,-3.5304555750762177,-2.896166972307359
-2.072805934207319,-0.3585749698216055,0.0819754281808301,5.787097213876164,1.6045339128290834,-6.649334873423348,-3.607813219204047,-8.841952265949203,-10.867715487789669,-14.631525411364208,-11.068532759253117,-1.3030207097312427,-11.56012306205497,-3.920051248029632
-3.323499425699417,-3.846077388941568,0.1211846419878396,5.3193271336322105,1.4917694664395924,-5.317235812789441,-4.504491448395584,-5.345149951578435,-10.095582627845914,-14.990211788813554,-16.131348494539537,0.7174745417064798,-15.31756091987222,-2.533412223734377
-1.5627488142106327,-1.3147987639746446,-0.4951635177094018,6.171989665032464,-0.2958577076491053,-5.975570127542947,-6.437667457056733,-2.694186312319175,-8.865550136080572,-13.185347506834065,-17.54651728188975,0.662703394795642,-13.763678003233936,-0.323669476748762
0.0372343219722842,-2.316350879106872,-0.3312936467085084,5.519982686930145,-2.6500778171445063,-6.604483934695304,-7.334579337796242,-1.7524560284961694,-6.632412839362246,-9.827175879665106,-14.30850683826256,-0.8316963658556915,-9.412624366888622,2.487590331615483
0.5367705115166284,-7.67670888415103,0.3722692292022961,3.7788305322452183,-4.221576952453319,-6.316014599763333,-6.044456858408267,-2.339767334487874,-3.636092845771145,-6.060925607394182,-8.091461476417521,-2.1210507754124706,-5.937678090872225,3.930194438481913
1.121158449683294,-9.958191432700197,1.0692627396480157,3.4172619943727507,-4.238776120746337,-5.879005709682152,-3.4163670684680767,-3.457745779390308,-0.920893791737342,-2.904086173510393,-2.265960286097624,-2.085399009913914,-5.432560391240912,3.427485603716081
1.2122212163124135,-7.591862519710584,1.96985478227962,4.151808427652009,-2.80391669043766,-3.465369215149236,-1.3982535195744958,-3.924706806637545,0.5866347315830183,-0.7421758438800339,0.5838774359680201,-0.9254880170254296,-7.404443908890357,2.2315810692285343
0.9503042242849858,-3.305526157946037,1.8166150394243992,4.841394303494943,-0.6307015516209162,-0.1352840794627196,-1.1205951544393145,-3.141647667527934,0.8963775617924057,0.6585283116320682,0.5210463889715129,0.3846326831031774,-9.73741660407086,1.3065425300659663
0.8862901537972315,4.623192828420714,0.4355606406810407,5.919069332265874,1.4281421248694244,2.985132683852309,-1.8565545518407305,-1.5101613797176583,0.808126111500286,1.7416634938456357,-0.2356856376581504,1.1913365294226708,-10.371513617338737,0.6201057428230369
-0.2630727092945047,8.725979469560942,-0.3190022030627361,5.631842787259719,2.731804779588714,5.054686100020542,-1.7840353138572596,-0.1357634924470687,1.0336232345489975,2.766618745046827,0.3254734327852304,1.5944723625455597,-8.428234109014312,0.0055875196424047
-1.711230306551617,5.120700807630581,-0.6987726776802349,3.712879331418201,3.004495615879648,4.185487350558052,0.3026475977744951,0.0403331054780267,1.5671330919662123,3.699529923826219,2.11163367499168,1.938575284470744,-4.436888136843862,-0.4365593444752872
-0.8428245135016531,2.3910653167063662,0.032747647226343,2.7223347585707924,2.367327676072705,2.055247657717743,3.961075476589997,-0.9861727455252948,1.8939132153604703,4.324012663356427,3.337082971870018,2.1950410640760936,0.0297079251475906,0.021566542120324
0.8182360879602567,-1.432824425420931,2.320381546644296,2.299338420593526,1.2625693631646868,-0.6498397591989767,7.537098749312918,-2.279198336295281,1.6516541254417234,4.38807396223217,2.692851186249925,2.0772348529890508,3.04622059216436,1.4482354560216617
2.342990856847881,-3.767016917852002,3.2830530932931947,1.2912885418111704,0.2160633997661705,-1.8098277868447128,9.442539144386783,-2.780380115591754,0.9451733894732116,3.7466257002926966,0.90983231071192,1.686457796118475,3.272866153744616,1.9914362589723384
2.749651227466923,-1.0169089019975752,3.073088982931788,0.0801816926370505,-0.4928016093982137,-0.0522268269498642,9.097856790613832,-2.252803743712576,0.0608862416477222,2.547182351021661,0.0343954407891828,1.70617321534408,0.8289830924342425,0.3105927627352597
-0.6155574184203046,-0.216784548339349,2.14196010007376,-3.3223988935146385,-0.9842977895730912,2.03636084459846,6.982358117241375,-1.478261657541367,-0.9071461661787624,1.3523023002178718,1.1846301108858626,2.662851638047784,-2.563852669794514,-3.969344743483123
-4.526982870227835,0.2846855717066594,-0.1653442788373181,-9.243434920723631,-1.530146166166119,4.971847297984793,4.118779535095129,-1.46780309866989,-1.9598529599244048,0.9542719462902624,3.1984378485188074,4.021000685293814,-4.5795964373195375,-10.07510501041983
-5.666343590343998,1.3882462641416609,-1.004404870838017,-10.863438205654717,-2.061835438163456,6.178646941060847,1.557152182521861,-2.3752350660580817,-2.7393033184843034,1.8541597902186735,3.7064610160257994,4.344591094786097,-3.885288212946392,-11.634321632434252
-3.7267374794448376,0.5216663412393748,-0.3222646674326196,-8.207604323966313,-1.9568126618924992,5.215333217505526,0.0467152810863922,-3.164463673530264,-2.383400675717411,3.819869613243696,1.6610645789593406,2.697741032092324,-1.0565897060386362,-5.7639643428377765
1.5398709617038144,1.2661402490076283,0.8040914402242006,-2.429722346277708,-0.4849902859517883,4.952798687681615,-0.2149725624059755,-2.455778480609176,-0.09456374122081,6.023870229820481,-1.22331607252584,-0.0623391758829612,2.0535352597289886,2.3276397593209754
6.604989388836444,2.5510656896035417,3.06240967030011,8.236507468973874,2.345803387461004,3.1579881926615823,0.2679321753690615,0.1398035169049762,3.972880258200441,7.727327543368101,-1.7130816046742936,-1.6626436531182025,3.9685864558443313,12.915067846002604
7.274135946794484,1.7425643549146113,3.441494499992225,11.638090160708195,5.345925295755965,2.0969803332738595,0.488506610093836,3.439350499654253,8.360280794925025,8.828387221635506,2.0010998974274976,-0.4433687882298756,4.71620920425687,17.062573344274465
3.6856602812070607,-0.0045779392110401,1.723731646509065,7.206410405938039,6.693346493289964,1.992196255778391,-0.4321914953989485,5.487255403066776,10.962279932834484,9.635649392271864,8.365271962907608,2.81570008139712,5.356847829075996,9.19750321631671
-1.7328125776623189,-3.047123049436178,-0.646130778600649,1.4103719701898794,5.192475828806213,-0.0939271939598465,-2.573113813095759,5.096296022227339,10.312971824018724,10.06077317692576,13.4230355435707,5.221757458656889,6.459460584322184,0.8014281018873625
-6.9804051987616536,-7.37263717402247,-4.457208217382557,-8.738997780185189,1.2351462012471686,-1.1615902372693383,-5.095536474675988,2.780445361209104,6.582834353399207,9.185720995122836,13.94821103563249,4.225408481427387,7.199974262990857,-10.573675338175642
-8.122818043388124,-8.26387350889644,-5.463470550073013,-11.83146202203632,-3.3583917254407254,-1.8641363819886907,-6.865748223801106,0.2793127165628846,1.568311811608524,5.922741214293694,10.024277474724444,0.0234473520548164,6.155936554695074,-16.81010073095918
-4.245443884355385,-4.38353057196898,-3.2823444259300376,-6.607363591400794,-6.488893613266754,-3.048029752838092,-7.319874899294263,-0.84654059066429,-2.3320560629867515,0.3426932539350105,4.844236600265717,-4.410720441739798,3.055974948355697,-9.313677753443423
0.715114910868214,0.8782867359377529,-0.9796296552409542,-2.115570723768776,-6.984676034867078,-2.5789917365502344,-6.808092633957671,-0.2949668802988583,-3.499578707260838,-5.638976412782,2.0111575907270094,-5.828938457297312,-0.4111675189079165,-1.9199787449583168
6.249110607464451,8.711341745928957,2.503012381258461,4.496691982747634,-5.018265898061401,-2.373478628530951,-6.112988788946808,1.0583737824210004,-1.980033618677908,-9.148492112130214,2.772614489324297,-3.5018932485705534,-1.814075113958438,8.241648304905041
8.503352392246322,12.287150475805564,2.864017272421479,5.36066968657239,-1.6794661857562687,-2.481858250066417,-5.60731297635229,2.1294223834367187,0.660859733756098,-8.33209930078965,5.456710482120457,0.2378772025251692,-0.2465528191785324,15.03549143926164
4.812556996286493,7.171523343274584,-0.578856234168739,-1.1889420178840748,1.6995439865816024,-1.1628721542317195,-4.871074205055606,2.5163966108431737,2.405894620823574,-3.8342554384364576,7.222307317924901,2.1410607050662804,2.5524362386063046,8.674741917214407
0.1214164425933226,1.252368403591689,-3.3144047570900903,-6.73640733743486,3.949951391467607,0.0189070162015319,-3.1734388454035525,2.6058281429184262,2.0948988917965607,1.527820815855364,6.292756163294428,0.836047796204241,3.479550596198692,2.2261979468241213
-5.292155733617781,-7.385310508374952,-6.426306016074233,-13.443070515417816,4.231142165810866,1.5254673593892916,-0.4033845008168555,2.9928073764021974,0.1262081763874221,4.723225339983344,2.859593539263301,-2.2546391614957315,0.735915303774334,-5.925419363150112
-7.794693008920294,-12.419515186131504,-7.075140458942251,-14.696252412610525,2.276383243000282,3.406418448625155,2.4528265439253687,3.851814288605112,-1.9007539287651407,4.577714278351834,-1.5640855908175697,-4.524021911966713,-4.492783052695074,-11.80477390251699
-3.991681498907156,-7.150797386418706,-4.351628044264028,-8.761994899334265,-1.241163754511888,3.4902675840877877,3.8641049705371984,4.787940719639437,-2.338510970393316,2.37340817601671,-5.268434185147783,-4.60674400815634,-8.852835741651688,-6.759462909707559
0.1700951711174462,-1.942969255720884,-2.393381131112514,-3.459789366786508,-4.64914080735133,3.4048223562515028,2.9977333182939105,5.204119847360119,-0.6409986740181353,0.6054503027827423,-7.0467293803185385,-3.323432686467072,-9.41205556649237,-1.4082104255164023
4.198924037425607,4.842650934382249,-0.3604214954306891,3.1514171675379554,-5.960352663017602,3.7052678303324895,0.5950134404588425,4.812864929999705,2.2587663777613898,0.9434295926816958,-6.506585142037352,-2.4541481664563207,-5.836639415967966,4.776856585638557
5.843011335425764,9.782465626053751,0.2762290664881844,5.850650133095457,-4.1326392798473535,2.495072524738778,-1.4139090925998516,3.859509519970288,4.556239498446985,2.9535896006966595,-4.337485265643181,-2.7715714862193863,-0.5083453351510343,9.465944726751625
2.385113746228148,6.005870687227372,-1.275524084424594,3.0921072620420493,-0.0357957285087877,1.2233523806725797,-1.4186125450009968,2.884025649147361,4.726215660377193,4.472351848329254,-2.302839970767081,-3.3361677583465053,3.251201966094186,5.734265431473523
-0.5386816701413712,2.41678734433064,-2.5842304133674525,1.4956832951535637,3.803325909962609,-0.0167221283604971,0.4490461936698011,2.234925702137957,2.468541122752981,3.3056876324142195,-2.3796031262392034,-2.6533953799792016,3.3376027170083944,0.797005582924164
-2.8387207297647485,-1.4076258385908138,-4.225703669729497,-0.5152721465870765,4.796683428649658,-3.1488321486165987,2.299495573310992,1.7819072205711564,-1.108098170127505,-0.9667302846598886,-5.218140474877146,-0.4119871298498765,-0.0283125527296306,-5.071396603804468
-3.8478487533799344,-4.955847722020757,-5.1710935867925,-1.7321770685241749,2.217212753561057,-4.020204188979753,2.088521344839137,1.1271896712681837,-4.13062500633805,-6.366029295515887,-9.206550564371014,1.9845946805238557,-4.654589479213655,-9.318248671614477
-1.7090593375545335,-3.423988028538483,-4.996746739331498,-1.1425140178580315,-2.063947697758522,-2.10298312777038,-0.4329460704802841,0.1409841331582129,-5.022532494868074,-9.609626820067431,-11.369997848101209,2.6217216507340027,-7.719786727943415,-6.150334786961333
-0.250362970901425,-1.5844577608648525,-4.519888653852839,-1.343963117800277,-4.807614753233565,-1.0466244079695484,-3.1971892466229974,-0.7333573286028923,-3.364101197085688,-8.336603179442704,-9.748009814783018,0.8446363140160429,-7.335272877403554,-0.8224226396378458
1.1188540995266527,-0.4567509716780694,-3.3206668042584093,-1.7596696222708572,-3.842319560449255,2.3883468983986,-3.399151817788834,-0.8009986784910552,-0.0776052826748809,-2.9898263184758207,-5.270253443730326,-2.064283094469374,-3.6137991777598018,5.312092894565448
2.281549348657979,1.036810651444326,-2.188269672621493,-1.2760576776234778,0.1888410926871984,4.449613379008867,0.0271801162980409,0.1670017736695399,3.1347143857303763,3.1124233887061337,-1.299390697331546,-3.888896773711508,1.330123956052148,8.968833930539743
1.5155784088305038,1.0601509268264315,-1.1744099311985463,-0.1321909564677998,4.282908230963358,2.1600031077445427,5.201835799107357,1.5290856912572508,4.735186656850601,5.8531540055032565,-1.0022866279496156,-3.2323698751467878,4.622545350176097,5.6153135394896925
0.97143113858588,0.378802931759529,-0.1582298047887059,0.3380246021387513,5.482518316632195,1.37811259644715,8.565882427230008,2.1581023183896377,4.10789621442882,3.2324953715055926,-4.7048199180198935,-0.5358665907180011,4.506633323380925,0.2258173246449403
0.1220424987961047,0.9460987502298788,0.6409774151229296,0.2000977648017728,3.270582342639728,-0.6914984891092255,7.681040281842741,1.329358637037842,1.7180713439598208,-3.0671424339633973,-9.490604646741758,2.357527820454948,1.5718921498230998,-4.804208185508444
-1.0569120432593233,1.1089171199924015,1.5462834435380155,0.4364244642582014,-0.0883882074875828,-2.962976198655584,3.216448834452706,-0.6947014689059756,-1.3261806925229962,-8.82062863388984,-11.417480767981148,3.5872488759934527,-1.7007607415771415,-6.835199354644068
-1.065058002442651,0.3391366040284754,2.497422609432279,0.8000143591063332,-1.554624825202268,-1.1543056149262862,-1.5634927149171745,-2.9081160723255834,-3.940645179598732,-10.340472255389386,-8.552576167889129,2.494564861259392,-2.848472467024294,-3.693862839878333
-0.7053872672719997,0.3681401621117229,3.3393497906441345,2.6589328242512145,0.1069192233146623,-0.1439500863167828,-3.342801709475225,-4.367026532212776,-5.524983266161598,-7.084619136354149,-2.399513352191434,-0.0953715528737575,-1.2778493173282186,0.3813550178349448
-0.3109820028368105,-1.1455322389821374,4.10234463056069,6.291936890048426,3.4401858413402806,0.6538073930908637,-1.179371761850348,-4.80348129033132,-6.021407709657524,-1.7354278251748383,3.3583079168784025,-2.524958733194808,1.486536162749303,2.894636198221375
0.2990853698822278,-2.329539594704947,4.295670401706691,8.432667268618122,5.811963301503283,2.850238369100265,3.0856505364561144,-4.565439140741432,-5.689319396605015,2.1510228656910613,5.720179317956195,-3.347100307714072,3.312964132478328,2.9783769909965976
0.6214192123408606,-1.018174029661291,3.839785435228817,9.276599928601838,5.855256631948919,3.3585814081028444,6.511317223407673,-4.094186797361999,-4.847955387837374,2.8165325939908143,4.519005958463367,-2.145849080844528,3.3283932944752905,0.9716014149719132
0.5398211236197556,-0.3677707174119233,3.569060332145604,9.764020130609234,4.586661478519545,3.945772111481857,7.252993183540525,-3.5254217999604407,-3.7351578818473854,1.1377750373425215,2.177939592768098,0.2584890946977793,2.478765830527095,-0.4091762303066817
0.9283787741670756,1.930307581004455,3.387638536358104,9.199039259788846,4.246700788389376,5.913726946237927,5.567472555483619,-2.747059297907072,-2.457099570036007,-0.6894142229756426,1.3973484321741123,2.313367660162953,2.399162018895254,-0.0305176712569478
1.1417479130182302,3.895292711561284,2.617463542106789,8.073728919471845,6.036430673915902,6.061051171407287,3.160842867057454,-1.7120493140656663,-0.9588831991419512,-1.081778230335999,2.837441005880692,2.7053066000345325,3.764811688805594,0.5232952371613688
0.742326880771589,2.133128463077056,1.364650305030109,6.314813857100402,8.890809084979878,4.897641902866899,1.7303303636867895,-0.5775480304423581,0.9502330500424704,0.0806042014924059,4.822738289824315,1.2426638936738073,5.666560131038864,0.1482587015685857
0.549683700753914,1.109539747005453,-0.4056377763091804,3.336551118368547,10.3948592883562,3.818444390464581,1.888589041131581,0.4846738164625321,3.4155177431993025,1.9872497665902529,5.221312581041161,-0.9753096110525804,6.488806237675476,-0.9217615240613112
-0.2117123406219201,-1.028883259419615,-2.831229529682958,-0.857010987471195,8.934261248904136,0.9360596373687,3.0435854148428234,1.5344352121416025,6.225757876479065,3.806746186584405,3.614556082998547,-2.328387437996525,5.368923933975111,-2.726188259278934
-0.9613970482974232,-3.3864575204785323,-3.568766941393785,-3.3026567106481117,5.073534484917445,-1.163103498928307,4.010203693672452,2.7986401071431146,8.639624279317218,5.013851364137508,1.6311788689529294,-1.895190320378333,2.8932901010933847,-2.501985360485185
-1.1413170553154297,-2.499119766799556,-2.4605515851888717,-3.860878442277801,0.9529617931457324,-1.9410148578680009,3.7815751492909726,4.283814977569023,9.662967214547391,5.2080485632626505,1.1768381231649985,-0.1699745116688973,0.5052491248608817,0.2155182186404118
-2.0708245758543264,-2.57750489184798,-2.0992536807470583,-4.484982266912847,-1.622938562226352,-3.775382365612255,2.0352434979365626,5.488300129391462,8.752752689302497,4.1315912596797375,2.433277712017229,1.3682339000310435,-0.7125335171282927,1.7909641183734692
-3.1462299109398777,-2.5322409422241203,-2.010276507291338,-4.464393189375356,-2.567550284309675,-4.875059723980045,-0.751755474575873,5.650338259293676,6.432609335784434,2.121720636058228,3.734719208166098,1.528055122901776,-0.7565490606425556,3.502923293387157
-2.961184504817337,-1.052804848210129,-1.548905319736665,-4.619949296115582,-3.152135248467971,-5.437747949024997,-3.5239167082856966,4.454847989519919,4.182674268321875,0.3744348893539495,3.465080917299588,0.4308187013618862,-0.3733266275955884,3.3718725686582216
-1.4094792527055398,-0.0117193770641591,-1.0987007858969784,-5.17282120085705,-4.437459861629236,-4.953837845456533,-5.097167675776063,2.5594297639824504,3.483807822132576,0.3424324892752679,1.978457461481412,-0.6385945751106306,-0.1201297194632502,0.4874007875126522
