AF3,F7,F3,FC5,T7,P7,O1,O2,P8,T8,FC6,F4,F8,AF4
-0.2115085364258982,1.0425537522027488,3.0367931988418078,2.079704028594765,-1.6910209769665698,2.099121479406339,6.948040063907948,-2.4921694895527926,-5.522798962426614,-9.662836013332663,-9.57776932432146,-2.557877996841052,-17.293545522765864,-8.484972233339999
3.1501606982284103,1.982267217677018,4.08212304358193,1.8020172260811915,-2.2156699874017507,-4.463845090267744,3.052401577381393,-3.095852666287972,-4.527116166032341,-4.721005195790695,-0.3159988316795372,-3.147577774441581,-11.594753536750405,-7.757508821026783
6.523419307758667,2.389395435598044,4.661723203941054,1.1993469816808302,-1.455687012387022,-4.761719037816311,2.04199989104152,-2.6774350349831018,-2.404539260896572,-2.045306235671628,4.976547446187958,-2.542018344457777,-4.35282737713462,-5.079151057371704
9.957838358996458,3.272310499353269,5.234750767518341,1.9648634013651425,0.967504011529516,-2.389111904991335,2.6966842734780574,-1.7977873836959235,1.237966771191514,0.1602889446307645,6.868992323215311,0.6022546381688265,2.5061700808660987,0.1886722551724461
12.424821745502229,5.695001785888096,6.28441266367774,4.917753740434654,1.5750540605097485,-0.9944202024896136,2.430999419695808,0.0103958376270493,2.999029960670572,3.759006304333293,7.892206842901182,5.705559589392761,8.226117414460255,4.291087167308284
13.395104345030765,9.542988796356385,7.729220748654521,9.291951982787186,1.7717921174607534,3.884604464332708,3.960847868089653,2.932040709034636,3.729287910204653,6.316650703844255,10.128169504279777,10.574738969179908,12.868451973143507,8.675491348232478
12.72313597844102,13.115284423797648,8.820218318579077,12.999540472547205,1.628260214704886,4.185821318071754,4.170664105140676,4.584672853723326,4.937762311312332,8.229742213344213,13.749921792123663,13.163164872276331,16.48242895860249,9.692094824861886
9.805594489561102,14.154069537194932,8.620442101752186,13.800756049014804,-0.2405735754400344,1.485724285194328,3.614436105451359,5.767152533216126,4.896587729314008,9.053543073707182,17.222288357305956,13.124757177455908,18.73851604794876,6.680516201692733
6.064203263154835,11.527998167562258,6.682662062933184,10.723751363328429,0.2321450004900961,1.1184734703537234,4.31829663279217,5.345267701550737,4.948696758037046,7.772805589355352,18.523192517294056,11.70435266181689,19.225638623379968,4.925224491270069
1.2360005380670156,6.112854708438555,3.4255566474181816,4.808791975929163,2.175606788579504,-0.7461004132822289,4.360223523497656,2.8999614621717456,5.274458226186157,4.591950320683393,16.40585074433701,10.170870881907614,17.8919309499368,1.5173763871998385
-2.9470449586333705,0.1766865350915027,-0.046533972396527,-1.4092093950577689,1.7626813022099712,-0.9634503306019732,3.73264159760372,1.2495122915003258,2.646918390439982,1.5886932291493234,11.160283742523726,8.475282175042116,15.109760885589273,-0.6794225103311771
-6.08525961261375,-4.072198599877448,-2.575020157217708,-5.429695552368585,1.1448589627107413,0.7030779282286606,3.033963837467587,-1.2563439046275022,-2.3091448458795614,-2.445133663217776,4.684146185600294,5.548463874084884,11.383607185926932,-1.5921253686327843
-8.407091685776395,-5.5729144166499,-3.6530893735783,-6.31043072419382,-0.4565767943470544,-0.0103329245493361,0.9220112546533332,-2.6945761411195392,-4.592200769797459,-5.135688200322837,-0.3129498063060936,0.8687271655617881,7.090703570774636,-2.9603785877788216
-9.233979917363504,-4.561857962859005,-3.7422688623727782,-5.09665899204807,-4.162698208642461,-1.0228466978075816,-1.7389840484060646,-2.7093475316525293,-6.521820380720121,-6.584933306726657,-1.8947222645081023,-4.473523597822691,2.4947898836042857,-3.158299310157008
-9.69205373131268,-2.112602364712366,-3.9080063808149657,-3.834045706708369,-3.915573773061813,-1.395338534392145,-1.5809813396591397,-3.8365229556542646,-6.057303382336421,-7.114515662320703,-0.4006677651498416,-8.44255616200584,-2.087913223089547,-3.893493200158108
-9.55596993768496,0.3937359034489542,-4.929188420444518,-3.9117764177681575,-1.401626948175954,-2.3760286299240625,-0.2797574420796936,-4.60976444973101,-1.8243915866362184,-5.603970884276013,1.54928792851325,-9.769289163594156,-6.194858127854397,-4.539394922238991
-8.12372243602668,1.7280028548588158,-6.530636604704416,-5.015668924160721,0.0059998355849708,-1.392116433303466,2.6823667015888075,-3.868838506256539,-0.0004039042848261,-2.5189998789917176,1.117500473801849,-8.881173262337812,-9.250980169608574,-3.649103472851784
-5.479462599800458,1.2957939117265165,-7.466177710565343,-5.518491185028333,3.151685557784272,1.1938237997819665,7.5299961121953185,-2.5935161004410388,1.887874567530902,2.639906061930258,-2.060704438335158,-7.153823154110354,-10.688200263705331,-2.323885279714028
-2.7855880144457936,-0.5281202235707205,-6.577600958529848,-4.001100076608779,3.204944742912634,2.274475470779555,8.614983573146127,-0.1256631707150709,3.271303100200989,5.6206289340297255,-5.188462692237643,-5.492523091205495,-10.192892667895304,0.3446379903294552
-0.0022964929858467,-2.6271003060895346,-4.03077744732872,-0.6695954989685937,0.5274773714347205,4.095628706923145,8.5347200948794,3.8275918030883513,2.5564355741246043,7.127500469703813,-4.841620942078567,-3.894454030970902,-8.09869535261631,4.140857452943221
-0.0073957455286462,-3.9794985056163625,-1.5439730876836857,2.53614654754378,-0.2604231754494203,3.032273043503264,7.321935695754544,4.125191344467292,1.8284289597122296,5.303248633964486,-0.7294459743320125,-2.298790477504294,-5.627597034215739,4.460879026725899
-3.4045994660071464,-4.462373031184331,-1.1353976479215575,3.327303298257622,-1.8904103835820285,-1.300330062286496,4.146266576506417,2.543316757657112,0.2401935881128119,-0.4672072502033498,3.136891048206305,-1.3739943561367198,-4.464000284452453,3.427603295691521
-6.202012020036493,-4.82459011204018,-3.282779504335892,0.9006127005121343,-2.089766143726353,-2.7814756026225984,4.165297213654582,1.3544219229648604,-1.0508642605003042,-3.470494255990236,1.7123246343843732,-1.983646957367036,-5.571439258388743,1.5853438922249978
-9.139131198641678,-5.774319130064395,-6.158732441937822,-3.2566931874496348,-0.4506291465217621,-4.811573880727663,4.405804328726743,-1.984856151973258,-2.2713708274155104,-6.560416000662998,-5.916021720293269,-3.840259402198985,-8.067717338313233,-2.871129427075155
-9.197454310904549,-7.061581971042958,-6.879253712702361,-6.309232952535751,0.3475037455354821,-3.715622853548997,4.988681190709085,-1.155390543921217,-1.8675474711974671,-6.350630872270193,-14.474115505068037,-5.118625839455902,-9.37384783604083,-3.208634770134144
-5.395146672885526,-7.536428873969168,-3.932090607775965,-6.108127108408926,1.825469306917449,1.6028432799106012,6.878369792302756,2.700402739223192,0.2933705322702724,-2.0379841005558648,-16.202406353616155,-3.900141829988371,-6.993650757925174,-1.3817509933706609
-3.76685180864907,-6.23077979356524,1.2801954606981845,-2.778935296842974,2.3600348474648647,2.94807727613053,6.095466371651856,3.164262218556984,0.7384797991619463,-0.0458041659904661,-7.575799069850241,-0.1740217989594086,-0.712747873666828,-0.8045166946080016
-3.5603681313504585,-3.450797138601615,5.286650132451783,1.3517698277059935,1.9800239356694005,3.6194917975775778,5.150254465670381,4.52105123705454,1.5987801603571374,4.026079482033698,6.953400083830189,3.7806764512605326,6.725984511572044,2.6042097343455657
-3.71130497230836,-0.7525156772830073,5.270830871689476,3.445858031456062,1.0007711786194469,2.965384416387106,3.920592149684158,2.33260838230908,1.4146306338085244,4.747719813356553,17.92111485622208,5.298827089835029,11.356681874388263,2.4428877095274544
-5.330071469250244,0.3266029920277802,1.4582713482775205,2.220140453376217,-1.3408541182211895,-0.8510621116197379,1.20670477990388,-4.517705709512733,-0.8565216090847059,1.4249709823864851,18.33766388184097,3.813118925526126,10.950444566035664,-1.0692286536232665
-2.5906466247630884,-0.2948085528720625,-2.855847210124153,-1.0986989237613436,-2.351385680849005,-1.9917340261071452,1.3175215856683629,-5.586549425678476,-0.6979083198732364,0.7723798437231583,9.380356222600245,1.5157658509849483,6.822296911723157,-1.174172723736863
4.806761140606833,-0.9872200525709296,-3.714460809859205,-3.607514898316929,-3.002580753421766,-2.3901501512658934,2.371846356971751,-5.424510988051943,0.0676461946009842,-1.669272140326655,-0.546574959944742,1.5200329533925938,2.945734281568086,-2.1366451864401323
10.881060577414182,0.2745690052828173,0.5759982231813581,-2.783903482906201,-2.593170188484193,-2.5167917569919425,3.823461932518841,-3.879140751741317,-0.4597207050811343,-1.219772774171473,-2.5365907017470697,5.208402110284105,3.01493217829713,-0.9507612614005968
16.772081746134457,4.04620877324092,8.251876491306135,1.6476930948630866,-0.374440333518871,-1.0296883115774191,7.291297635232037,2.398317384834149,-0.4392926555707678,2.887183880079749,5.9296666328650325,11.13201647750978,7.732165248956424,3.803207614380428
18.962776748411656,8.622537448168664,15.393268446116464,7.370792727545975,0.4663474314126198,0.0391029793906823,6.8205669080915525,3.6769029429746025,-0.5215800450800918,3.467667803761061,19.36149323724737,16.30254939945879,14.35212302558714,4.390836162885548
16.07589944092329,11.1358530041108,18.55916433229649,10.986367032943969,1.445350478415881,1.703235072356647,4.24344910271801,3.074047230253522,-0.8645523359285124,4.202397722584281,28.71667975967188,18.577373914452217,18.69842900766928,4.158693806865975
14.06747445096568,9.755167593419166,16.798731156118034,10.382508216908532,1.6684787317909615,2.3545156903506506,0.8972517411122949,3.044462019827958,0.3014765696022954,2.4295898869902093,27.96036867278913,18.0427357378132,18.02571730447888,1.8271493830413508
11.830147652040193,5.191314665314028,11.81657845673298,6.231321032489255,0.3752703737714548,2.042573317113044,-5.385825211357606,0.1675073698324175,2.489823405406717,-3.2092062422975203,17.6783002844329,16.364113834555592,12.641683568297683,-4.759271594554437
9.034126218634706,0.2394480369884029,6.505711243718618,1.4176596152519885,0.3153551594224602,1.1147538082602386,-7.719674059042723,-0.9003345112970552,2.1241847160510887,-4.769253658764311,3.6854582145130976,14.89147028708361,5.323253444515544,-5.897346434648741
6.622617254888009,-2.2714464107370915,3.055734051454447,-1.2062422161311552,0.1930330452720333,-1.4308389082197477,-8.199859041422592,-1.2068631000800485,0.4273848695443094,-5.480918168408341,-7.4357130090754815,13.298086516976143,-0.7593557119432255,-5.103929334749806
2.7661694953858884,-1.4541615287928875,1.8584828371110795,-0.9248193690679544,0.4832436142300839,-2.0738690640867468,-8.69517314653567,-2.166815367856065,-0.2839782626370207,-4.248818626788741,-12.23573388951068,9.958709385724765,-3.972019607176751,-2.600584427326761
-2.329106013835712,1.2314033442193484,1.713899570193142,0.6326077142996667,1.7997717095162893,-1.88748552577178,-6.9228810821249525,-2.474388062847084,-1.907681572845349,0.9397906651017548,-11.453591344736264,3.701615197208856,-4.757930503654194,4.958073004875874
-5.070742483989108,3.256609266999892,0.9800652698651292,1.2769993190295672,1.7102063506535294,-1.0474435634232355,-6.8252708613326565,-1.75299866281422,-1.384638841071251,2.1487327058483547,-8.453266592608287,-4.664467562810671,-4.75029697314028,5.194040669191313
-5.441614233874702,2.8162346432091816,-1.1998901852508794,0.3144360551978131,1.0335035435151014,1.6068520127292576,-6.875963575944431,-0.4859468640000519,0.3733206214258791,1.446091566022825,-6.716791433253071,-12.490099048636406,-5.383416401398787,0.8689689777077907
-4.892255570574911,-0.1796337722049479,-4.399167295186988,-1.0856694530385873,-0.0625711657007444,2.072953574934877,-5.696627048246183,0.7077176807639514,0.4331992373255345,1.6253001923587644,-7.903763425625371,-17.085133186431186,-7.016726987301372,-0.5999208196387866
-2.544190928381723,-4.366854432351097,-7.3815474292544785,-1.4811102589483625,-2.3058748075289026,1.7407228319413992,-4.524960363636499,2.808926672570876,1.171996925566524,0.3078771260264338,-11.195090515374574,-17.681932173363876,-8.97536269544209,-4.543418818233571
-2.2496130540150445,-7.973248874469181,-9.09703649761564,-0.9878332306364754,-2.6812251417669457,0.9619377772534068,-3.9637762561799046,2.7472013479438493,0.9865989321636746,0.5671022004998812,-14.07981795647646,-15.88547415352713,-10.24800741959618,-3.3624960694230794
-4.310438892265725,-9.87167905640963,-9.398738257072305,-1.3533740953744129,-2.0300987741280365,-1.567901047630308,-4.042657543739362,1.1907701906138015,0.0284890451319936,2.5920756294601497,-14.270624949079547,-14.25885296311844,-10.292486159226383,3.4449797116002654
-5.975180224579392,-10.092641335885698,-8.956716202776146,-4.078638027587692,-1.2616185108383904,-2.129115285717753,-4.873925187298786,0.5081268103204427,-0.7337643641413765,1.0882481248223037,-11.677069467479493,-14.31285403168242,-9.461441504309672,3.695277320263268
-8.173852538348237,-9.615515547520287,-8.5318956165047,-8.49310663456568,0.9254220787089826,-1.9202490497697755,-6.640602019852348,-1.1908924545827648,-2.362507873444019,-2.234376261582588,-8.851223246016612,-15.591615647684277,-8.784752837415514,2.50123735454258
-8.426452420898906,-9.58117353676959,-8.288555613734108,-11.893855279028736,0.8464160429601187,-1.439189064639845,-6.858260398447282,-1.898814486310109,-3.93777951328368,-4.086468279889833,-9.086747341574943,-16.43880438411237,-9.181857975298058,1.0546062594421244
-6.249575887042484,-10.381211213501036,-7.733762816084977,-11.84345376407393,-0.79340582108451,0.6268152128448435,-6.350332573676515,-1.541675990525193,-5.345797761009426,-6.55294750018778,-13.340291699294866,-15.527194296606051,-10.586267758388669,-4.18397905993647
-4.543059833034812,-11.255465708125872,-6.276909990201618,-8.461123239989089,-0.8094307214668224,1.3152270718020047,-5.857636812364389,-1.7061842283532362,-4.148453458422098,-4.900493579355538,-18.62309096767044,-12.74095637436908,-11.672210777266445,-4.042492268667305
-2.67624349670827,-10.780202913593218,-3.8548871118464954,-4.383642091746112,-1.2042178274175008,1.5171041643370076,-4.400624852786025,-1.4670149480557104,-1.0962921796063223,0.4194997796231658,-19.681172936479708,-8.838672909855426,-10.565798163396236,-0.8395476418620761
-1.841682984765281,-7.972208918535561,-1.0558950181394111,-2.303998791277436,0.0320562471235996,1.4100039165288634,-4.067672530037087,-0.0288142239339524,3.149598694177305,3.791821014919713,-12.977526801987011,-4.5358103834483,-6.170384943452603,0.241883878066702
-2.594293599565661,-3.178976401604782,1.3284794895899044,-2.4570882676220247,3.405034321449394,0.04600736112976,-4.599906578659002,2.208302258961628,9.948858447436788,8.293752801764166,0.2469871442233344,-0.0590619627658153,0.8447433193367875,2.917052254695557
-2.5286575347191023,1.971486523892139,2.8632705521833266,-2.587636191028245,3.5513422374477086,-0.3231855867861151,-4.805805442881311,3.258661209456327,10.383875931590785,8.500054457681907,14.462182155887396,4.434084149491632,8.179265412621351,2.857147762505288
-2.019450365468916,5.560214786057145,3.619691485180155,-0.5029637258100585,2.5046907846784348,-0.4680065310694061,-5.240803464354894,4.241388536736347,7.209786015374315,4.779936444325499,23.5294529054168,8.173313133857352,13.125756221791232,0.3820667071369379
-1.1987510811734785,6.594136230857657,3.832614695537398,3.360001665564216,1.2491217958688678,-0.6915293832776699,-5.669570956552022,2.5712590629862886,2.57875605291702,1.3218512609937938,24.607388377497667,9.784061262484222,14.075126644351975,-0.8704916729529932
0.355915266604238,5.631883306005058,3.5067193457995955,6.09642644127015,-1.871732687335508,-0.2397913373630893,-5.2277444538865,-1.3113886872579663,-6.826742450634031,-4.687747774435631,19.39195196880701,8.307574597642784,11.374188278843253,-2.275213392434681
1.7430034201515952,4.463441063510956,2.477738980779918,5.29288102324449,-2.5526077876251465,-0.4586478172690085,-4.504613090812046,-3.294011353104091,-9.45761362803288,-7.221401957615759,12.217860905471316,4.473083423739951,7.099502614825202,-2.725278010488504
3.056353015013455,5.060982784675147,0.9372084044805432,1.9001807470159664,-2.047073554077597,-1.1062431364174528,-5.138525414962894,-6.257199311763297,-9.183028110607902,-8.006445987278628,6.927684187790234,0.921100903481232,3.928588445255812,-2.8167358115816783
5.665534292636086,8.347897877862827,-0.1774953819863114,-0.071750063459028,-1.727307720511578,-0.1397699260203816,-4.12841705244743,-4.640522927768502,-6.34609034012038,-5.541152592248562,4.835540525893897,0.7046296956127378,3.6698391028488473,-0.727336775722325
9.531377174656878,13.416386605024478,0.4103228347437806,2.8330212896979674,-0.11282557441722,1.6415466110751369,-2.4842428665130813,1.0897847875289028,2.693183315164841,1.8167094456465789,4.747670799776834,4.8677316820428445,6.1492121671727205,3.297985892738593
11.63038021435384,17.724477097880992,3.153729665628348,9.831978893037784,0.6699697850494835,2.450135482975364,-2.432320278326196,3.769182353485859,6.6993395600772905,5.786232645104936,4.428166263947801,11.018235364104164,9.105981350567204,5.126593242318705
12.017793466139857,18.40852813826137,6.713463565165142,15.801755959500449,1.2744478554755991,3.630909155253738,0.9019166708343194,8.038685520156728,10.221973790749958,10.521682613859523,2.295985276149296,14.420587289892914,9.39670381866386,7.387081100976307
8.046891800437475,14.136970936181484,8.319296002608795,15.263474998205766,1.406886345425364,2.059088338860147,1.792386487745619,6.0790015948561855,8.553169830470866,8.736419840814985,-1.553702764724136,11.26129622745846,5.061201854700627,4.723496620340915
-1.373851044465796,6.309226735868691,5.632198244794509,7.116489211859758,0.3408091439373952,-2.4743353376960764,-0.430647781154105,-2.9765042259722128,-1.9358282700299936,-1.3498269459663992,-5.379928500992662,1.7966604950636338,-2.9785780621052997,-4.211353873206658
-8.536751649758775,-1.4542686189033134,-1.171488129775085,-4.100831753806418,-0.1406278485017668,-3.0606054269271863,0.4877609523030672,-5.375637598647815,-5.56720087476755,-5.082702473601092,-6.83778595442854,-9.178787982356056,-10.926582205370636,-6.796987500326852
-14.011468168750168,-5.478420399346362,-8.944338958460989,-11.646097501254433,-0.747105177331259,-2.617744140752067,-2.3388720706107837,-7.471217702544492,-8.385018062311202,-9.064889777951096,-4.555582867998453,-15.245137948111264,-14.204119680076644,-7.975258980654567
-14.80516559830212,-4.451802783570997,-13.50311631576288,-11.775110410706816,-0.6847819982971944,-1.453243902504365,-3.4629064795021325,-5.219826517956474,-6.933607849073713,-7.955873525989331,0.6843876485157807,-12.737738732536371,-10.460072160112476,-5.421240546750451
-8.82107222475748,-0.2800077055006795,-12.680923774238138,-6.292278713414191,0.4543483142742289,3.0473644969950437,0.4746211413047866,4.922943887220754,3.321318882542573,1.6813228662786208,6.107653432001825,-3.425618844484603,-1.406746878009102,4.963444917319956
-5.056766624011032,3.374936419554345,-8.0264923431547,-0.4832834225191504,0.229993020034805,1.6899038693232733,0.9040052030770612,6.10914607397254,4.425237366056381,3.1770028415927296,8.593576967809156,6.527719945344799,8.013921875704483,6.325026776464936
-2.4285343520984126,3.824463300654529,-3.595207363777277,1.4874867309106463,-0.4145604618394654,-3.22303183404052,3.593912929484406,4.368506680182563,2.574432670199335,2.965151116344526,6.730465636570614,10.645604224203469,12.747469549965103,4.22733303376825
-1.5206052413370434,1.2681080303786842,-2.696755410473621,-0.3390295111676806,-1.2041007622898166,-4.281239741506973,6.800925322819412,2.4792414281747472,1.3557863189612125,2.2684170953670586,1.6676371251544353,6.40393778742979,10.860253725989942,1.879672308733364
-4.204524339666595,-1.5741539052497373,-5.291725664604456,-2.5251949372113387,-2.7791381434779026,-6.271251442434727,5.498851557514614,-4.972701201218695,-4.603266833580625,-3.356878693444149,-3.971893490360955,-3.265618964885149,4.517891391006998,-6.392155523983751
-4.034269784009764,-1.7842025057290414,-8.234756072075598,-1.774760484861332,-2.0343475750678244,-3.4925458628893065,6.593349122302717,-5.175360667579864,-2.974880594725004,-2.795698045691334,-8.168129288477651,-12.1815752244227,-1.9792242304248544,-5.849025587918868
-1.5279098732397012,1.313223727302315,-8.099502831466616,2.1080329274501253,0.0597884165608557,4.826723062848234,8.187588902553145,-1.4890216072927336,3.092130490148752,0.5559912655468029,-10.700724976384343,-15.165455306281416,-5.492881159499447,-0.4117381628906894
0.5771624933167218,5.466398181866516,-4.087217625429773,6.228015442468411,1.7226130421761583,6.710411241002846,6.276212095053061,-0.2755684012888489,3.5385985930736523,1.567611316699124,-12.4632645926378,-11.313299058365232,-6.047992975532949,1.4341120167805363
3.4272474991900066,7.0633040568891445,1.456178089299371,7.1777435162445045,4.517783089976474,7.181233712013247,5.102925497364515,3.642060509827159,4.146951789559639,4.25392899309209,-13.79668467307419,-4.085535991538229,-6.073524361255664,6.298102926820823
3.911182774742589,3.768730119425861,5.178086792843409,3.7611267614239168,4.1675881417410405,5.920232567692759,2.808010815253548,3.398581598852981,0.7955085419704235,3.764032886376014,-13.751512622776843,1.5922308460294303,-7.791121935911761,5.109926367180219
1.5701901547875343,-3.679581028548085,5.457541916429321,-2.2782978849942594,1.4112989304473196,-0.4275194069843421,-2.60712564421282,-0.2619863728969182,-8.16062782184352,0.509002767908589,-11.163800524422449,2.8692427357122128,-11.159878383760612,-1.7928022430892807
0.0455161560235369,-11.777877683285062,3.358571151317456,-7.743121878913492,-0.3305501407509477,-2.4734206677756845,-3.8644844191632193,-1.4270171238355365,-7.7732965023289635,-0.5196649823616859,-6.384136499003901,0.5237178621313845,-14.100999163144806,-2.040769630271219
-1.37038024378192,-16.45665292011369,1.2304929379362548,-10.219610041605051,-4.067945690072953,-3.3381479570803783,-2.8596761017778918,-3.755311508076192,-3.248393929528706,-2.00158232028088,-1.6411042976186678,-2.3397921573444838,-14.547560261676686,-2.163261220569179
-2.001529156700746,-15.687851732736164,0.523859583725347,-9.39325036966629,-4.201475717188094,-4.321718416254081,-2.076646760406809,-3.389592272695761,0.3656145912804545,-2.2581141618831326,0.6216434345981128,-3.0331917371162618,-12.260502761698511,-1.1035489599694803
-1.1807628680635007,-10.742001005120748,0.8705020781391113,-6.77467645037445,-1.0683855534111029,-2.8573452913301907,1.0057964893386522,-0.2109980261015396,9.25530556113739,-0.772752204645949,-0.1022886719963835,-1.134630883792994,-8.774175498052848,4.748024465894583
-1.261480772099535,-5.224677205114773,1.0285077092597137,-4.332744493470237,0.036967638789359,-1.2307594744268628,2.3068971485119723,1.4904752601075058,8.676099510572723,-0.2885924513158017,-1.935869296219515,1.806045345755365,-5.760236286420792,3.194832068476379
-1.948192268117455,-2.524159993817726,0.4748467780586267,-3.0860691448673023,2.7418941318623395,1.5639512559517257,1.850274233042481,4.416229832086391,1.2639154036459734,0.7215895963374419,-2.4140922417061823,4.009808072796808,-3.575708862505113,-2.022296289674558
-1.737002260379939,-3.453636976047889,-0.0124860129645867,-2.560310605295154,2.785723150684384,3.058480335554583,1.6199288946976622,4.418703074929168,-0.8697723389572516,-0.0160563212903942,-0.7906733378835646,4.931230033269639,-1.3876934339927691,-4.136918713794705
-0.9345773956544032,-5.824509156252976,0.7634645203531498,-1.4195262429557332,-0.1369855685685719,3.929268467468559,2.145479922914699,1.6724030849794853,-5.711413608435901,-2.399999757345459,1.3794697512613112,5.3251670929398,1.4553162173635386,-8.636100416795054
1.5301987194687203,-6.328846823295878,3.1226341697623923,1.204210255824993,-0.383844632992191,2.373679523399583,2.888034193134924,0.1111740464808505,-5.8243806048266205,-3.6437117870564455,1.877485158662866,6.224630123395922,4.393005072768629,-7.418214139549266
6.0284648348486725,-3.323068583626103,6.1428493715415415,4.733768661370465,-0.3169999591078462,-2.791348302653544,3.7192919247694975,-3.0678480735946785,-0.358108988308384,-5.643042943395343,0.0268425893236781,7.96082037266108,6.09684996559696,0.3347877585928531
9.229794422702849,1.7216037908922377,8.489611675700706,7.4260565199386495,-0.2691482193132777,-3.563836129627492,6.532303288227229,-3.5416000839102786,-0.1965993409906538,-3.824941858504189,-2.6061899132974418,10.001808449957617,5.901899884431971,3.109121166910955
11.289648037366897,5.369544960852291,9.48282230809053,7.812984030485943,0.8492098736905529,-2.8364931323028304,7.904249544027571,-1.521708316630733,-0.0249296923337498,1.4542283760717425,-3.5512983186929006,11.473303828918464,4.667956612630641,5.821752115904814
11.21946304438605,5.08920129250877,9.331616090536905,6.082431893127792,0.390395538775415,-1.6701405169424728,7.152599570277005,-0.831066212160247,1.676571841499684,4.658137499941232,-1.5142824885107693,11.721371710185236,4.073595808468319,6.755672324466963
8.088253162020298,1.39361498770349,8.46562862610369,4.036541963884638,-1.3631226853756,3.015289147557681,6.680815573519883,1.0738052641257283,2.243918228647168,9.170477343657174,2.541017853238337,10.4907955980593,4.934013733894798,2.9012178763051413
4.491213731729951,-2.683019596162012,6.8280902300813295,3.479133702166962,-1.3672904326969628,2.596082030002382,2.108121023506869,1.9360220786977265,4.083199404539712,9.57750755170213,6.001511184657652,7.783830802759653,6.144876906851387,2.355606315516525
-0.1058734772450607,-4.373615269022871,3.907284114100598,4.431636267194925,-0.7697250204620173,-0.8635526307311536,-3.0971300400388286,1.5828137912892193,7.112679817530778,5.7529202059600495,6.277455971913923,3.697681017604332,5.328465198930353,2.405494517606692
-4.980129932737418,-3.692264281575184,-0.5888628558792846,4.90894099941206,-0.7598996261334025,-1.738101197116264,-3.811452812222968,1.2139658670136035,4.646620241545395,2.663607651539733,2.3865631119602853,-1.5560757749383214,0.7519837123440283,0.4495658130395257
-9.67609309739036,-3.2526106583746355,-6.131472368139484,2.634769963383931,-0.5388414574034002,-3.541652922987308,-5.161548937465098,-0.4916667214507769,-2.151807272596587,-3.656197851793885,-4.389281043820574,-7.442940459945291,-6.989667501692935,-2.493578940247808
-12.81607303472759,-5.442963153760189,-11.35172765685212,-2.7329807445799617,-0.6256107517125101,-2.94239700296196,-2.9272392860588967,-1.698993509650232,-4.721246225135422,-6.801036282343704,-11.04568361313575,-12.862535165303555,-14.83436570477592,-4.410296031397825
-13.820133235131763,-9.626103086326182,-14.52706529822298,-8.835763983248015,-1.1329288436609182,0.1925376851398679,0.840450305731073,-2.87449489767482,-7.362352888810934,-7.498509792317605,-14.38574307304158,-16.169381474163472,-18.819642107273623,-5.565568057844192
-11.127501873669212,-12.212845302665542,-14.259311584403704,-12.036083622833743,0.3487891443050851,1.8738879978401135,1.1109770699770627,-1.9434014063598128,-6.088855777559047,-6.49444231022062,-12.86879143076851,-15.76957558991785,-16.401680001747437,-4.082410117931781
-3.839051759054361,-9.817613087297955,-10.176812314497468,-9.9231165483004,3.544616761049693,3.903011369198492,3.887353331266696,1.342674725377659,1.2596901797232405,-0.996234683490722,-7.705961291957919,-11.233912673088398,-8.138816675126293,1.381067860857102
2.273958036771107,-2.6478402889904658,-3.476041937383769,-2.9980018575300846,3.8339348867501664,5.3416100166606375,5.229758841699741,2.052374556692272,1.3477403856593175,0.7484467289864276,-2.2359814775241773,-4.191717116443499,2.32403573186744,3.155531568165693
7.595126231632335,5.174901163564584,3.195315530568365,5.58963697049208,3.133215585280799,6.108156505459903,6.692883034041266,2.593910192651325,-0.8968299774225607,1.7063403866478222,0.3793930316212481,2.037464465014324,10.158150690684948,3.785700462503824
9.02970962364609,8.89247727528678,6.973217950473185,11.892009402865824,0.9296952308917236,4.483410867701648,8.913888311338692,0.9696302798202494,-1.353581296795812,1.138491395641355,-0.3439369125006237,4.371718089575012,12.193552022453645,2.479735057463626
4.899103672391906,7.090894873657675,6.691838294968278,13.275293235986425,-4.247925824401549,-0.0839926946008361,7.0097909571713055,-3.214597573839193,-3.960477627207488,-2.7903548577235084,-1.611792699110481,2.258602819625196,8.916762967107047,-2.1130213160320697
2.5393425901344395,2.744781699027442,3.976704720938102,9.568563559239692,-4.576050753353535,-2.871596668065324,5.51040774468442,-3.073573370012696,-1.807372152536539,-1.723517305008647,0.4461613878901858,-1.682287591009498,4.072894118129256,-2.807148869551176
0.8970132359573504,0.4046325504303354,2.192640742184267,2.829629154337397,-2.59322525790748,-6.095355855403789,3.207736782407348,-1.9086207083904945,3.679605625079774,0.9441649710857196,7.253805296014804,-3.621111346172768,1.89502340745554,-3.015609844495993
0.7092469963113117,2.174942485201001,3.7034788281893896,-3.884777421450707,-1.2591269476601346,-6.699388415306062,-0.0431863221001586,-0.3394028821463605,4.611631239544621,2.2237251367320745,15.951157749303832,-1.7018155982601115,3.927800840441876,-1.7252499200725868
3.4333904765028,6.1276347632899615,7.724344483838081,-7.982374356190576,2.706965870648466,-3.654715350141709,-0.8283468284312973,3.65578904657188,4.327187481147109,5.095447358179972,21.179279246690328,2.3498642050174112,7.999109178782703,2.4867955010343765
4.133254507883174,8.36790097948682,10.86359282703097,-8.35646735378532,2.946628560652464,-2.878786767498215,-2.2657784442702,4.05681373033986,4.02454862554177,4.358292218400807,19.318229642466637,4.801360313030784,10.271493102130648,3.122947467256401
3.290404429580964,6.595998807569856,10.072431403010455,-5.625486313071633,0.5520440027870721,-1.8196490804456145,-5.520911771477116,2.6350883888526964,1.5543662568176546,0.5869181169836802,11.57597105406353,3.333258034315975,8.64968616980201,2.9607356192711785
2.46379497982552,1.904471271021066,5.369635908841872,-1.6118454077548563,0.4806201583302165,-0.0826071335129076,-6.472229493462608,2.7346175843133422,1.631225706175477,0.9864682573383506,3.063369860745354,-0.8863387876832007,4.550411028444557,2.8025522454420204
0.769819121302199,-2.4925616020676102,-0.1873033727371762,1.6466282400768364,-0.8230165082585867,0.803501440362211,-7.117151590723426,0.8431600139016465,3.064615327028709,2.166168941123128,-1.4599128165194202,-4.44026721164488,1.4761074473526603,0.2776793283218944
-1.375355639539283,-4.041124364294831,-3.231259079853487,2.894673782643053,-1.2510360635180944,1.879404151452895,-8.740838607933787,-0.229674508615409,0.8741155495733816,1.003998815036268,-1.3402767654942522,-4.957365551745681,1.7578372632562491,-0.7028674786331421
-3.9730368957931774,-2.5577756299636576,-2.9271726602468675,2.181445570033929,0.0860894957452105,3.189447345905392,-7.344867167367553,0.2622562437228039,-2.350695102169483,0.5906887298289997,0.1662979192364559,-3.2037903798316734,4.513451635347451,-0.919983307482704
-5.973621987204392,0.2937073828587984,-1.3357099664751786,0.6215507269378122,-0.5048568773022519,2.887054959454837,-6.495168730812611,-2.256185292692721,-4.779916852507954,-2.6847713551791736,-0.2313675349722928,-1.9692542696957105,6.6983903247515855,-2.3480719677910837
-7.193632556944943,2.7901350394798783,-1.149546336481535,-0.4450609448182661,-1.4454937303549036,1.106210510801751,-6.678543497303332,-5.651610749505594,-8.244431459519992,-9.315646979039798,-2.1392495487492056,-2.987698462570876,6.213700683096107,-3.540469444634487
-4.910284662246257,4.43698175748699,-3.0806613092672137,-0.2980586791912287,-0.5807927557184338,1.9671666158758525,-3.4138378725108485,-5.941487993561615,-6.873354836280206,-7.9316909171512195,-1.6360423217654445,-5.038319759259252,4.11711298081849,-2.875626793690003
1.5559261673228222,5.910110243968802,-5.300954832031152,0.9313975248275028,0.6636964480413562,3.9300541193333824,-0.6740226350662317,-5.811829757039929,-1.583943339736039,-2.310018793019774,4.726523702921611,-5.075460260483965,3.8251106809793214,-1.2267778160272
6.72774634500899,8.15140103895601,-5.253578771907371,2.7238794858067763,1.6377488239528342,3.8421755921299736,-0.6335108145008082,-3.0915924412137,1.040136572106411,0.7320262956023493,15.916220293668005,-1.1674174697058106,7.9618280223916145,0.4956976425269339
11.201759800930777,11.573333436727523,-1.997927105485246,4.760068786231557,4.006990683689619,4.39625661752398,0.3838985795917998,3.4568534163376725,4.294825167468884,6.62163641558674,26.39002809410545,5.651938682176819,15.661775496144458,3.5349857459439167
12.521915097189089,15.810397751724878,3.0017692035478376,6.979245397062726,2.811931205166056,1.283785771044198,-1.7152791717749196,5.409279205194182,5.295815843369847,6.248955492958858,30.33795578847389,12.243972515625387,22.762916746288937,3.75534520785489
9.269256768656392,19.851404782865927,7.1128714603624985,9.098142043215889,-1.5774585122509186,-6.032842774393393,-5.527299242599556,5.807039172402068,3.514102159951048,0.082689723135138,26.474691559015525,15.863905697127509,24.83301579923824,1.795816650649162
7.552430618576542,22.344638230871794,8.487100397591576,10.294866174216224,-2.7209978803416743,-7.36106303071003,-4.605946611377253,5.380657080656558,2.7681013223634268,0.0959021256681427,19.06216316764386,15.9048121282799,20.5652147886388,1.151198632270305
6.528873777728407,22.13014529538259,7.083245420629197,9.684091494046726,-4.383303823209526,-6.958118848926888,-4.17301306881993,1.1760486872565643,1.1461124846326558,0.4872568391710098,14.22175362610949,13.649820898799447,12.788494938553384,-0.5106788260212075
6.24533198250743,18.98428646871824,4.246159507160513,7.294643867688023,-2.9574455427944897,-5.04669101056945,-2.34283995549049,-0.5606104193865756,-0.9970399873096158,0.4223934216647704,14.794050855879789,10.884329938483036,6.3257335593498,-1.5275131051334732
7.875716736777601,14.09874586740628,1.6025428825812753,4.470762685236906,2.864843140310441,1.946159003235022,2.2556616519600343,-1.6724345077052938,-3.5551906065519985,3.1828167149931943,18.223470526830084,8.952552949322012,4.453668438242289,-1.5451118943633717
8.219929042567228,9.618014171136169,0.2653109150520834,2.95123355617568,4.4757372941126405,3.597670145930965,2.9668558107115897,-2.2132901938166034,-3.482700372979401,1.752173455044754,19.16764614666849,8.733833284277807,6.720062113765948,-1.3684893998007304
7.592463607918807,7.1943330076139205,0.6133166869151125,3.2026746966147077,5.091787785586181,2.8139406453979734,3.723214371164721,0.4894180401046084,-0.6277104752504883,-1.780031453459551,14.354891810433683,10.683593578135628,9.64774970114152,0.0997288008028756
6.375251134899092,6.585414103839213,2.281900972624328,3.5982993980997264,4.380459614865985,3.394481629872037,5.02375135997743,1.4236665452443913,1.6970948371281551,-1.5704654837814682,5.3694381702133,14.224782384508272,9.539695446350237,1.649014409327524
3.9425898605945866,5.660205593376787,4.155162211892474,1.5460091208730091,0.4554477384435958,1.5864500273331008,4.618665216125832,1.6726792483619564,5.499611654431425,-1.205549844819535,-2.939859223523314,17.121549730884027,5.0939203228652445,3.643641285489906
0.4011942827631024,2.133253413055968,4.661570806656272,-4.106772879146703,-2.289153191837804,0.917329849876888,4.481265443201349,1.0421376662053583,4.651425030308021,-0.9001519987525055,-6.815633517052106,16.154593670857054,-2.071900184280736,2.613514670601856
-4.473121394132381,-4.306724529346568,2.635389683094786,-11.50263404898513,-5.397156553481244,1.1047296712716217,3.561327126551436,-2.159526552384629,-0.5376054589881506,0.7493291548504556,-6.7961885804778746,9.29568183954197,-9.09347310755821,-1.1190043979454642
-8.421276804291704,-11.423842461068432,-1.7165140918003203,-16.709770398526672,-7.064539161672828,-0.6983356821303527,1.0071220976021973,-3.674837239200049,-3.3384476236157514,-0.314607516215554,-7.059045986740188,-2.27808976696484,-14.15694286432138,-3.879598651194672
-11.337425801271277,-16.09554776207048,-6.679993596473565,-16.65807632607236,-7.340565022758025,-3.261956396595666,-2.800142577485634,-4.765509292987088,-7.673102455436554,-3.014436915612227,-11.624245297901524,-14.376147288572229,-17.535844389582607,-8.129833617597114
-12.071988440938489,-16.791441149183782,-10.08535176770485,-11.59979746636182,-4.708336232824877,-3.764002645928196,-3.543745483990872,-4.8877838208701,-7.857023502320228,-4.090881595258075,-20.706131859297106,-22.39305503233305,-20.65855275833165,-8.751907136241476
-9.822377849418704,-14.618813350120064,-10.724658806786096,-4.858095712905019,1.620043548706821,-3.515796300091155,-2.239431223190293,-4.805515599665086,-4.964868696768766,-6.928209616954856,-30.1714931077182,-24.20159484346234,-24.159934351528943,-7.298267393490832
-8.152977417531439,-12.047966418058031,-8.89253760508744,-0.0710153555524186,5.174688127133884,-1.518230278891249,-0.1450047839349122,-2.080644809477921,-1.7300932610674624,-5.1234881219198805,-34.436431312759915,-20.91009746557674,-26.724944525845306,-4.053473432313036
-6.645335897836665,-10.69426322206894,-5.736112666020148,1.4904594491997043,9.055396049200247,3.098997767334061,4.496637861567201,4.357407101010356,5.613061762049203,1.320342037183883,-30.541512859079965,-15.159585570246165,-25.90600328154181,3.7176819620649
-5.979382965790196,-10.373057748415246,-2.3494854735829804,1.076749304437957,8.196675224235925,4.52755028993907,5.602489209360997,7.424589492347665,8.622063705665726,5.723243777892964,-20.464877217954875,-8.95644670704425,-20.42104187147189,9.029212616828543
-6.950177916941623,-10.181056472072044,0.3794139998428054,0.2552071639744611,1.7452865143410778,5.016742395471858,4.448737664920785,11.40481840393228,10.3982664293453,13.29294537492499,-10.106158265153429,-3.1422373619606674,-12.0235128037322,15.271309895390708
-8.103139059703695,-10.151169788487602,1.357983461500174,-1.040203165461925,-1.729131319766409,2.6282211427860096,3.303851522151978,8.673063117813845,7.193561429520821,11.680629809381491,-5.60567029365019,1.5014514937101548,-5.114649915265261,15.125881157995128
-9.913624232736804,-11.458624918779527,-0.5723887301516304,-3.9882253775148326,-6.900559894296013,-4.1150822540528,0.531260640620907,-2.00199788575834,-3.4359701684272816,1.936910046959172,-9.36556294652927,3.4004423423973518,-3.9800410342487753,8.087325292204744
-11.415614163075356,-14.839869105932184,-5.485532854794105,-8.56943327046154,-7.790814522135028,-5.936127712732871,0.402970747622649,-5.949536495140081,-7.949199923455306,-3.626654845453217,-18.40720138205649,1.045288587989492,-9.593994644714773,1.949939022743412
-12.409007474523206,-18.995359753864072,-11.316061093416414,-12.3563745903148,-3.294243482445017,-6.256340739932664,1.6439562184649406,-9.647478755524324,-10.98748086161476,-11.690879561166536,-26.313996052558387,-5.164422617276726,-18.558733795426186,-8.449632205221976
-11.208051098882114,-20.95572797987379,-14.50867959818418,-12.212454506491518,-1.252935436840838,-4.029076429264111,3.3956131739217974,-7.879321588176278,-8.9136182874094,-11.06713446370597,-27.592666625672106,-12.220495954963784,-25.216882092914872,-11.519166599657112
-7.275774214811634,-18.40108374064593,-12.4761622673662,-7.375042923748694,2.4326777871159293,3.3184340181804326,6.2604085994156,1.9297636937307716,0.4118476710348265,-2.619580832468182,-21.37885669886567,-16.10172376302565,-25.4471302353962,-9.233295292132418
-2.8158344233814803,-11.80643637460484,-5.898464990525099,-0.5689512401665766,4.578650819295693,4.995842677607362,5.329406447079215,4.171996978142857,4.623682142063679,0.9916882291807612,-11.67707995949842,-14.50760972660306,-19.267994188366647,-7.410655005122764
2.7336500046455194,-4.2898174186850255,1.4067874151108626,4.276703592851739,4.235017332643213,4.547496342943218,2.748971316393764,4.991029793461297,8.554248791832018,6.587649451706712,-3.967685488665694,-8.400596772732342,-10.365715181963672,-0.4718351516962326
6.217400911984634,0.787076530188827,5.257238403195089,5.432994291242352,4.371031078607623,4.825984724328194,-1.542519032303862,3.7231300108583527,9.260846178212006,7.523096989475285,-1.0555273478988525,-1.1498825616978507,-3.173097863851247,1.1975784327977737
7.03715642993099,2.268427733562902,4.258255165186448,4.313535012338519,3.346662969492712,2.020178259011387,-8.473737345437765,-3.3016830789669864,5.029035009000377,3.3559797514298184,-1.6880791122038232,3.8006427751770095,0.033081078261091,0.1037296826863141
7.323825774100751,1.5410158461680723,0.6467395287705244,3.0843320774866427,0.6442285262228238,1.3232033652286344,-10.336119921144109,-4.726353714101484,2.471746547786152,1.91384107836061,-2.874446242559195,4.828535862186243,-0.106136884724215,0.7628441430846651
6.0955863332671285,0.7223539137106556,-1.792494809208307,1.8418918333037693,-4.311489810536411,0.9192656134223194,-10.225219666470991,-4.396618247788878,-2.767588339682018,-2.2833179628952203,-3.294802296957897,2.513779984436688,-1.4919724047786715,-0.6810999544897556
5.331693142549064,0.6914834631016546,-0.8018283474937178,-1.2159599255702531,-5.849313817292623,-1.6992207677241429,-8.851071231733366,-3.6253127984034297,-5.454311777291226,-4.193946628449156,-4.215452373464316,-1.1484982878100285,-2.5431365338615777,-0.01906128523009
5.246609686129448,0.8577341901647628,2.890587778591552,-6.679415114752558,-5.492194048750028,-4.305049067447656,-4.649622691177562,0.6046322387115042,-5.496103247712992,-3.359909019119577,-7.050372567838309,-3.8298770212533313,-2.962944290168529,1.8045253202228364
4.831357931797122,0.5714247439251778,6.674795269874977,-11.557241793268275,-3.058767479489437,-4.686571571787727,-3.435831155402968,3.266633285862979,-5.004421653379645,-2.5361420576704186,-10.446515573375777,-3.839851016496894,-3.074904482870004,2.724302895343392
4.614880968433949,0.3529278554928012,8.397387684013324,-10.903236207336477,4.162934594299738,-3.43466159294419,-2.299472811126796,6.12945519027763,-0.9320612090319328,1.3333812371353255,-10.536963850638706,-0.9820841120309608,-2.9013253752085504,4.133100395659625
4.321292766764056,1.4682755878628768,7.800002316227108,-2.423768202776941,6.04580630706591,-1.1402130929808516,-0.7926685309067768,7.2963605163674,1.7459498510434677,3.513711504343539,-4.721964617897172,3.022952152041185,-2.1333291045858545,5.068378722104298
3.950479102146689,4.351344334982997,6.084738682462628,10.493257062176042,5.595809911530314,3.3257157672295223,0.6969108484919442,6.374938979261614,4.271103345099789,5.009286645931969,4.745061452674044,5.232804713121382,-0.8967851923170898,5.769312876316113
2.974071804826393,7.742961346144369,4.435923410082964,20.721237549003384,4.599976761702726,4.432413186493634,2.148171098342473,3.7665300728614586,5.234495376345724,4.5585593861796365,11.534474518241822,3.400741128935934,-0.1888567439356805,4.952368137210699
1.2845004552997916,9.647415123921084,3.047875294236164,22.84771707142249,-0.3454047529037565,4.341763237215702,1.7133617471996871,-2.456221924975544,2.9765294027715425,0.6907563712661513,10.435569905531588,-2.1189480857551715,-1.174332524948774,1.569973601071142
-1.7422045682194214,9.145892054491618,1.3707268080453758,17.141157637280727,-1.7783292440974712,3.710104539590602,1.1862504616793783,-4.459158884278877,2.0710169398284344,-0.2089926355148476,2.289539292123706,-8.29593568436048,-3.866183025778064,-0.2411451680600181
-6.379957269008202,7.100178249106058,-1.0407227606645293,8.50155150376721,-1.9562468656298708,-0.0003027808571421,-0.5791379637860191,-4.519766261661521,0.8308711414290357,-0.6184042945971684,-6.363209924026222,-11.701755454742871,-6.610706953612642,-1.521124987771722
-10.94397143834144,5.014339142468131,-4.101304322334471,1.783122674923284,-3.276663140365294,-2.159152018946316,-2.8509203631473445,-4.4883954747236965,-1.4300249182235554,-1.736103319566255,-9.05817963476322,-11.365900561138702,-7.169574081728648,-4.547371478334733
-15.597170353816882,3.4229990062556865,-7.439521610101977,-1.8184635763971213,-3.2777566342215634,-4.71304296910116,-3.861667136792539,-0.7946934848987187,-3.1254739878507296,-1.1118353246487762,-5.241090146196278,-9.482917196259072,-4.555094918686415,-6.883171455527142
-17.319718900286563,1.7141588915927954,-10.65582733172647,-4.167959535149009,-4.127760464035321,-6.403417639377995,-6.234780904778462,-1.8783074902822712,-6.769006800971793,-5.076877209125143,-0.3514439599279626,-9.005359064705068,0.1790095150329733,-10.386530087384909
-15.433322351571466,-0.4312401227563782,-13.047741543000583,-6.751327784991176,-5.5373523672146,-6.274714774239337,-10.108966652250023,-6.037631609004701,-12.494371654732388,-12.689822479295987,0.1761204199213821,-10.239188769579336,5.103646332619377,-16.17326831992639
-9.976167001401048,-1.8351618847400888,-13.239778597554816,-8.450870395194663,-3.5085459755800947,-4.378863582141888,-9.462120178294668,-4.90267925034353,-10.624950375991787,-11.940663414360689,-2.8759431154325057,-9.887112536241538,9.445484104753866,-11.859207582225562
0.2749506843672686,-0.6144215687819923,-9.689908469025385,-6.854266449413743,0.6812124387236084,-0.1819420444439904,-7.277006845729352,-3.3759320502777665,-3.388922323864864,-7.4828734834888655,-2.562658050308229,-3.915224795300461,14.314810061697465,-0.0213762950258095
7.904196750982413,3.558884444712241,-2.2157603000265595,-1.411673671884138,3.5637216154974998,2.850356949750621,-3.9673891605814418,0.9512516569499828,3.510857146415368,0.0064496863768404,7.395287393914806,8.11727211795614,21.125275714231726,8.247397121036338
12.86636307999224,8.222615878369318,6.7728555125777845,5.1760699797107605,7.595414873617826,6.690625629811637,4.660465315094459,10.542167205648576,15.174921185539752,15.136049158115346,25.40109840740728,21.39037419432924,29.151602802130107,20.60358666224597
12.589711034872058,9.693444747171457,12.986003942273951,8.951194039812378,6.585628249273585,6.750955453388012,7.003232967406665,10.333893336586891,15.220736753446134,17.020884140972694,41.67486788132675,28.79843115849468,34.909840551883974,19.009694534392377
4.758124121350604,6.357348909231721,13.003053458463192,8.106608062342886,0.8651795025492321,3.240451732326547,6.125965805188367,5.049896333682074,5.903161818718546,11.115489940620034,45.8108369867154,26.33831971234637,34.54514009509586,4.140582268465665
0.4189855880530672,0.5669335194197487,7.026191699260977,4.478659717622836,-1.1875005367668492,1.7428012538015958,7.139205156501037,0.8469795469987789,0.8861981819722515,6.209892470172585,35.56173368599116,16.345091971290532,27.385097311809226,-1.5809773509523255
-1.335596363879894,-2.932988035858415,-0.8637801422467923,1.8240856516433617,-4.335931951822535,-1.422401892511105,2.8504474217445206,-9.18643364765136,-9.315318668269072,-7.097974586125528,18.77287183741736,5.781720381941749,17.27228812584766,-10.858585339273535
0.3204939836208171,-0.920472211616456,-5.511580614229114,2.634129696123569,-3.681664104285947,-2.076562186783692,2.256701505062411,-9.284488531124843,-9.587356216836843,-9.573283608489294,6.651870084037995,1.0318856152447538,10.022956831295732,-10.614257078169931
7.949339742161078,5.427693926532669,-4.42299652853659,6.266475746550082,1.8712203965594827,0.5891706023922698,4.954402917987807,-1.5185561030817871,-0.1417904613096725,-4.585903060679804,4.580549497374943,3.4982452361936858,8.958584648678894,1.6410722961987394
9.750851909565013,11.22005877469071,0.6091526126648752,9.601530996770393,1.761843343861668,-0.5205478250792855,3.658824784754054,0.3434059681233934,0.6568467475471043,-4.6208344644955615,8.782215210953623,9.351732251791276,12.455748936415455,2.2604766050446665
6.161827127319382,11.531557634666392,5.257610276457465,9.263330992470015,0.7500332505005617,-2.4477987054505044,4.824679166303818,4.70376911293196,2.625694993914877,-0.5958953287629765,11.420945864027264,13.137130966227842,15.765591375179689,2.4866150775116527
2.626764152406251,5.079133979699444,6.208469625625318,3.7078567674454153,-0.1904692927955503,-2.919050775804596,5.7673323603422215,4.494150175333047,1.8916762587734857,0.5576070185963664,8.763408080741588,11.95369518590156,15.437927600667196,1.7799033801509223
-3.2396542582936547,-4.900265626127878,3.529677967477413,-5.820725750635132,-4.361442768302306,-4.767414417538829,3.5324529342056894,-2.3046753324276974,-5.513594813722735,-2.001092711136698,4.470074534971975,6.978201746276813,12.27122209469537,-5.685836473568537
-3.314913380088743,-12.997139940722532,0.0750377077794905,-15.66023515174005,-2.468943002660339,-1.939455111677508,4.281950706724923,-1.0806955651942405,-2.071391629818496,2.390029125104016,5.136001772838175,1.6810477571451816,10.1190235593231,-3.656176799166328
3.425180661910044,-15.28181766118542,-1.2750752702232688,-21.356885561418277,3.302431620629825,5.155884079628145,4.632607111545647,2.427731480045606,6.5994399167101045,9.542163793738554,12.772255252731764,-1.2756793399282134,11.775257369886692,3.0988433935108564
5.447517146663947,-11.710207698021604,-0.0310848894505026,-20.14308629676701,4.154596277202804,6.080928438716472,2.3661511169266096,2.91889711249746,8.169265010580812,10.330157724318124,21.74056922175268,-1.855307109469265,15.84110789658238,3.750243207225487
4.319660320760258,-5.872545114884216,1.8151049221693007,-12.996550437179812,5.257823067871945,5.0457341164657725,1.8128359514908376,5.364117174919747,9.935820479798164,9.262805041840313,23.245753243986304,-2.0443928198139183,17.507968786750528,5.031277987708236
0.2196904339794211,-2.452676199093876,1.8878483407061184,-4.5097776533305725,2.3872228796551886,1.4329051253395573,-0.5749208444455105,1.949440727874496,4.192674372424406,2.7645163704551754,13.269853272951924,-3.723848847220829,12.604925907061665,2.716748175622112
-9.130668774073865,-4.059072028375636,-0.2637637128288563,0.0521566333174101,-6.24189850949293,-7.863510104540376,-4.9472167714126,-6.902325789527096,-10.524091496458372,-11.459654466736817,-3.378838960345808,-6.890183987743108,1.3948069601307331,-4.987900057991159
-10.284923542828972,-9.3787800227999,-2.66639988045614,-1.3056092710986853,-6.647651385554629,-8.070075703456457,-3.3974163801826136,-7.48637083365991,-12.765717805936273,-14.55304950213956,-16.61319162762998,-9.564349466268292,-11.0936990909367,-5.509170012059899
-3.0362808250741624,-13.874764869427018,-2.58372772348846,-5.601600918562468,-4.047885916891541,-3.44855242483983,-0.106911414265557,-5.530203756225743,-10.429190834499826,-12.83177049020243,-19.04714476824369,-9.327337113636352,-18.45233661008028,-3.2516689300171144
4.306663612535901,-12.764103983398922,1.1739403188913222,-7.167911183784504,-1.3035627740383895,0.4632114459712888,4.760886403365581,-1.3959002445694342,-5.846785549032436,-8.219416287187007,-11.452460540315917,-5.242115344681087,-17.309946814546215,-1.6944490875230889
14.6767409835237,-4.45779556762006,7.255582179224859,-2.263004216399022,6.833278197805796,9.90238457505206,14.815806660917191,9.342904135338143,8.056209294903061,5.899712133790069,-1.2656742286365184,1.2808196769182096,-9.495537328886828,3.495982363999402
18.20960079250125,7.944293225473521,12.796903332562184,7.839941681645293,7.195804479028302,10.155914276895071,16.01328631528077,10.518276232369056,10.166869922504192,9.301319775772845,4.019903947337966,7.292158494573382,-0.5832977650834792,4.854842111237655
13.239576343814017,18.39701133771423,15.435344363670596,17.830442112771713,3.2729416609054134,4.738328037309798,12.226486294554489,6.858362551036093,6.884910672280962,8.486096345591397,2.523891441509555,10.171742842635418,3.866281947336965,4.47177919884252
9.831782111255336,21.856566034934545,14.619252983580482,22.371249964529262,1.337278387315054,1.0906739316206395,7.563315035063779,3.352369593413539,4.641140600966034,6.825156020431126,-1.911139512243281,9.194633625312562,1.6433182293501396,3.5873621059262604
5.437888372933504,17.59129404717187,11.396639023430945,19.689959336218635,-4.611860548619708,-8.068089610621,-3.618040625457504,-6.437750691448935,-4.956813809268553,-3.005551469775752,-4.404108774246051,5.722559587055756,-5.278763989963007,-0.5115066487978317
3.5808625689405726,9.379998280609588,7.280297577625632,12.138627238362307,-5.72032543781305,-9.67449444947708,-6.719881910885864,-9.300412750122998,-6.668831823136185,-4.698181357458909,-3.5918737483415235,2.033691769280068,-12.562846242189092,-3.262327179814215
5.918946019255094,2.5523523440683,3.3679632598503098,3.988897672163063,-3.439782437414652,-6.359888948127896,-5.079269073871698,-8.365308704822809,-4.215728645128941,-3.223431813019955,-1.9221272565635168,-0.201566940655244,-16.41494655994077,-6.790456915256927
6.602338366623544,0.3192873575152326,0.2668209147623201,-1.2834359125017123,-2.361231007427607,-3.962688589295556,-3.995113612130573,-7.587938854812013,-3.674523853446992,-2.584334144344252,-2.127491074389617,-0.6830774719551265,-15.61772019457796,-6.699271424187054
6.846459078793416,2.2089282533968664,-1.5995832793266516,-2.3890498861438623,1.5297331504929976,3.644376575213366,1.1494957760666216,-1.966024554329952,1.1317842061030992,3.070814636738608,-4.011994361922422,-0.1489554092761515,-11.667200050583771,-2.740564600876867
6.714262628832839,5.409916974972667,-1.9770185468906405,-0.1517969095108675,3.13738829029867,5.6321499784974725,1.1176197468323126,0.5629081332852323,2.8815883654632337,3.9237575018451114,-4.936817725691771,0.4861716205471467,-7.367761097531606,-0.2456832820513392
5.3394557949024,7.371688044716055,-1.1305827167380187,3.2055664180906085,2.928934978665466,4.277376188234507,-1.430207220375352,2.128575618998348,3.245904219908041,2.5625089355762167,-3.2472234838308687,0.7216597135613938,-5.052362046607314,3.933270931880705
3.973579331761998,7.346005241596725,0.0046991059153853,4.95420811438137,2.331866061887758,2.911078112028157,-3.792619343339109,3.4914538884087065,3.3681954608167333,2.155226606516377,-0.7336552773304632,0.487863196504982,-5.481495404502567,4.338532625138171
2.324963562862638,6.023835886101207,0.3201572923215074,3.061277164398078,-0.2594674201778607,-2.815073733881611,-7.929735959203065,2.391826102076393,0.8556578264956958,-0.8597031632072084,-1.266706209780672,-0.1144046802414671,-7.799914475538319,1.4033034425387187
1.0514094876966695,4.302422516925159,-0.6172766874314455,-2.438514246628376,-1.7365194168161229,-3.529128380414263,-8.87502617109699,3.0477456641602774,-1.0798352022077111,-2.27519011090383,-6.806126768742832,-0.9435787015227852,-10.30215779857116,1.0177171887101228
0.3657789792959943,2.6390730382252023,-2.175648868593189,-8.84101213611305,-2.994067795820261,-1.6509530537198671,-9.452028913660728,3.86331200962986,-4.120614236627473,-3.027536903320074,-14.826421464868575,-1.7631823299791414,-11.480664301440878,-0.1771377494251517
0.11783464168516,1.305742073477134,-3.2070474141543848,-11.958097493349378,-2.81326285281467,-0.0099847831147453,-9.333506514783188,4.227032631905378,-3.376557450778634,-3.750852200705199,-19.93893211405347,-2.260559542782932,-10.839614094288176,0.5212654399069432
0.5847656822525575,0.685344492157494,-3.1204441026330265,-8.878154610300381,-0.8141437496604967,5.118578748429287,-7.72085587868084,5.358051367546232,0.6551683462285883,-3.2744140845351093,-18.41960486194741,-2.2934088306394607,-9.103054251220424,3.662081384074773
-1.0313259268116517,0.8990425231372186,-2.4984538806700343,-0.4802147730342447,-0.0021015405046557,4.382674656334787,-8.866556480882291,3.8037915995249287,2.767215267108492,-2.2068701267953155,-11.50386529045678,-2.1624387543348966,-7.705693536518765,3.0764917642683054
-4.892727135925366,1.1911516509871554,-2.6368562771831776,8.48182232318116,1.2244825829312789,-0.5527827349724377,-9.351334722995857,0.5356195722722584,5.972333551422992,-0.3942188314580458,-4.391561242602979,-2.5494571152577983,-7.818725699817378,1.2729686324862683
-9.454977207249126,0.1299809419436499,-4.356025820045396,12.321438264406316,1.1092129975966185,-2.555937628165045,-9.934212093139356,-2.035621139775264,4.095494848630229,1.3724268860621511,-1.808823427337682,-4.021967333647872,-9.478689869709758,-0.6379157608994042
-15.42437850795983,-3.0836973434577644,-7.113939428667081,8.507580030429091,-0.6305783656509036,-6.321703583144423,-12.66037139325534,-5.897047290429665,-2.2951614727357708,3.6697237445455344,-4.051913981015332,-6.439480936181059,-11.39985197646374,-4.727865965440266
-18.048724184409743,-7.310468925731318,-9.207126037452715,-0.2584345194546777,-0.6082100515141183,-4.93323602824666,-10.26704675051068,-6.918203464646418,-4.35019791928386,4.08145763072699,-6.961497621678536,-8.762983336098973,-11.675352752532913,-5.067625732970816
-16.81557040432155,-9.705858240560724,-8.922211227707159,-7.853060771027366,-0.5782985258367277,2.008300765664855,-5.733819601940534,-5.639579029139,-6.549416943545378,3.13339838843826,-5.795713916781992,-9.502113626551488,-9.002200788919762,-3.064896605026392
-12.946538073886094,-7.794837192734942,-5.738411039993917,-9.232378685142848,1.1858611398745975,3.521388154955833,-0.8672925804813564,-4.582974352552126,-4.904842086367304,1.6092679813720965,0.3994335949191949,-7.56851706081714,-3.668182495165979,-1.9198325193616708
-4.973483922760407,-1.8416246119427024,-0.7186060435769424,-4.091387697226278,5.224317222509233,4.787055105980718,8.940672103958567,-1.4756213938664478,1.9574692583580824,-1.9511947335986064,7.715057601474255,-3.032529987791966,2.394053848640544,1.191518748430033
0.700158399262266,4.667845649036529,4.074422441695846,3.27212853653136,6.110348327432972,3.940582031898595,12.484205310687576,0.4194846661958885,3.795157203114531,-2.4130255664618616,10.536135040380325,2.648058391464716,6.638177573493644,2.0375840775352523
3.933224654987312,7.238585107642238,6.640518983883388,7.641590515985975,6.769257944276625,-0.9385819987168692,11.631086515110184,1.7953833888138933,6.24323320812269,-0.4044039870181165,6.2479633205618565,7.091143313441103,7.440427289583097,1.8776256994674831
3.434925818835622,3.766246760295529,5.967399741068478,6.854918266301681,2.9165556427882446,-2.1064659442201603,11.58301308886301,2.6241422611899665,4.939783962231061,0.0056252285348171,-2.492042503622672,8.03541998233452,5.127963640577988,1.529970260377031
-2.7382475977458607,-3.607371264755644,2.4841511523156923,2.764201802468924,-6.652821024306737,-2.975341358442364,6.748407273266095,1.8938756281293865,-2.6190908524702774,1.2709438690553798,-9.796618564217535,4.599510094380202,1.7300991100882577,-1.0915084279558984
-6.086709530545138,-9.863446364367734,-2.054597390342682,-1.1922341443322706,-9.412493190762708,-3.345997497089776,5.945685711911311,2.059089388335229,-4.303468026286312,0.1742040206797928,-11.123142247596045,-1.893334698347288,-0.4562778682552997,-1.4106945135329334
-7.21289630256576,-10.82140371117012,-5.305015336304368,-3.143282653186203,-11.103983722975268,-1.916559983827226,8.180455698332715,1.840391275325932,-6.124009767950093,-4.080128791713934,-6.573426494826105,-8.255894555523088,-0.5016113504896502,-1.2823953130243182
-5.084256351010849,-6.341129028225256,-5.584283654690748,-3.746772726591897,-7.1860251552430565,-0.025597426004587,8.430754648347493,2.9060801160640874,-3.559259219410596,-2.988405230676555,-0.4042557495830721,-11.179771963376608,0.5095696830635355,0.2024222694999253
2.358636506776032,-0.4355885752338482,-3.062701594976581,-4.568627104006899,5.761329263344284,3.567886519874819,10.735426593861506,5.588485971662548,6.194507830438287,0.488160782965411,2.464707585476881,-9.53152005831076,0.2996333910922804,4.585623104214823
3.7073707779097833,1.8747405754653643,0.0399188271802883,-6.041255053992017,8.15452504365864,4.7548065084066,9.929856519022184,4.666854515434881,7.526722475176572,2.1399686847513952,-0.1389844974618452,-5.482343862521868,-2.920229240707952,4.830674159142192
-0.7756179308678064,-1.4986703272929165,0.7828983827330669,-7.202115385910791,7.046711252833661,4.546539892976703,6.85118498132427,2.174289031025789,5.654780247318324,4.805056833516155,-6.827155126269143,-3.178587233495956,-9.112270390543635,2.7885128988690995
-6.680753367936542,-8.144352450409412,-2.311999399203173,-7.197337440624748,4.650504765522611,2.076304807138948,4.3367570790025045,-1.3328699081607869,2.0966501798034165,2.630279275242308,-14.400342512287942,-5.52827854539599,-16.297224066654685,0.3324473343828484
-16.51248724469694,-13.229050093981185,-7.891519911966599,-6.606177767925624,-5.51156159931066,-4.104659491957975,-1.2475019074760358,-7.990063568678853,-7.688615699434727,-3.596688047985077,-20.124338007325044,-11.561226348301062,-21.62516825850212,-4.9438655394408055
-17.90930014197966,-13.4895565611951,-12.527761248949307,-6.981180233058005,-5.997081268655778,-5.30161943736328,-2.8003371812940454,-8.47151243915873,-8.309409968725479,-3.9366445148936826,-22.684135591896453,-16.793662478585787,-22.84588973534513,-5.788562477682633
-9.777177499596386,-9.774703627202822,-13.227711197079977,-9.064818809023462,-1.2278915574681193,-4.293200640725738,-1.486971747087591,-5.129687634157215,-3.3707982473522047,-2.386648553931097,-21.710447522697947,-16.66682656750607,-19.306156811850787,-3.55850520973841
-2.6129252450858456,-5.986053086165391,-9.740993640699465,-11.638227146686194,-0.3954579480718663,-2.797751433372708,-1.1063231383531713,-2.386328743853331,-0.8592236768634938,0.3466536879343053,-17.16174452979422,-10.34570861472532,-12.079540707424616,-1.5584345143680165
6.482068954851298,-5.392334082071561,-4.775004532781164,-12.35380847331673,3.688461822446388,2.4066870348514837,3.4738371262014387,4.2245015184464,5.72478287921797,7.294476951647144,-9.60844720202527,-1.6074627785231002,-3.399205132198776,3.174052983008877
8.193705431037479,-7.632410080839902,-1.9654093282779304,-9.880908766345648,3.5424677892101224,3.413945100744045,4.032800929014252,5.149844163799877,5.755985271953225,6.739030229046113,-1.0690943035187883,4.04682670496237,4.190251679699204,5.067665389736465
0.3199435983282805,-9.13406956881228,-3.2845992720804014,-5.319624269815175,-0.798297662128036,2.4518806067922063,0.890484037450454,1.664601375856691,0.8294142432689213,2.4477956148051856,4.981797898789238,3.6476438987736097,8.64811670487893,5.824119167724649
-5.119898401952317,-6.586176417722992,-7.859031704501641,-1.465263508360931,-0.6182228500631687,2.632942891258229,-0.1204863041047772,0.7977354638504351,-0.0230385549637044,-0.1246460417620576,5.329627699771767,-1.173486537833193,9.089024342813714,4.811372013376925
-10.626012084680797,-0.275617554526562,-12.82131445028918,-0.5203532008498186,-0.1752366310223634,0.8160966242017332,-4.15387623599328,-2.1145147917831606,-2.858657051958215,-6.748727020039348,-0.3718941954779922,-5.866942387283381,6.144654744550448,0.1160057617764718
-11.635824547736055,5.817255444002575,-15.241377357388812,-2.327647473173564,-0.5984481821722101,-0.3357359099473072,-6.888324149196903,-1.91463289824902,-2.6773642915592597,-6.376363287702679,-8.351821375127503,-6.752208265585462,1.788528072486434,-2.772526041498826
-5.8326905519330605,7.319100682893665,-13.710118157747996,-4.715079443665625,0.1945330915958395,-1.3041062480024248,-6.954574024549594,1.605454330376893,0.8743167051353273,-1.0514211584741249,-12.59873826370584,-3.697150425424152,-1.5526734691737936,-6.705632161189243
-2.6920352473143807,3.222576720583742,-8.816859534953133,-5.547593195310658,-0.3052711202358523,-2.4756299989157284,-9.342094685537296,2.382081401036121,0.7054901072350444,-0.4038201804382468,-9.135723212242514,0.2878501707870944,-2.3003767508737365,-7.460665002981504
-0.702052186373082,-3.195636346690911,-2.6156964431618297,-4.484973989376733,-1.703546927826579,-3.280811513283925,-11.245755996215957,3.643339704611527,0.6165527445806497,2.172148247234974,0.576488338021008,1.8591046367266648,-0.5829656725767158,-4.434398525618492
0.1049310785245536,-6.979428502830146,2.481128102121696,-2.8156024811974767,-1.0993192413200492,-2.0843844347210405,-11.022709495198905,2.890625889478525,0.1349214223267069,0.8475005140212194,10.364806892826454,0.1153542964310769,2.1503863680756314,-2.632312680156108
-1.9657016576675408,-5.239156382797084,4.941932759649829,-1.7105167313556209,0.4345782316434309,0.4805089546704104,-10.905896690732405,-0.0197913954008216,-2.2496415228164084,-5.3996630771709055,14.20911359516781,-2.7598389180449354,4.610976360462838,0.5097126720446247
-0.8738400739802565,1.0691199443460313,4.94959181458551,-0.8200982966893298,1.184974944358421,2.389156848753594,-8.78238015479721,-1.2836911182487956,-1.4747251674142314,-3.609148731339737,11.335543208279212,-3.2804326331814444,6.95600694234014,3.26956043566308
3.096205609783691,8.414868499453345,4.243477495712112,1.2974996437170772,2.292847055681468,5.48891914730011,-4.91782515491027,-3.5030148569224675,0.7378900160105761,0.7608211405565916,6.8680596261060325,0.60895784344725,10.50569620783161,5.621374511750629
5.737064189392608,13.462990152521972,4.845459802612404,5.402387828455737,2.138919556498541,4.472749754926091,-3.544224251810449,-3.195418690811511,1.7644441534164972,3.943713686199982,7.094799964198869,7.878035668130505,15.927288532057672,6.3564638879326125
8.071233726385527,14.937517580030809,7.478371054300317,10.370229746157069,0.8126611688989651,0.4454780079746195,-2.2120799034267784,-0.4727117133318294,3.884023880259848,11.150017010570174,13.492829916520948,15.012301781007077,21.63125808070267,5.732369833909187
8.103922842493741,13.519434546059925,10.992544070477106,13.885229476536107,-1.15149909705104,-2.995524874779665,-1.2574389993953206,-0.7772470315387308,2.2698191644448973,7.938898515490369,21.1614428553029,18.434326730160578,24.286170711715293,2.250652464470841
5.018732551346588,10.613194660812878,13.425885438297415,14.420011157234432,-4.604775798065927,-9.320543430330536,-1.3399485093986458,-1.069434873803065,-2.541940259340627,-3.1432574088388083,23.39438322191914,17.000277583022587,21.46417376390704,-5.289270413269819
5.252942170220779,7.435115602703496,13.840629785849316,12.64309102559973,-4.90627652749788,-8.689244446791518,1.265099377050856,-1.776578389782157,-4.200326593766699,-6.900678609889639,18.25007086419192,12.73586517376864,14.172817210541956,-6.931762090360588
8.490557533219079,4.966135764122465,13.22572322413508,10.990621309471535,-3.2773191174132656,-2.2898707505208,4.183967188538005,-4.452040507355052,-5.983792026253632,-12.439454469043106,10.835658884576688,9.248758293809477,6.7564318864099615,-5.522751105577875
11.529965749738448,4.149565715018485,13.511635608185902,11.805778537651111,-0.2281783669438859,2.0505851632916894,7.595557562827692,-2.285503722940557,-3.887607620061481,-8.845152357837652,8.866231216271206,9.011622315034106,3.889128690388884,-2.72850619734013
15.63101617034419,5.563625618249062,15.524664303382409,15.534835618997327,6.273167864563114,9.88936392231959,12.861339134884762,2.868785297138474,2.8269891628736854,5.676692551920931,15.3806093506835,11.590687630834411,7.060426753321702,5.089134349232909
15.189631467581725,8.67138454948487,17.80919566878911,20.218430832720863,6.541101902401775,9.803520628863698,12.895282231940364,4.692468467407987,4.855929960646769,8.467896621965505,25.311770214279992,14.144361029708882,13.46285258950101,5.995819601396757
9.434167295724576,11.551104903847175,17.55108482314717,22.519769361385325,3.157802599924979,2.556110925645195,10.161492455668965,7.061466138830243,6.346178792939721,9.780058094435589,29.2476436477547,13.715333661585056,18.065841974082826,2.8389229086757544
4.457612498851676,11.789055549278004,12.939236650474998,19.68176407845845,0.7008761915302926,-0.4531662092669388,5.930210247903645,5.86521058877528,4.990878978020049,6.69131162555877,21.2964490908216,9.465105424266495,17.027506076789372,1.1145932311063662
-1.068276671899678,8.128271063332114,4.94588348361768,11.389621770424611,-5.492206971448553,-6.2705383870182425,-2.940162959151161,0.0536367588741633,-1.3484853935010792,-6.760156441034349,4.336492014887074,3.167628956158576,9.884152388829868,-4.088564017442381
-3.780077731662223,1.5977911690482849,-3.056519375066626,0.4322830155749848,-5.616624872763293,-6.291508963868664,-5.329713102342969,-1.4024012880159822,-3.392231806765247,-8.932750372130137,-11.780742597526029,-2.227029285312262,-0.5696721767716846,-5.217654984520971
-2.41410762130025,-4.909261988247936,-7.590358470788692,-8.537888043129016,-1.7499074067618827,-0.4319380215297491,-4.322747778086784,-3.288751326735918,-6.073183491990255,-8.516995847573165,-17.522201403608264,-4.642352012915012,-9.957380794537956,-4.432218626278683
-0.6804084729436997,-8.41741425995832,-7.422320881019464,-11.73641053207082,-0.7008842844644538,0.6658107599861738,-3.135215450146642,-3.621561080149055,-5.520898330124213,-6.338594233707861,-10.497057647410417,-3.9350264080671966,-14.274155273018057,-3.4264586899261174
2.642992237339087,-7.691677143246107,-4.11254324714868,-8.747873325447799,2.844495044499375,3.194066387808812,2.348196759178386,0.2051330843575529,0.5709862148239294,4.668587538788371,3.4262360526410456,-1.3875631493372746,-11.454150606431565,1.1655399316194694
6.44870355962732,-3.751058660032248,-0.4631398747700181,-2.8186093939595533,3.435799073761987,3.142678216635517,3.669461021137173,0.0382584869596732,2.566830055306329,7.484761631654812,15.080176854769638,1.6209062290330642,-2.339497685268268,3.539109458244352
10.336260553499464,1.1765802995146897,1.7094513707295116,1.5484989792254007,1.3154985125427618,-0.6709437547150913,4.006408771921781,-0.5438351097144933,5.504605598093367,8.166544831705977,18.686284879545862,4.548180015562865,9.39745857698542,6.268612017469127
14.13561197981585,5.255792833835368,2.628862485223449,1.9329850360451613,1.3815745872888558,-1.0868807350012213,6.08922429239357,-1.1556991002638166,5.280922847374934,7.411089900660195,15.089688314723691,7.632056424324022,18.87925220749578,6.013961686042977
17.346182818654658,7.874687164031726,3.746151924759965,-0.43040154092734,0.5793106242401522,-1.6081616758452937,6.072071472252016,-4.3727394708149365,0.0381817497447711,0.0506208773801247,9.655771216699865,11.211507836764769,22.735072715549737,1.5592541762928238
18.956644976300524,9.220165806394885,6.010947883478622,-2.097490815373383,-0.3450217212186214,-1.81596792775884,7.926410412254444,-3.3095569669487217,-0.8438827239530025,-2.2042280902534976,7.301510697723013,15.177016548336994,21.13511950198682,-0.0791449794301871
18.511245672800484,9.302495741017484,8.846283041689926,-0.5132571351921524,-0.5390726624305268,-0.0341794979062648,9.729205111222614,1.175784460579265,-0.7056606054511533,-2.377240525473235,8.980838798271414,18.90899119286384,17.383216799666705,-1.2490003134865633
16.395579656386204,7.572246934240733,10.645804142271915,3.9545618308595145,-0.7730329415365528,0.668049268770221,9.270059356647732,3.239494710127431,-0.3909951689099464,-2.6088671340149703,12.108254656907585,21.515065427275037,15.159185095898998,-1.7849195109435891
12.082463790156249,3.589704822509487,10.185635708626634,8.612086599243998,-0.8603575697341472,1.2787247761835374,11.100213085634625,5.8590990089347,2.1693411563863894,-0.0802700147127796,13.804559089467098,22.08906501494584,15.653316689667486,-0.6688104409022737
8.15331747780349,-1.93299875764704,7.6233747482594785,10.790989742715087,-0.2698255375445271,1.7662971015248203,9.7867490765343,4.994799274075462,0.964343659032928,-0.2025694133734435,13.643410681699269,20.00954512335077,17.051492641142055,-1.3939834779099436
4.660465566284765,-6.888672331475084,4.295378551727108,9.713274068586802,0.9570080958985464,1.536249580344048,5.244570395894665,-0.548863370107578,-2.972339252874299,-1.9867741458533248,13.47671612686619,15.388492012155014,16.685012637461394,-3.5845555167473315
2.908666743266887,-8.848883902173512,1.6601882772914396,6.4653745688455295,0.5267466283979887,0.6504675987042408,2.363504904497544,-2.2368964332539383,-4.699571564486557,-3.024324890677039,14.872399312418178,9.42456724256777,13.68445462457177,-2.7337641678740168
3.762509784083554,-6.745433032298617,0.3817919078310636,2.626975779638151,-0.7674918355555193,-1.1795592671508126,-5.26611373457772,-3.539939421536347,-6.897603271412584,-4.918804576949947,16.94987899773907,4.11492248255276,9.628830963539064,-0.1638188568346796
3.750647916894921,-1.7843044891676767,0.2222468203438747,-0.8546314766355692,-0.6621896401902327,-1.2297107042719044,-8.871082188354796,-2.852843778835264,-5.248254492375263,-3.8791967455434007,16.922465472175386,1.1556172254667194,6.769444000064969,1.7944443473116214
3.3775727035778544,3.221816916828425,0.5893199006311152,-3.651539243955996,-0.4750867215587553,-0.8324179219928787,-6.795839576857022,1.1745746760393776,0.4840505536682981,-0.7106579245305253,12.92898780150157,0.7275166519637883,5.77335252034004,4.695025504567012
1.5823860460859624,5.600204377171011,1.0600028048307435,-5.439289278012527,0.8508927784657914,0.4401106420084309,-7.128287069755857,2.393666177054516,3.824341664894616,2.005330091489668,6.322461074463501,1.2455779522145116,5.2167906895290646,4.656419472481702
-2.3911425985815287,4.257798544348222,1.374614583548848,-5.772769240868835,3.823500462848292,3.939252621046359,-3.258619501888342,3.806215640075649,8.258662528505177,6.550514170364949,0.8491316672216289,0.4114850813740984,3.125496287987405,2.293174353117445
-6.485793023957161,-0.2052443494328397,1.0194787757934054,-4.758157565445521,3.085091379707481,2.9798539767906105,-3.3720749803277728,3.1758006847062483,8.350651756936836,6.895173206378372,-0.9453818434775912,-3.3067242751118635,-1.1835021492293447,0.4443013379756757
-11.195740748262969,-6.479425577627062,-0.9878694261902294,-3.687443879705805,0.3903666194042882,-0.1926547751838069,-9.543522654681944,0.0340575945836932,4.032300419686942,4.234850278934792,-0.8007540636965276,-10.005170720187394,-6.787179353733,-2.508115153684086
-17.121081369426257,-13.476535378653246,-5.580128145134667,-4.622937563928248,-2.743109534404924,-3.181250335487587,-14.113224679094303,-2.3147184634274027,0.9246110778616544,2.2703832858927893,-3.982965196071824,-18.76757066250167,-12.41808049219522,-4.656438776327056
-24.062680269436445,-20.346175530409585,-12.540997921499804,-8.91127634261022,-8.632848503450143,-9.24068719782209,-21.986690140993232,-6.338424570366876,-5.002617491977594,-2.4284537678883487,-14.642309625632889,-28.292469404496536,-17.709376250885857,-6.564035589915208
-28.31871322653469,-25.86733972167413,-19.755810283068328,-15.761757328725755,-9.022758958983486,-8.764892697875567,-23.43586176230111,-6.688715959893716,-6.357476711454359,-3.978206636487283,-31.12365829795181,-36.86993000747628,-23.04221196782931,-6.337318736105686
-29.585773158144224,-28.285572988235906,-23.841874156160543,-22.18017928205845,-6.363505145837606,-3.6573852434965777,-17.972281176278095,-5.098820684556178,-5.357312019545624,-4.3733040868112125,-45.78355567162368,-42.07563471787496,-28.31585861352325,-4.88301116159972
-26.126310780749986,-26.2130920838426,-22.22087487141656,-24.557289484808265,-1.660433251238996,0.5468462733859544,-11.197975088334209,-1.034955815211815,-2.524519941185376,-3.3672622275152166,-50.28127159999582,-41.3779879737936,-32.234500559394874,-0.8001589382746837
-16.540041033275227,-19.967149379543347,-15.270130723136145,-20.93956037264109,8.71148617630556,8.719869550834842,1.1788120100160393,8.359241030764673,6.137418147444688,1.6620673540917048,-42.315532980032,-34.001428281308705,-33.16052458732002,7.711553043203062
-10.162416844219573,-12.00421244602498,-6.653207794064111,-12.477332668430712,11.32395893719677,10.407755481663228,5.264901003866429,9.80963471181059,6.992980928267555,3.1609822720367724,-27.9899120257639,-22.5933876359902,-30.83014213941549,9.873216604938992
-6.653973088562591,-5.747420327929001,-1.1258145141766152,-3.0655890109419843,10.562269430407202,7.251086257922102,3.7794456298443126,8.132273385799516,5.0799336319769015,4.649989136191505,-17.421394115977265,-12.63908653839277,-27.146542108711145,9.912079748703784
-6.838447660779072,-3.5340286482373284,-1.2734736765334675,2.707774464951351,6.75993625387196,4.414806947965383,1.4959223339410577,2.7106734445309844,0.1372212999127304,1.92760040855864,-17.051224481101173,-9.254740055335663,-25.02138017000092,5.412126310965279
-13.163400217543057,-5.237037177551944,-5.785226182058257,2.19478939171678,-5.121073752844671,-3.0388898663793587,-6.41162216673713,-11.459702077947094,-13.025439965229276,-6.712833010693935,-25.076463172670245,-13.543936761080376,-26.08878752108629,-7.277777496413678
-16.01254721261838,-8.544397872107446,-10.710760002760624,-3.6271650639806623,-8.013054072384113,-6.076624225916771,-5.462846799260454,-13.802018590519724,-15.019426741932277,-9.124848702349151,-33.66309022377659,-21.522609621591823,-29.246800196517142,-11.141146311877268
-16.007631267802882,-10.509349268502556,-12.584651828431468,-10.57150916601973,-7.4068220946565795,-6.514912505213138,-0.1478561416279084,-9.632816790413289,-11.297740285598053,-10.16737593825779,-35.629170643730205,-26.686540767848683,-31.32484847566032,-11.61791248258664
-13.43003018935698,-9.13814195647996,-10.725916766114024,-13.781566277147354,-5.8947626711810095,-5.792072020311135,5.297011025522063,-4.987938824455037,-5.458821145607442,-6.065299336349775,-29.636715362462024,-24.320076636076955,-29.38649165343183,-8.210343663363755
-6.07626331227892,-4.098437630267004,-6.958420584746509,-10.967020613203548,2.5136106390261705,-0.8945475958275874,15.954672641429164,7.493887290205052,9.190366536555878,5.6298752615876815,-19.84155972567637,-14.33698286606052,-22.87204188310008,3.5982874854106908
-0.3043192932575243,3.4545237030640275,-3.4773226451674244,-4.100091316136081,4.224212287650025,2.044479148558651,18.444562786055645,11.35925743577002,14.803899795337715,10.19350204836432,-11.280235475443565,-0.8368532281497458,-13.99238076861486,8.423519586026503
4.380489390156425,11.442832840421651,-1.1226113482663518,1.918389068298982,2.993240196579285,5.494636947729583,16.7843618911127,9.821249018164432,16.18634861317397,13.477962787972354,-5.784128394662062,10.81647573687622,-6.178974890837525,11.5998763490909
6.99696263138753,17.548835258658805,0.4986264840023278,2.9344177154710014,3.301700673749832,5.338126996559966,14.854103423133829,8.781471168593008,13.877927003085068,11.204502225313115,-1.8485847869275247,17.03934184502783,-1.800750166308518,10.674878447773365
6.04268822745064,20.063876760375702,1.7040223241474646,-1.183264036351165,0.4349584509160525,1.140109156448893,8.282599155131635,2.5045967625990224,2.7808440611771874,0.4576369461156911,2.4140678714553374,17.33108031437597,-0.8011926661749342,2.401964501600626
5.047199202182607,18.7661517551375,2.000556533604128,-6.40764952388672,-0.6548714660916091,-1.0616140052735934,5.556195126196462,-1.2751298808663902,-3.0541086775550315,-3.5863266016479387,6.805253086409113,13.60202958529215,-1.2045763115999186,-0.8585505419034759
3.264218440481924,15.226151068087184,0.7419149007192729,-7.844537771560169,-0.5399538659673686,-5.2203285532935,3.643754392774145,-4.766908540538462,-8.559126266026675,-6.741015231619736,9.36358573596796,8.552675060128722,-1.090324150140631,-3.944600424712885
1.9630410901650648,11.995530817752666,-1.7471055620037337,-3.753225064924093,-1.7659203741314902,-4.822967762072894,0.2779952657795879,-6.666466267724702,-10.279826744933752,-7.088854788221524,8.515514695736078,4.2898616093040935,-0.4966532814733586,-5.428712596586023
1.7704450415795496,10.989508461093228,-4.04953074512183,3.1674579421287774,-3.01880598048124,0.100271653644362,-2.60590559668513,-5.366158002644654,-5.975887325793974,-1.650496002293861,4.466359454798146,1.7602235754842868,-1.6001555163876846,-3.018426513700596
0.7037393197793818,12.258445580306756,-4.814463984452487,8.31917762101498,-2.1303839850233763,0.87163861686577,-5.00721627002629,-4.34786990228203,-4.37195372778645,-1.1413155338022472,-1.3569582246167355,0.9123257850611032,-6.73692403233198,-3.4741958925926792
-0.7616779903708117,14.209260053837111,-3.9643510651915936,9.207331373621962,0.1185831587905177,2.162910132320238,-5.30418158192833,-1.0342563867331835,-1.12725341997945,-1.660790300393911,-7.636103968518216,1.1690638317048414,-15.68649560749834,-4.35633906250844
-0.9963011026100016,15.096334287367096,-2.623296618671025,7.257155418527631,1.224049024166986,2.3950562312003374,-4.272821476626403,1.3402305805754893,1.8240302497365644,-0.0543521263619612,-13.532095409568708,1.8233498037379072,-24.640499854926176,-2.1485201599920383
-0.0890471420967289,14.41637231273979,-1.8545385636413032,5.928760327573438,2.914564411188497,-0.4828224618819796,-1.8638948101917248,2.8890244836595733,3.498005533953936,0.4716905158711864,-17.966388144561254,2.2066806697201544,-28.25666494995061,1.1801750188568307
1.2276892729160895,12.94716005278812,-1.6098324083455804,7.1326147157953645,2.4485039020718355,0.5676768822458699,-1.3105065616750025,4.301067546899024,4.925896740641866,2.50059350404,-19.26000158883304,1.7421332665710745,-23.61778489291704,2.7782025971370685
3.307137691179334,11.543633708215134,-1.02570030005322,9.440675473247389,-0.6249473166676857,3.388534361379481,-2.377464516687965,3.773718836559567,3.9154850078627663,4.700793690606397,-16.15873611085884,0.1005854351426736,-12.903209388438874,3.271340002675825
2.793448436513703,10.061784763028754,0.3615687308439552,9.70674557978471,-1.3274422266384476,1.819249214926352,-3.9829841802372834,1.5847617393656073,1.113293440075812,2.8457705103416138,-9.390827767756504,-2.474646266595585,-2.188164014111563,1.367136521997914
-0.6670419472660516,7.606961374779888,1.986106486702487,6.384294947351129,-1.731301782421489,-0.8451816647256502,-6.295700906381128,-2.1274830800637323,-3.389303873214557,-0.5318248161139774,-1.8583742974281847,-4.9128784205301095,3.098926157790105,-3.1992374802623025
-1.3452320454847877,3.8431585241184942,3.0331025746087583,1.3047816792373528,-1.5491543495624671,-2.5633935186438914,-6.0264145664543785,-3.7719416269999537,-4.398182741613928,-2.4458871090356373,3.2668890078211383,-5.528370050834459,2.479038925107668,-2.823943326134152
0.2210197861475331,-0.125277961985855,3.727065494263868,-1.734328207454407,0.4143655399816309,-6.148441862959416,-5.144853096179602,-4.607715023414608,-3.003705078229776,-4.651136768398583,5.040685363657421,-2.873397435099779,0.766065878404874,0.6589064495533189
4.086969557651859,-2.443691127571857,5.442354653848582,-0.2276475269653652,1.7934454416226244,-3.2674372493252166,-3.316909281861079,-2.079909377705736,0.145288301526755,-2.6546434215778683,5.457568937091915,3.138023984475434,3.946727287126244,2.5985570957382578
11.543639754553295,-2.26436020375854,9.1688292502161,4.842307137645964,3.5815572680941106,5.162083484665416,0.4608326828017111,4.635512431414411,7.165322025769923,3.0788081767588498,7.544712855760457,10.657634479070392,13.983350162374858,6.3573084820962205
13.06879674054558,-0.8059784946606294,13.872216556096248,9.689096057590234,3.409117740109048,6.147207503611842,0.3652728506428029,5.112958544925919,6.907728733640205,3.824887062510141,12.503587917346865,16.578011576627674,27.000991083794208,4.984963911653919
8.409386339056548,-0.4648711519003141,16.782619032075374,10.619192014350492,1.4443538995625151,5.608189410312071,-0.6575291610204247,3.734526590121032,3.1318671531224176,4.953117378662995,18.526713632307683,18.333945753953135,36.45323290420795,0.0767669081430597
4.261076854426548,-2.6356268726603043,15.799499938372565,6.8086497252830105,-0.30777824729838,2.786978881436862,-1.855756889143886,1.3451884985313027,0.3130362785180367,3.094714545668525,22.361973267163624,15.704253925750514,38.50066831590669,-1.9873538520222889
-1.4451030675122642,-6.309959241238726,11.79383488515887,0.9212036150366952,-3.7204423543967087,-6.293200782318007,-6.505864004577923,-6.260026158865026,-7.242237961740205,-4.799887876698266,22.153382088258645,11.179836628313598,34.87257802923126,-6.0999709195732965
-0.6717686471686868,-8.919178686189168,8.292097727361604,-2.781748823615403,-3.5864960130836634,-6.549001977115416,-5.988428437808371,-5.488564892700124,-6.683724705162616,-4.529720378345406,18.99879378853841,8.358528196312626,30.760694968832038,-5.495013941394477
8.09644836096106,-8.73247517727546,8.4630816611322,-1.4830820091399488,-0.504629603666055,-2.131005814390547,-2.5755147232088085,0.0733121939123879,-0.4667767817632672,-1.5952623734786355,15.970559166709297,9.40076438604098,29.810908470137417,-0.8855755756695689
12.964053732884016,-6.519316023505009,12.140459982021422,4.053286105143688,-1.3073139208496545,-2.25444338072301,0.1817791875406832,0.3811062659228119,-0.9133647954180336,-1.5695353026825376,15.66143556650724,13.506525478404216,30.91769024138365,0.7088616864855062
15.7320969322608,-4.801018104434565,15.82331136205325,9.748631277192876,-2.4250035659121414,-0.1685886507512441,7.038850158108496,2.504285545891251,-0.4320219778356369,1.860940234134371,18.431283201892334,17.67940807046863,29.80168374249193,4.113997080350528
14.21668580211628,-5.339304906249485,15.791759907140674,10.9016132120148,-3.372670083093722,-0.8098383064552438,10.251594259219386,1.067459485316876,-1.9794931628289576,0.0949561172471431,22.61121659573078,19.166539407375307,23.81511045428923,4.335027136034779
5.950447247675124,-7.271185714808683,11.421798795082594,5.683780877240887,-6.443981286270326,-4.76878773663076,10.403956732234915,-4.766248259572,-8.31539994760315,-7.0792147520704285,26.117224795404777,17.54347400420583,15.312982597747087,0.4315071494444884
2.399925487998243,-7.724750551531324,5.592788200927682,-2.999589153681007,-2.774148620655125,-1.8172501071356464,12.187866404804137,-3.0106122985859933,-4.763840413368726,-4.904820702958761,27.96231601447849,14.766014935342874,10.222991975523865,-0.0746849634272829
2.807917239167132,-4.391551791768528,1.942174982114888,-8.942927022479882,5.834463514765534,3.954417690793379,12.108033842575828,1.3128271919643235,4.172616101617503,1.0295594012408684,28.61322887638312,13.311218267609114,12.966411924444628,-0.5692909187266114
4.049442239459816,2.284304153322722,1.7065317699494953,-6.83599310116203,8.224005138288463,5.96945917136144,11.131315384499318,2.992351757486773,7.8451759008339375,4.406303719659618,29.203852623988404,14.094667221170052,22.342550246733595,-1.1545249827882773
8.476549571387906,9.196158682314842,3.04742405549627,3.531417032026776,10.142375896958775,8.463585425588134,9.88898789636883,6.393066178774421,13.52098379484031,11.88518990000113,30.30944548584961,15.828595807993665,32.114502320678135,0.3054833124615144
9.233077403012924,12.726613135489664,3.154611421109064,16.29326347154955,7.500414202451737,6.6582255271571,6.300087085638601,5.460041731224457,11.079358535599631,9.750215122104708,31.10791119646532,16.109877284929823,35.73991447734536,-0.8733803772602586
6.042637826305249,11.089468211042812,0.8455436119585809,23.015477334267796,-2.338334215435572,-0.1737630122185076,0.9970897914012344,0.483508865873003,-0.0203959159839206,-0.7328933299067978,29.596973162415967,13.208765213911452,31.101231533415344,-3.645838979142269
4.688844117925002,5.205216911856988,-2.68881218967773,18.63914820228825,-4.2765162284773774,-1.8459954696367176,-1.3997942770317435,-1.0593028564242002,-4.105263491474361,-4.35032523006492,24.079846320412845,7.294026896144009,21.459235661910675,-4.157838088082789
3.7928059183525313,-2.0697655476105403,-5.239560988296848,5.601405754835494,-3.9975532394640494,-3.161653216183238,-1.9396567035618664,-4.035624714262874,-9.032332846864223,-9.33190977373468,15.167437856758765,0.4750852203750586,12.445684256455094,-4.407913463560125
6.500916182965309,-7.451172990346411,-5.415993781309695,-7.301033892166075,-3.600264867993455,-3.154820227051345,-1.3516001981547463,-4.280328366601837,-8.786596029478584,-8.339289018217107,6.5645121837536005,-4.271334999902933,8.083146093266365,-1.871275837949596
13.96156252464585,-8.631277942442495,-3.423404125610912,-11.06728679730396,1.7357301317574096,1.014935098727456,0.1403367273444914,-0.4827549625286138,-0.976974841153144,0.3880140961256272,3.1901551767836382,-4.839637429587302,8.84360772372045,3.7198450077619527
16.992536446564614,-5.284242991867199,-0.6566805917802547,-3.4086986717179397,1.8320956108154995,0.5244297152739694,-0.7335660506952555,0.6266495984039775,1.4342399187541084,3.226384324528396,7.294050069000382,-1.6133089506375151,12.333287028901951,6.479105408966686
16.123537833353947,0.5415638661803985,1.0798477321085382,8.981033913616962,-0.4202263545983139,-1.0994982954375088,-2.221084273357632,3.3522629442723777,4.973843570581803,6.804029546700992,15.640429362456564,2.1445222456099438,15.148589973942563,9.273256910140722
9.516631219676936,5.1131924696587046,0.2289404432190291,15.098568585682578,-1.872354796521396,-3.3855143997080925,-5.4051035215578,1.3783302693860375,3.680194352860404,5.811559386260395,20.849671609206425,1.9445991595809493,14.468113894421393,6.590036016144898
-5.240204921411031,4.9640237272762295,-3.8400595971881977,8.128478622369897,-6.090057390531494,-9.243510787809194,-8.530428178944407,-5.776146296223767,-4.138348644828702,-1.5834365585037251,16.719780449026366,-4.7625388498749714,9.096827628604789,-2.026922088582994
-14.0135411840167,-0.7941401427797601,-10.122572235221003,-8.812154027977812,-6.494102485871455,-9.178336394073092,-7.061665503640195,-7.753326317981587,-6.054674008609393,-3.7546581967543,3.414039828824066,-16.0557657967632,0.1157408227472789,-5.244983629625584
-17.215865472527856,-9.52910002143698,-15.91707837065704,-24.54550410079615,-5.317008600429,-6.594383809348916,-5.20365303072625,-9.653113801059227,-9.065499248240965,-7.291222670514724,-12.175717823084662,-25.99759927680776,-9.284586505185136,-9.420485268292028
-15.520379766221712,-16.603591036935747,-18.09201066772092,-28.210438128820336,-1.5904939211179232,-1.5275625393109342,0.3857724560023534,-5.427754345996701,-5.979198094764556,-5.491640079087553,-21.60574934622451,-28.402271662779505,-15.39051906067098,-6.928546996978698
-5.37483188616821,-18.500407882397216,-15.210119408396498,-17.58601561464318,7.168247710505575,9.742370032181393,9.473342446558824,6.440786768288263,5.54238960702801,3.718530601612813,-21.26190987279034,-21.375872930341284,-16.429372299528296,4.467102823326615
-1.8735787458791209,-15.185354173290657,-8.85207253571544,-0.6492490372401836,9.048236018149526,12.62228681884449,10.70649813421362,10.099350393432106,8.04942930785548,4.793589204376385,-14.450130820680302,-9.004394179191932,-13.981252363333317,5.35264591988817
-4.7523045115135805,-9.792995691644531,-2.76820704360207,10.82825466267526,8.60499330104676,11.958764192462874,10.932725935083472,12.117895892304448,9.473296502673826,4.996897273072477,-7.748833687458044,1.3948936304896409,-11.747949551780655,4.2182359530285485
-8.11085475276262,-5.935139034267724,-0.2812917022024432,10.29807873579093,5.116693532172878,8.611695897145673,9.289044343850934,10.078748753685009,7.774334387217882,3.0317977056921137,-5.465611372787299,4.425556463463806,-12.402797741522823,1.4735798582819075
-15.265286771289295,-4.947642210882883,-1.9846570186500931,0.7843705118535169,-5.812938465638867,-2.837355300783747,1.9097774457146144,-0.0758711799766929,-2.0792900174401785,-5.833767302685748,-7.316710843503554,0.119252764270076,-15.332284725863438,-9.29312114713729
-16.547087703580804,-5.377751664320337,-5.575948947225488,-8.506177626061092,-7.069005640978514,-5.501540657995754,1.3552333488436117,-2.9522857671769525,-3.346000381375899,-5.449711929160394,-10.648422078137983,-6.818531017658572,-17.513112317359393,-8.834216180221645
-11.183778974221084,-4.954478280185436,-7.806307579318432,-9.91248322557986,-3.205212454982924,-3.75226822036221,1.6587320474944884,-4.019275251607086,-0.8061377491397688,0.0120735271176906,-13.870117850209729,-11.054040247917069,-16.76644838129375,-2.169108614544147
-7.797425142520853,-3.0417873425530564,-6.8093321087292455,-2.8714101715280838,-2.2474285375253125,-3.956793278768539,-0.051318323239976,-5.771268110249026,-2.245716785644201,0.5337890236188061,-17.17700869806108,-10.445417801900618,-14.1562508410976,-0.6599750298358971
-4.273182854757861,-1.194364032513807,-3.0272070841039502,6.700523274779648,2.7478885433015456,0.0619006950654579,1.9964499858095932,-3.70076285688772,-1.699810450314757,2.9148576501218053,-20.394790346069527,-6.739253353708912,-13.03004118993478,4.048050684129121
-2.1478937352252427,-1.2909175022004025,1.624674281802978,11.78577344668524,2.455986801915396,-0.404819419420877,1.1308273731519338,-3.370575926726293,-2.431421048556876,2.16060175485728,-21.38005798916685,-3.196803419050285,-15.573779955997344,5.461193119517876
-2.758567279167177,-3.132582818218271,5.318019110876968,9.52793895904107,-3.142423538504266,-4.730257277903844,-0.8827848440819674,-3.497820082946744,-6.074534202119742,-3.7188433095568687,-17.68050379698248,-1.6925901237637273,-20.360217024309836,2.1937361647665297
-0.1389188338019727,-4.065000056385713,7.324827474723554,2.465678084236817,-0.9796707534054864,-3.0960965885995084,0.0723677073257614,-0.0776939599367329,-2.221090174624288,-1.4686228091286555,-9.968554997573444,-1.7666986118164054,-23.46116697323624,5.061385729366426
5.228466629133434,-1.3316921676980478,7.989162281583532,-4.343179280729798,3.563738746509221,0.2139007124291131,-0.5113291000532805,5.301712426655358,6.724771944770318,4.7718385591820045,-3.0488646719214394,-1.9363227275493404,-22.11423422835013,10.156227904312058
8.759342906864976,4.898829499293292,8.01355526482564,-7.290837575992045,4.700567688112723,2.044524930997893,-1.6100068115121533,6.134555653860359,8.594666506854793,5.539676440185556,-2.4161113457342958,-1.5359144931270965,-17.341706520723264,8.34399285932819
11.320057589879086,10.882895998867305,7.728327462369116,-6.1589974260875024,7.045460254292698,5.320963229568036,-1.305364975322743,4.514234527377242,9.083650087827136,6.481410602973323,-9.259939844376444,-1.2530151057709418,-12.98137519996188,4.87279456164291
10.483112971320791,12.106468032686102,6.844575660088154,-3.183621151655764,3.3025919659583445,4.20621782749656,-3.1616622990015584,1.4036912403467174,5.119491279873285,2.8825722295000418,-19.009622326457844,-2.121237836461137,-12.18610763381609,-1.1161254655400017
5.183590369854102,7.328927785247522,4.837344794631418,-0.7288157515110321,-6.523099636023597,-0.6261797425648745,-5.254127688557609,-5.75057428078599,-6.285814851593743,-6.801206852403388,-25.242605376178304,-4.247738601368077,-14.852648876496003,-13.333594488298376
1.248539930423633,0.1778757502138379,1.682033566235276,0.3465222467491848,-8.155406207364836,-1.8196468668259984,-4.99085382078246,-6.544815988187237,-9.157461970223329,-8.445129774662831,-25.27955802618057,-6.577184015770451,-18.25103519019367,-14.355989295250458
-1.9712422243279757,-3.4318470739023805,-1.6874056603746332,0.6666688130794771,-7.366156569410339,-2.707782500729467,-5.412185253842837,-3.4083463352108367,-8.792304042404963,-7.010845399712178,-21.92757838242477,-7.766891860896665,-19.768187365867448,-9.072962340996
-3.431462490949815,-0.0346610753508631,-3.777769429178054,1.208637693753298,-4.203685923474803,-2.546952536823088,-4.759920744659178,-1.2205156661578744,-7.565842612138018,-4.587902427351645,-19.752812528531607,-7.19203916296639,-18.78341427975537,-5.040339923423701
-1.8080194270510288,8.56640035347719,-3.701653026423655,2.2648497464187063,5.574051534391922,0.0667145440102159,-2.5802222717376284,4.460468001975424,-0.5450239505591047,3.291011815316204,-19.929877807295227,-5.204210562306463,-16.10738408668466,5.7401010784931294
-1.1202985426942824,16.83113837443164,-2.161525517557102,3.2625105446288405,7.59415279230989,1.2696097214727098,-3.2918484376592096,5.785388871009155,2.801551682098923,6.0699815413023,-19.148808695134555,-2.679914017805295,-12.298982537716086,8.383228003842936
-0.7635356604308712,19.944614984858745,-1.1737872501725235,3.333401716571238,6.8863457893382245,2.72206799502279,-4.627536730759671,4.876975265875094,6.097621846736265,7.528600261423306,-13.718922299177912,-0.50187080984999,-7.196887748641025,5.312572737436442
-1.3363825629948192,17.27457596371767,-2.462177131452581,2.010236374168443,4.900384005880011,3.4742374159535085,-6.235129147466596,3.2968552035738243,7.418030498738207,6.563148642745623,-4.455620659545051,0.6319144948787994,-1.1519661719225454,4.657622616501107
-3.623017583644091,11.978637173105106,-5.806716274557321,-0.4840510187580911,-3.3616599084813887,3.163667940567829,-9.478752702041607,-2.3405324999629413,4.674690038395202,0.0673883391128438,3.0117130467646263,0.2706058822155093,3.911892718290861,-0.1336864483023205
-4.939478679723875,7.517406886233399,-8.94411366895497,-3.4601540946122107,-5.4897369503030005,0.7282865735816869,-10.27052058776742,-4.550130222043131,1.847000751501494,-3.2286516437338224,3.226679921044159,-1.5354558458942549,5.454997371006623,-2.149474287967214
-5.596987974169782,4.568121425871251,-9.334790748806364,-6.238991071811132,-5.694983719785252,-4.440853482033312,-9.796039738779578,-6.268722939695627,-4.317636461915233,-7.613302695262067,-3.5708891399129072,-3.924626212325915,2.714684752311527,-2.029145411230669
-5.838037315590424,1.2197184114673831,-6.333105146535324,-8.510296968441136,-5.160888267418485,-6.652504306858655,-8.99787131767748,-5.500738686423635,-6.449767891308505,-8.232597551616978,-10.906477630756388,-5.362759025136466,-2.014631683408979,-3.2023788519990948
-5.147676001584902,-3.974076873338248,-1.7936622206173602,-10.33902106551912,0.2805621669280873,-8.360775454539631,-7.234118720522583,-0.0886723342320788,-5.731168747945865,-3.7278100687027353,-11.372040603255453,-4.452801624907046,-4.879625335424429,-3.033849615479467
-5.451024537924043,-9.367565670853049,1.4643785144308836,-11.847837410122388,1.2437400849331024,-5.857209222118174,-6.475018677130327,1.8547289403423568,-4.140632926101097,-1.419288350401521,-3.1153425364034426,-0.9404519200987238,-3.5553213672080872,-2.422048660065089
-6.734937376004325,-10.970234075141745,1.9219019677127989,-12.857985250486582,0.248369955153254,1.8829716114714148,-5.8188554662959415,3.655338777049075,1.659038483018434,3.175585317582468,8.280046905310662,3.9124298205913375,0.9575430923854462,-1.264958389209238
-7.762072732082353,-6.216428532281977,0.3080847878792205,-12.824456943829889,1.1284615412119028,4.87125312058526,-5.469469911807775,3.9937153462198696,3.845571454652715,5.1633605437811285,14.223991018896475,8.00411998777426,5.411910793870739,0.5796016442914318
-8.9143336099192,2.778014145668365,-1.4598799347477538,-11.174436128098872,0.622885147203066,7.803043523912243,-4.700706083233678,1.12181354135567,4.6469257037631175,4.139216260573554,10.095862229349116,9.701428479408683,7.0428743729037535,3.0899252509335184
-9.373909404718756,9.920416624593944,-2.096601557581245,-7.8151666534600785,1.440224496036406,7.041711864871714,-3.410105231237725,0.2562373416394933,4.440333873639209,3.665198936200709,-1.0374055275171905,8.833753769262298,5.357800182699684,4.140434821503371
-8.926463144618388,9.7193246813215,-1.7119338497721763,-3.441563811953749,3.976985283131069,0.5135472623731477,-2.796770248343013,-0.6793807067770217,0.8883470140053877,0.9174191418277372,-10.896415057873336,6.637972950359799,1.7030210931513992,4.280629538287437
-8.855670482410364,1.874097187984788,-1.0110095077975352,0.5301440537141247,2.802343295540969,-0.8150728399313658,-1.1447139415048324,-1.3654860863861993,-0.2760597681748044,-0.1255766323189522,-12.47750272049019,4.7044844522098686,-2.3862711158918444,3.32639914905298
-8.959397771772466,-8.32418447145065,-0.1212451314258942,2.320747482729093,-0.4382586570826716,-1.7015061854587394,0.1970719840248193,-0.9981316792342668,-1.3317950503942777,-0.3113276863511065,-5.265400169157774,3.7413670687783096,-6.201244496277003,0.4054609660786815
-9.364022626707898,-14.326869914791937,1.498034681113669,0.3607625115307105,-1.893827756764038,-1.7318308555357556,0.3735259449094683,-0.3001195237413919,-1.4181214932853354,-0.3960916113950426,4.87051701349554,3.1451254582317603,-9.552422700947783,-1.131016301323019
-10.31778352774059,-13.624739688769898,3.992189986714381,-5.857358524402979,-4.057403568819774,2.4081379241113834,1.171442505098491,1.258942709064147,0.0439703272910959,-0.122910502740301,10.717560044767792,1.749981886147582,-12.015570915713422,-3.108646821577383
-11.118088882249587,-9.350266876142872,6.25549650506513,-14.7879075892096,-3.377062891355148,1.711209291688104,0.598115160841067,1.8564431005013813,0.2300270460155624,-0.2179704501923366,9.358892837859868,-0.8766268700140571,-12.860606365100722,-2.9879970713821127
-11.860378992878973,-6.940752611230609,6.495517323169198,-22.47849374207897,0.3024145947246658,-1.2935575537536634,-0.6514916414907617,2.306164582502836,1.1129408172632982,0.5908121102466803,3.78247254867344,-3.786634319803815,-11.728379348937509,-0.0822298288101838
-11.927930040406148,-9.08841866119094,3.8575682791284542,-23.909581262133383,1.6852780685774629,-1.8303113134239728,0.3242260911540588,1.0084345420845968,0.7372143021317864,0.3083508334744781,-0.5708534045300606,-5.35677541770189,-9.14367603649934,0.8546556062982178
-11.1258711112069,-13.543535603136728,-0.5096853200294316,-16.101181010354864,3.406769620845537,-3.717130763356912,1.2574928375044392,-2.3922590880458907,-0.675737069987492,0.0110948291525642,-0.9328906897975012,-4.801844500187483,-6.148009529804385,2.6328945991816703
-9.488273818744709,-15.47554064736448,-4.109770995913319,-1.1538766498615658,3.4393972196835034,-2.988196826988424,3.139547092869833,-3.380735696534627,-1.349639528719986,-1.0877344393503174,0.7256005560245491,-3.0656007763521256,-3.3718395595747968,1.1073090879159209
-6.73875792651815,-11.930352630231376,-4.943723920908359,13.602242774780262,1.0781789985598749,0.7538868567297987,6.373880721953304,-3.983932527132259,-2.788586144575957,-3.9879373805208895,0.443722902782623,-2.097032744837048,-0.5342709926326794,-4.117396110922014
-3.581783322865717,-4.318591373893368,-2.8775992424228,19.625424970178948,0.5511163720804857,1.4709949450690387,7.234888304015456,-3.05360862351128,-2.8488377598784864,-4.174692231418471,-3.0096319493292647,-3.0175606408430884,3.059959998157884,-5.416584543770268
0.0671666235166856,3.0070622753039338,0.5838791488215351,13.17257559282477,-0.3679403259336785,1.659722910166002,7.701501566261422,0.3967547167590315,-1.606766910048887,-2.5808639202670327,-6.184270019824414,-4.849330281641121,7.507512563635002,-6.173928937184419
4.025642637687431,6.469619455454531,3.673490361701584,-1.263120944735962,-0.4723484667704125,1.8363831565128896,7.849204713836571,1.7481953382882272,-0.1363965971656516,0.1889521765692436,-3.842381501730856,-5.100520155699625,11.849954037482046,-2.9666091525419565
8.138014226824628,5.929160653991761,5.513154597068115,-13.365197526448064,1.141851255828639,0.5038855192086013,6.963712126800122,3.0004791776140984,2.541206951483612,5.392453730239751,5.923014101181183,-1.846112091891852,14.744967797556184,5.382451508146775
12.142790812239756,4.229506025927183,6.174331648911528,-14.077748072646996,-0.0811623473477556,0.1967118601064272,6.380444624153888,3.5627852259884465,3.828734184578523,6.629358583015622,19.17463254643088,4.457414980830439,15.690082584380647,7.802722115810042
15.876963373587742,4.375035613800577,5.982595995401686,-2.1725632546654463,-2.4673229191262065,0.2859488385463924,4.9400883410049845,2.482408309453723,4.356575618056208,5.4754490393707815,28.66367744057632,11.006817657371553,15.562957248539478,8.746823320039509
18.482277289342136,6.903581874302477,4.999480362027823,14.850987011910217,-3.780842652215469,-0.3828402329193131,2.8752646927269647,1.3390858868440867,2.3943677362500018,1.6216925127121342,29.22632915947465,14.535511051198588,15.81519337901431,5.255355144862706
19.69685302567933,9.586994931539998,3.15597452715199,26.375956479062825,-6.076926574114141,-1.0824583979139626,-0.0526236611441697,-0.7812540095679177,-2.424793409374053,-6.856947119052814,21.429371524503964,13.522545261846805,17.008027127036623,-5.233208820721091
19.988060359283875,9.558452163758284,0.7033018856978153,26.51279836028803,-5.23141855137182,-2.003820300833871,-1.4239881294390646,-2.569571213002401,-5.134050762935029,-9.662996816574122,10.701602234533429,9.050552389692058,18.178979124786768,-8.380506375449059
19.00620690136148,6.044139451655154,-1.619626105087164,18.15308497209956,-1.27442172793367,-3.4238563363536625,-0.7792000423350885,-4.02382194682785,-7.599585356059251,-10.326724779859289,3.2258516650654485,3.839996179774266,17.84717233076467,-9.483333479588758
18.79375123657165,1.4370294892017608,-2.9028778872697,10.205271375487966,0.8685745934974642,-2.897012247125033,0.3056013023433498,-3.354506987201456,-6.093497297841076,-6.6035816733191846,2.197695609554307,0.3854971105621452,15.81554710111376,-7.012521811124825
19.48064633737678,-0.2792895790141454,-2.578146732804588,10.297825134618158,3.5995554071930487,-1.15229522953474,2.577710802017477,-0.8033848200595093,-0.5829243317101725,4.214180508904418,6.908110820074309,-0.4257621727342719,13.921434136463857,2.646301677449272
20.293248088709912,3.296598082047101,-0.7534391125186533,18.69501133302801,5.989170615886381,1.637438356652354,3.4173241163944463,1.3358035013208578,3.560578491907608,8.986825820680629,14.241499590856472,0.53196010293507,14.680078322379416,6.19366561025441
21.78334524553072,10.63084041602401,1.759418315402164,28.14390869404053,7.135809438889687,6.738169669242582,2.710510202338292,4.636479648980028,9.43969932403962,13.139948821103651,20.59148566922687,1.4734111759014414,18.775136387900325,8.63341615288674
20.141972758171857,16.750906598305676,3.6668242290820574,29.716366562459804,6.43186793528082,6.741727556436486,1.651894845036603,4.522182603112453,10.271338495744148,11.971280494956597,22.95247467011923,0.831766890121294,23.6896078254894,8.809969983380999
15.080560044863038,16.588626734836595,3.627237431829762,20.02131185680579,3.877516405697576,3.8388500120256994,0.760610662217468,1.7437953342785717,6.971298938784383,2.895023616249785,19.51000427710424,-1.926479342793983,25.040763658342712,3.528859308395908
8.464667151278974,8.867702840819902,0.8914185596061097,4.094288409970554,-0.4425231811825067,-0.300185273147884,1.165101399769084,-0.1604466129100468,2.51868030706889,-2.151660012387643,10.420785066636045,-6.038563223803744,19.88652689383176,0.4913356135454771
-0.7221915206288885,-2.5020978483500347,-4.028261547683574,-8.31195511186846,-8.234345352946749,-9.37963643917602,2.3640290299163915,-4.4940549961805,-7.760132148096019,-9.982811046024324,-1.5321121632278247,-9.753045177061413,9.417050829386149,-4.916487103300361
-5.394368021296819,-10.897115751067275,-9.098624095606873,-10.096546599555412,-8.603508909475078,-9.762210855643684,5.366744729853863,-4.722241121161187,-10.4361864819075,-11.335639239410328,-11.530574986183888,-11.124121030309745,-1.280831109848176,-7.341920566802999
-4.891806788032142,-11.692237774461727,-11.373690836608716,-2.061307418419389,-4.280430912147314,-4.939128346687929,8.035654440833165,-1.473847325065537,-8.639301237112504,-5.327681426304997,-15.005584828689086,-8.998500357123092,-6.452907799678876,-5.9147213708371655
-1.3494481085567902,-5.626941215638666,-8.480364300348032,7.931074601394572,-1.3952015419710502,-0.5909561458357766,10.118938689314062,-0.0199247172322147,-5.2882815659684805,-2.047354634459882,-10.428109181926128,-3.655543954772432,-3.5792486446681657,-4.313433001349175
7.331840960427314,1.894621520989908,-0.2823944326283101,11.006760218996636,6.228471629424426,9.85089080607522,13.383453501383867,3.613571528849175,5.759276584732877,5.614713955677336,-0.5515048990603209,3.363868779070655,4.937051459469414,1.3132543132453514
11.823683105910458,5.082504264596501,10.413916521093345,3.767808403562547,5.279190985175562,10.549611335123632,14.76288887029527,3.878321280108689,7.817086408367178,6.898051736988662,9.042622510846089,10.142613106927904,13.481878721417392,3.562497126919953
11.794108546054868,2.190584942583703,18.914656721589477,-9.495233069217411,-2.599767124514243,4.683564475670224,17.621635967187476,0.8984233689019127,5.228889263892055,2.4067024120310325,13.270324136860513,15.286313189424174,16.95184173198143,3.889408678774808
8.914346870928023,-3.4630951803973407,21.159406713240315,-20.0520025503379,-3.209408071640789,2.0500903713357346,18.560538207783296,0.1472771157256132,3.628064482993577,1.050579572235086,10.530431561347598,18.15062756763365,13.713972600895229,2.85879534937352
0.6448411119850195,-6.577174031399151,16.234569568156104,-20.738185981935658,-4.274675479261708,-4.401399365902554,15.136882887774862,-1.1176125158059185,-3.1023281320368623,-2.6927329322512987,3.39000447897042,18.43966530962729,5.8826724044438965,-1.2234810599397448
-4.577154717439425,-4.33758337874114,7.103940394999558,-10.552408061802955,-2.573399666523072,-5.592533627076492,12.498661060492262,-1.5872114336471796,-3.970603936422595,-3.211253312326426,-3.386150236373925,15.90222282663257,-2.772384475611359,-2.856644313359227
-6.877671875268737,1.4458403794140224,-1.1739681611798645,4.900298444234217,4.933314034265281,-2.464688041508017,6.255405942952408,-0.8137747631027974,-1.5611681003209812,-0.6601310856447125,-6.043465340072181,10.67070889246364,-9.30978835642511,-4.916997762148019
-7.679068279329646,6.103523500368983,-4.680873532339648,17.070397356198573,4.353316580126136,-2.622015411172201,1.94843781059456,-0.9342794682690986,-1.8584034376315572,-0.6983063486992531,-4.072870105235461,3.874018951989015,-12.72101960483805,-3.157881327302384
-4.9478127665800296,6.014035540079973,-3.0761773089504967,19.79907372521835,-0.1376376638160162,-1.808487134533677,1.523542117217849,-1.2708726593147734,-0.6792313208521947,-0.5402748411362082,0.0129405619496605,-2.4178543703764603,-13.461402886239236,2.430277964133172
-4.216988187993478,1.2989601756698317,0.5363410381007458,12.975044792347717,0.5323553890238568,-0.3433497752396721,-1.0100116968544266,-0.6952702498100339,-0.0171062165940802,0.973966494729704,3.025708784393266,-6.296320337662893,-12.490226708331123,5.271486264693393
-5.3014368300406165,-4.738306963914779,2.1826649157619222,2.124192995562801,0.401907329791349,0.8445850181677673,-1.7537343453646888,0.487697192437321,-0.1835060483582326,2.701860984709375,3.5624451796343912,-7.340003914330932,-10.790520110807948,9.64399682338184
-6.35596714436443,-8.60894557432162,0.024233361722155,-5.848934086859057,1.5182741666818316,2.004485166922451,-3.298245620905416,0.2840358159716337,0.8461545224430993,4.2875890789121085,2.4899921342517466,-6.860008037043794,-9.326435897394116,8.16991428029743
-8.544839096881825,-9.344457671325882,-4.521869836304658,-7.670836638260125,5.701840755781014,2.2865861225974897,-7.265706067870665,-1.2493991723716722,1.4664035342689208,5.485406491985242,1.1884162265796778,-6.680312528994142,-8.831382655730408,-0.0975798953354099
-9.256143306658208,-8.7023563588501,-8.305396256282807,-5.484505616226109,2.460320066497172,1.082658446190419,-9.413846655849923,-1.6968300080795389,0.754612628368755,3.156755892495193,-0.4629384107760295,-7.505443256474381,-9.279119787050655,-3.373902129000295
-8.358519975581713,-8.950282644975985,-9.19734923005398,-3.8901165160877262,-5.208314171369885,-1.4026645432257223,-12.32279929969416,-2.0448806305951512,-0.3287914504566864,-1.6790980260812622,-3.978688214271193,-8.362631714863335,-9.641052880865749,-7.109614964819883
-7.777437238656231,-10.363642412197516,-7.685495003144192,-4.9389889162255045,-6.265404663301489,-1.4944883751758984,-14.042957434625476,-0.2493675279825213,-0.2587489491113729,-4.6471915818896425,-9.86708635736298,-7.557922908996366,-8.490534142877587,-7.696451235107892
-6.9564681068677725,-10.724164909181214,-5.979613881297201,-5.952673587322149,-6.448175645083687,0.0878597058140777,-13.079371799371405,4.472102423073494,0.641875342650927,-7.835141527220283,-15.53336764993599,-4.165635069966204,-5.132675320398684,-2.291747863921572
-5.128757262684937,-7.313304754510851,-5.532804411864007,-2.629735314151164,-2.9019844124222725,0.9225100727070132,-12.478364590904263,5.764870042064067,1.1459216736643725,-7.395784257385907,-16.314038887796414,1.2845829688861825,-0.2492268209508452,-2.195672570197932
-2.432527070863762,0.305152025358808,-5.364895484937101,5.311605276680391,7.244111026988264,2.5957762521747427,-10.011245391498262,5.888747153690239,2.0361894771245903,-3.3250167466669094,-9.397663404862149,7.305067963103296,4.582313807460304,-3.295355133804179
1.082780590327938,9.170005659843984,-2.9265674731624856,11.757637130071576,8.070278348839004,1.764129306092521,-9.123698168886126,4.529585876871144,1.4787257562168596,-0.3606007114535954,3.022867143847052,12.392703441831546,8.04868438412035,-1.569401768046789
5.574122983555133,14.588581820413353,3.097211371945944,8.378990192079943,5.550960293547428,-1.148029142039681,-10.694437895085338,0.7686284763996909,0.964978761215774,6.449003173318156,14.865701420414528,15.528815674950907,9.84866059719246,1.0076130589109404
6.561651475130075,13.399859263314958,10.632392854713808,-7.539864126819966,2.7596485031771967,-1.6436367386693185,-11.69467235349654,-1.4611006834330076,0.87411821772662,7.639456422422451,20.916306737389966,16.121187429432112,10.41664305066759,3.426433358887061
3.653528161914613,6.324696658785047,15.013352025951468,-28.645113336241916,-6.516878844270072,-2.197895796000944,-13.932529095311452,-4.4785454920329855,-0.5437934988969486,3.41628512223398,20.63999310433229,13.92018463567591,10.079175187872098,5.952607654781974
0.3573224278000678,-2.39389153022074,12.49235716595656,-41.29013825567702,-7.155710813317266,-1.346567758794335,-14.661235764694329,-5.623856199438628,-1.3427162312814989,1.658437547865681,17.18366742239253,9.238054263187315,8.61943378711732,5.488596794415336
-4.439836708881306,-7.783101718649936,3.5942737194440486,-35.45862939715407,-3.405668328005711,1.6960151032885986,-13.679914299750504,-5.258665851996141,-2.733278178627097,-4.217903233341648,12.782570678289405,3.1335068845451683,5.682155780688937,0.9095921025666678
-6.527784646107576,-7.3557668924624435,-6.757949014548293,-13.06390761392344,-1.7091807822559348,1.4266675451320472,-12.840031029815991,-4.254731548208087,-3.842193531586777,-4.584787290311227,5.86600606907631,-2.960401727883485,1.4636284906343595,0.571606055685864
-5.141195448391161,-2.569748834829612,-12.757561221906736,12.43045738005003,4.755024364867528,0.0514261378951657,-11.202544512277756,-0.5985068725901532,-3.980818468445222,0.5587418789424422,-6.517669939856523,-8.057777256327613,-3.2228971131631177,2.0723392981020434
-5.885094768945887,2.35158837751307,-12.022131614479818,25.350515965950382,3.623315069256697,-1.0004071395615477,-8.749164609395818,0.0803816452094279,-3.7244923519625046,0.1846205928934488,-23.353479510886046,-12.080962297198091,-7.711374927257832,0.5602271872835372
-7.769175364842592,3.3868494347393803,-7.023042959128314,19.114617461522847,-3.4419303119982136,-3.5608716603057866,-5.117943740906589,-1.6914522718781722,-4.169973312785582,-1.644066893553508,-37.63172597108732,-15.332920766625168,-12.232430412704565,-2.2702728425637493
-8.74985351137359,-0.4979528475529706,-2.4829208041496136,0.757102556347248,-4.117231001776817,-2.866691902534774,-0.1582234522281171,-0.8658042450872268,-2.3014824319341,-2.2820063698870623,-40.9368361660198,-17.43719457467258,-17.591012174340797,-4.085876735020056
-9.590299503659324,-6.635767354121087,-1.2137879158230565,-14.798895220847772,-5.613512321218694,-0.1092115432314224,5.756216932557812,-0.0021439306665748,2.3249583577927497,-4.060372844657516,-30.91219016199533,-17.045929910472672,-23.76701085514501,-5.9545829775563295
-7.275516658063146,-10.626350709438553,-2.1955873683835625,-16.16242589253425,-1.6856625142042032,1.6663792858455526,8.789071080568021,2.75143522471138,5.381954436631701,-1.3360436524396613,-14.22247587826608,-13.07959736369302,-28.819151761210037,-3.233499283338759
-1.3111674642192948,-9.718912876930432,-2.4424528752042782,-3.727947345167798,10.020261701447788,4.765781152608095,9.132751741342668,9.208996470314675,10.146481493407371,6.588056439921819,-1.6151875191508958,-6.586257652770874,-29.643411863626547,5.5439899734416205
-0.5746271713835598,-5.09745752265305,-0.5316042404720029,11.321355962961768,10.0771576031638,4.744687182778181,7.297425800670304,8.03395519019351,9.904566424978816,8.144491781441427,0.5788749467109291,-1.1751985484433731,-24.53878482582201,5.469727080901533
-4.886409704799975,-1.1075075515231911,1.845906736950332,15.946337489125966,5.796969181084509,2.2565281671227067,4.097971096210953,2.329595932003085,4.527177177379959,7.248789222870991,-5.33287836534296,-0.8781049668879817,-15.469341289184822,1.3199618844150938
-9.58607004254752,-1.7654638117636845,1.833062397258144,4.907218622339528,0.0992217840274387,0.2276336275344218,3.922067660338648,-2.103689350103775,0.215223349927532,4.652543797017046,-11.959451901291605,-6.758559720963971,-7.551390662160077,-2.7296709808055013
-16.560989108995535,-7.25110404933451,-1.248040718727017,-15.941006512033574,-14.332563930752654,-3.852442508454729,4.567416975018752,-10.078372633259129,-6.698919815513522,-2.7736363496108245,-14.084958247490835,-15.27805470472066,-5.472897418596098,-12.46264983223192
-16.294100948990422,-13.367295821008211,-4.715688103863965,-34.33663603268951,-14.308033577649052,-4.623606949317729,7.335416652855801,-9.57924136071059,-8.43986144917449,-4.9066202939559,-12.502055887831387,-20.341870927176373,-9.55844451356016,-10.098147633731958
-7.5656269370387985,-14.629752380941884,-4.87518079131195,-40.00674720630525,-5.746435796360481,-3.07979071142366,10.149313327718366,-2.819012323181111,-6.422059790693663,-5.30558094332372,-11.433589994412614,-17.733858449049183,-15.087115699840956,0.3030784144169075
-1.533395764537566,-8.588484343653619,-0.6264564926447402,-30.643217578802314,0.2256765822415709,-1.5009796606339585,9.867560488600496,0.6636710009854045,-4.041332232546562,-5.126990109795253,-13.094543302228889,-8.293581172796584,-15.958427211851513,5.406308759021526
3.9347386586324418,2.1319561809118417,5.2778841502323,-12.091822228336689,14.3388295375429,2.7468094809885906,10.685929547900434,7.208636312675348,2.185013525428153,-1.5708449231243509,-15.1578900233448,2.8616511936191813,-9.866773760157232,14.38537351852542
5.818923168559649,11.724907500714233,8.603666595356572,6.253233274308046,15.622736818386862,3.733042647754536,8.80214103843747,8.306684035754802,3.999075136130528,-1.109781626216738,-13.206246399601769,10.26844383458426,-0.4451639862136805,12.967612283363598
1.9480649936472063,15.465607700826892,7.308252613126472,17.200369390216373,7.488602269202554,2.840615474228551,6.388794904016863,4.393611239714398,3.885626052516743,-1.25355149547782,-5.18359556026299,11.717600245669557,5.748155543957899,1.7360473857450915
1.5131665342152418,12.961438543336383,2.9998843190699347,19.15785967037597,3.292562282194702,1.849139387525212,6.217366418783053,3.2841907905961234,3.537764595093598,0.0272471298196012,6.464889181337762,8.733308105364207,4.958458643038855,-1.8977559806372912
3.4723246393379466,7.98896256095462,-0.965319385353986,15.679604499444777,-7.124340855276312,-1.7654977006491812,3.3693264720571445,-0.2491505720531596,-0.1532834094394422,0.7286287432363927,16.399990209068335,4.313124700853177,-0.3400786229370975,-6.636315232312879
3.9780772105639657,5.315090178194076,-2.553921084125289,12.039048086422786,-10.154458954319674,-2.764640017481136,1.8263613828205332,-2.7722821712527947,-1.3002027778378689,2.50235061164039,19.81417759305332,0.6216426301677558,-3.4406872198900933,-7.871321567806338
4.520537166619304,7.1517064535414026,-2.2452716396840264,11.352172465290328,-7.322434708441406,-2.463051461022296,0.372744255608984,-3.6521732167357337,-1.7057393633580786,5.29372869010569,15.072904857251554,-1.3959230771332969,0.8278484662828944,-3.2841754263333023
