AF3,F7,F3,FC5,T7,P7,O1,O2,P8,T8,FC6,F4,F8,AF4
-9.931470894448356,-8.276525952985539,-3.0363830755499595,-11.413071655912097,-6.2079755618831225,-4.61760197961209,6.5469660557152345,-7.118702344731583,-10.970803368448488,-9.990270396755117,-4.194090077026372,-3.2182618207412594,-5.658163676560331,-2.9712548721770524
-4.7216087492405965,-4.993085765504572,-1.5978691678297796,-6.229633283149255,-3.8881250661909736,-2.8570760058685885,11.03047894319003,-3.993248585114303,-9.40583151474364,-7.348213790902006,-4.43247965344295,-1.9258478496496985,-6.913854679318065,-5.759549072810836
2.0399012016874543,-0.6529822283803699,-0.2278414865576633,0.1161185822672193,-1.368506730739243,-1.2099840700707496,11.15674416271887,0.3938983309036556,-5.861884778325948,-4.97109740582901,-4.360597655776887,-1.1609385763835176,-6.279107954048045,-5.491120701804644
5.988904512019879,2.171624492265314,0.1970893133811372,4.284309359327359,-0.4980894843762098,-1.1663670872127554,8.511368985948632,3.100530902559677,-1.758104373450104,-3.62838701053624,-3.1636079080084434,-0.9307329921719028,-3.643794133516337,-2.8688498895158867
3.615564893299676,1.3996911895707884,-0.2916980917210056,0.0151362164389732,0.4518368948286126,-2.731246137201655,5.912124513811261,2.2010256880239387,0.1112985014214033,-3.0754833461221427,-2.045631795844642,-1.2085967017130712,-0.8433563319092667,-0.1506691852604664
2.125904148912052,2.5398517755393835,0.4891912985098057,2.244398729538741,1.2960831904646564,-4.399571206313855,5.419488002213402,0.8384263102183506,3.368182221923244,1.582761190138327,1.963161754458797,0.4509161066844002,3.039334451027089,4.428313290378444
2.0392208213476763,4.225708097901995,2.105037176424549,6.686997823631012,3.853804138312805,-4.397075530211932,7.442313818333954,0.2941639062271285,8.39544459560288,10.323420593895085,6.591352635103302,3.7299473107953833,7.912359190267772,7.510374739943083
1.7491950929054951,3.866475813080861,3.0238893225742944,7.943641888463358,5.172733194431322,-2.2176599152813914,10.973700729958583,-0.2082800408298155,9.387236996506212,14.14930283974289,7.114440138388954,5.496888035208976,8.97954929097681,5.733274431974923
2.403725121628649,3.3580286478244328,2.780656169864756,8.829363232130834,3.265628867640121,0.7980053195694801,14.18683795343033,1.055326549782563,7.082309945466295,10.950035755343322,4.881135935346965,4.430479147346694,6.079394871459121,2.117603772277868
2.0594721147176225,3.0243034479157878,1.477059368836116,3.6068985330412486,2.71562736445424,2.407005372384866,15.040511090040496,4.101322113831944,6.5296140059406005,6.321344713512916,2.801583483299878,1.6230100466841295,3.9017527298440338,-0.4355931528249002
-0.8500903978121226,1.984836167588868,-0.6987609354353781,-3.854120451739089,0.3045453993718572,1.270197047858222,12.164943217386476,6.3375687295205445,3.911745510260608,-1.1963774382652306,0.9459467286580254,-2.5650473186712794,-0.1173001996959622,-2.4489025469461057
-2.8821366812070663,1.1874351213927463,-2.1835236437796923,-7.223772859502704,-1.932499424212161,-1.8422290010852365,5.969847785738232,6.540906073976122,1.0394692255889686,-5.565531383849574,0.4913195644717591,-4.840362490227381,-2.9572399992931198,-1.7566671894645336
-2.3826486404075604,0.3151730069162634,-2.031389948018907,-6.796386570025417,-0.7699888130292687,-4.520657811614537,-0.9881298964315306,4.418534415394408,0.1706802487669384,-2.8288413297472736,0.9648948517265096,-3.100662122956539,-1.5802402568663243,0.7861275449759489
-1.4842034481833315,-1.7961670838575947,-0.9975987472792612,-1.8300815519468197,-2.1153871073420927,-4.563751421130032,-5.331259006304961,-1.322897174716376,-4.026460167302233,-2.602953776773931,-1.1202691505807334,-0.6041171567397806,-1.978660492259944,0.1776539428458384
0.6998605209582633,-3.725419826676823,0.2883361077979136,2.843536115224418,-2.2796554948125545,-1.699204032171302,-5.320191584556632,-7.83738114218085,-7.469544237763163,-3.058162717324537,-4.351221881079531,1.9197779233050327,-1.4616564936000105,-0.2152922912489383
1.7386492384335468,-4.154362983924592,1.0929619402798358,3.929034311973231,-0.4436867174525876,2.252616592541955,-2.343122976503832,-9.523749934235608,-6.390660117098708,-2.012623655533859,-5.111027710025064,3.018701821679901,-0.0619096030427023,-0.229242849146342
-0.391803888103901,-3.583573161822739,0.8840649591873629,2.23064149186216,-0.5535817026990912,4.872724069991467,0.2341027663145602,-6.712244228333738,-4.139711470297643,-3.020393604865092,-3.782355944018705,1.1481865408334562,-1.8843730033235653,-1.9657638083469189
-1.9966981905174903,-3.107637353683097,-0.1253122371710202,-3.0939069329311497,0.4840958905820192,5.002272345057392,0.0739063466632323,-2.541128151289236,-2.2815785978571896,-2.8467207126803924,-2.012533186256521,-0.8775651317646693,-3.726872250770192,-1.9657070193849675
-2.9006540418830014,-2.4037332564992355,-0.5709871021292993,-5.898242436752748,0.5597810049441786,3.457201368010036,-2.0850441483870625,2.015222978166354,-1.197649993396367,-1.449616620084483,0.0143699562735332,-2.0045802293109083,-6.159505444745905,-3.687138996719799
-2.2132252699172312,-1.2535728597033793,-0.3655708584843407,-4.6718404125964135,-0.843067700740267,2.1519540053694044,-3.407926722482824,3.894307143930208,-1.4143494841323825,-0.9659619032758872,0.6000694542154416,-1.9869438657674328,-6.848185085107782,-5.45877402648549
0.3735176649228841,-0.0424390129400163,0.0647729129376623,-2.342628369898515,-0.5159958881257827,2.501493859933163,-2.013729473433761,2.493162053689016,-0.5165281729112842,0.3415041357061538,0.0118147736185582,-0.5002838618087907,-2.427269699374698,-3.0309489215197227
0.4264262914237556,1.0011725627616372,0.7354899601804142,1.7190774334383745,-0.25019894299315,4.4146462246095215,1.056622435663188,1.504495238002192,1.77313430059694,1.640095423568447,0.7826259611885575,0.7637318517932786,1.5095908152043425,-0.9322473239871384
-1.491113861894902,1.192692383741586,0.3308166626590216,1.9064809690766935,0.487174756004185,6.546340202365903,3.036251586474366,0.9144846933187648,3.440908619966453,1.9266495930683447,1.6401177367710391,1.2334471434380645,5.124219277831394,3.4908659340400408
-2.875712299869819,0.4845666323809767,-0.4965940781247999,-0.3027274712090659,1.1816737187908013,7.429930964767674,2.545831648788102,-0.5179734580426583,2.926132683191975,1.182314163129989,1.3823117926884183,0.9712463016759858,5.905709090513512,7.270410306196661
-2.008697190551292,0.8062672863241813,-0.6471569135960723,0.4295776405859942,0.2580039977507419,6.539392611945988,1.2936706635149413,-1.3016365628521822,0.4206138302223592,-0.2951316908678331,0.8840597891915244,0.2019876911285245,2.2083438289899258,5.5910576942954044
3.981989571991331,4.437738870972734,-0.7015210186276126,2.679964207445642,0.1419618190225938,4.550079387132815,2.4502882628016085,-0.5326155235825184,0.3870481920074048,0.3744114795602187,0.865389293355915,-0.0447633264490574,3.1176431290930835,5.253433142844566
13.04085028583593,10.476867409047212,0.0543993320017552,10.600384273364192,0.161313955310448,2.7509672706584247,7.260312658821709,0.162255191587441,3.476503428969909,2.8701936249084548,2.096471081321807,-0.0150584931606499,6.447812589897929,4.359018238705615
16.499827213975824,12.987342031048591,0.7555210891852374,16.033445368975816,-0.0182643545178907,2.1353523234495952,13.362252419765593,1.189162159265376,6.395045882708566,4.600599414900003,3.549521152695635,-0.017078470576865,7.82297128617991,2.1260346944471946
10.326907538102397,8.308350700894906,0.0969949151888877,9.900228733868394,0.0440964452059828,2.79856025863578,16.630530751761516,1.314399845608397,5.277418353136955,3.098653344110295,2.7403317860431127,-0.0248219074087076,6.023786637755266,1.427357857406477
-1.522482220662876,-1.3201063229729313,-0.176060366687801,0.5990885860773243,-0.8456649000404887,3.9566295040584416,14.838070561394826,-1.464076022346522,-0.7236043080247929,-1.4457950557677028,-0.319195889682414,-0.3580653928288507,-2.1816892967210744,-1.51072075280394
-17.327151387560214,-14.447738569479052,-0.5205675720385812,-15.441587984666503,-1.2833616656554356,4.48311272916687,9.62608009381226,-3.6381610345818554,-9.596857274501344,-6.979516266758033,-5.030391776754817,-0.5977087907186609,-13.275534726858837,-6.02875138933706
-24.412934956715915,-20.292638336271,-0.9073914931515308,-25.574430510183007,-0.5234217103172455,3.618782166056005,4.930110979796277,-3.309820645495308,-14.002081034970056,-8.613135173305194,-7.448809714033223,-0.4016724330274119,-17.42165665642431,-7.802629523555708
-15.547186397084856,-13.308950303231471,-0.1589232030015618,-16.646828624834125,0.7931331214474117,1.4784655471508894,3.414381192492021,-0.5279605274180833,-8.38197119484054,-3.3237436652618624,-4.453088859642692,-0.0178831482637411,-10.745626879112478,-6.393631481269723
-2.769019788390376,-3.9250414915696714,0.1394231942032993,-5.271382591535032,2.2316884020348757,-0.9353918196484126,4.255686253344226,4.5608587022237925,1.5448456665469157,3.605552322040536,0.2608095948890641,0.3233997189676499,0.6305909838894014,-3.548433158840562
13.515052187296444,7.486347788160992,0.5259941449486636,11.253981335038036,2.7229302522328043,-2.312433822181052,4.179152053459626,8.681273502913376,12.534360440133051,9.813323727149264,5.433439272616388,0.5722241058510279,13.678895753592814,0.7111056936649809
22.18069171596292,13.354404510981546,1.060711749805875,22.015279498206453,1.7470938188554046,-1.9584815032171377,0.5558299510110412,7.954915316028995,16.45213413224732,10.25687661228512,7.122316838021599,0.4816292943659185,18.585488391117988,3.457222318194133
13.631777466836883,7.408761424263696,0.9609028891738904,13.474001028896108,0.6554358689203299,-0.4387480638951562,-6.35975615949082,3.251821016930476,9.02565500316182,3.743415856082129,3.259228746553809,0.2382469991829773,10.791441562958306,2.865771070011811
1.9193018331575524,1.267868802136883,0.0485284086511923,2.912997955858037,-0.3487267302071043,0.6914754607030265,-13.865109395821197,-2.263069942925025,-1.0844016413572355,-1.8080210486113373,-0.5991945293048203,-0.0704658689603299,0.0722490607328716,1.385423225213035
-11.786883326271637,-4.981265493851667,-2.0458502351401053,-10.016031807614215,-1.6578415470624883,0.0733988869136101,-19.12044605298983,-7.861127062314914,-11.808152832619548,-6.407862187266578,-3.834195574589452,-0.6594657427170135,-11.715716176102871,0.1021253412181237
-18.691621106935347,-8.308943835400052,-2.7746946854266064,-17.076914879768943,-2.169452739508223,-2.2328811973546903,-21.028190505475237,-8.735827774692083,-15.126761452495211,-6.6028832637177,-4.19275131135402,-0.7902030410627263,-16.180783830313395,-0.489829553172589
-9.729535218877984,-3.1885832677743844,-1.1260261089772292,-8.105065363002518,-2.397953399555368,-4.627304729409163,-20.21600122682257,-4.4337785217518775,-7.475397605926595,-2.131301991144787,-0.8319236480564234,-0.326461005802915,-8.708651681377088,0.1533872220142104
1.5502286704042425,2.728307928832548,1.5827571089235717,1.291801441174764,-2.746944654117608,-5.2392769909749415,-17.699151213810353,-1.4380248974429968,0.3345688631677896,-1.8154755081953944,0.6441682891227943,0.2154434055113425,-0.2310471120671342,1.6175410960480767
12.394708978437516,8.615002863367158,5.795579602044833,10.354576535771024,-1.7520228780218878,-3.554766455848405,-13.893274743023593,2.2690413622467296,8.733339147268978,-1.7530457566706188,1.2135729696003472,1.176203519895073,8.676406821007795,1.635251895850891
16.040559806589403,10.880787687343048,7.021200289082173,13.669027693713684,0.0155420489189016,-0.8996194926159031,-8.888130877757764,4.256579703773686,12.101859168600988,-0.6987411372019934,0.9992483193906914,1.484007808262262,12.477594757233552,-0.0299373833209991
6.0063505907914,4.586681289304565,2.839086474096946,4.036786469240315,0.9232238566158734,0.7284314794706743,-3.3500284480547484,1.7499415947019352,5.350540769823514,-0.8598425392227467,-0.7719090072444414,0.4126091609000195,5.708320252581369,-2.212139898923164
-2.853284660599721,-2.299298744385891,-0.5796122358762709,-2.4208810934043417,1.338371139424759,0.4078889001942638,1.212301280502384,1.4170019016692434,0.1340358027968421,3.038089432538057,0.0710916853503442,-0.175522481392084,-0.1483884429539216,-4.046411081711076
-8.848885098915396,-9.219294505404177,-4.507320990036154,-6.778561275388387,1.0446671772670548,-1.019356251829162,3.282177798859878,0.8092742464692375,-5.257339261750996,6.110412685634489,1.4618177211010972,-0.7362832919802276,-5.094066806413165,-3.911361041400663
-9.980278187290889,-11.606664199966042,-6.598579374707276,-8.332671470021829,-0.0819151036180196,-1.9059624671719224,2.512516656649913,-0.8036399999965167,-8.756362723725061,3.871455275603064,1.499994444430517,-1.0269066738276194,-7.962249591926334,-0.7614167790667724
-2.4515245992930605,-4.7175979039302245,-3.429977969904936,-1.2021787994736286,-0.0139306680406259,-1.37582185784669,0.1326242473798338,-0.048687932814065,-4.352081922865687,0.3268357716973745,1.210897852264293,-0.1566356016022609,-3.618351955403968,3.644609343287693
1.0073035378598738,1.1117641983891466,-2.525092565307097,1.4527735645929445,1.7545120233463414,0.0295920914299543,-1.7983263793013435,-0.52405369903491,-1.318076444908007,-3.4746391022412486,-1.2475859069129351,-0.2327262955649995,-0.4649682135549909,5.937152841371599
1.6921854479932654,6.809987136608799,-1.9387087410481036,2.841011376590824,3.181556814804016,1.13348207676208,-1.7008842951790475,-1.17180755529638,1.4356221713088568,-6.139440238429336,-3.948122694707773,-0.7285016716665446,1.007660636042003,7.38472209199196
1.6684249162639713,8.991881547943205,-0.4261156596081974,4.218349578508411,2.938622658382637,1.368255132244748,0.5907607781477431,-0.5690580462409138,3.686202498294869,-4.579734830001042,-4.290352908594637,-0.8504972964515082,2.0120613603635675,5.366388243617439
-1.2463603933228455,3.532112379802835,-0.7355500201916703,0.8369083886754326,0.804009373204297,1.1591460738073869,3.8288955701335663,-0.7253687183068933,0.828225305315326,-1.2862668203502456,-2.894029998428812,-0.8572155700789665,0.0318590141644871,0.07125281492594
-0.4458156740736888,0.2107648744550448,1.0164933169807058,1.0477579781649211,-2.502918012231444,1.162943381216456,6.20933366036521,-0.4235551797871842,-0.7591248866607189,0.0474357151019095,0.2031660676009085,-0.0075676655421761,-1.0538909063368085,-1.908439513645133
0.6171109546682172,-3.3648633674127657,3.183178030246973,0.7592615973393761,-5.162811817759618,1.3268813115793376,6.54955176690401,0.0875814491822214,-1.6730248003720805,1.8784998190095803,3.545507667925479,0.987887133094528,-0.7843766788284814,-6.074296681003267
0.2730739549179001,-5.285789795356231,3.2797624581112776,-0.9950601213466518,-4.562600448444378,0.871511366904083,5.079714367925979,0.1543440487182583,-2.106703493531193,3.234738840996866,4.45375538515035,1.3341141306859867,-0.1327472301783022,-8.317965292291975
1.0543202079212406,-1.9930585253102215,2.7220711679484424,-0.5405029014074805,-1.324859853783592,-0.7652706359027066,3.298901474907181,0.5182083203073524,0.7126708979351726,2.913660597973574,2.969002913434577,0.9281589236951724,1.329894983705596,-4.236753797469958
0.2290729817627814,-1.84431833536714,1.5674601187543968,-3.430717577847075,1.2695627148682855,-3.0677316728575663,2.8866859816219126,0.6373178176430645,2.6365589265536986,3.895594428372841,0.7991872331056669,0.0329431263869106,2.312606436299913,-3.2608377219273312
1.6475065875848975,-1.568934986841951,0.7215002906110228,-5.383247917255436,3.925778601054698,-4.656723528461282,4.37023243460456,1.0519505636971804,5.039008652887742,3.3552108953377147,-0.8900074944441794,-0.4066312949472682,3.5486461295249923,2.8073645268804466
3.770540946291151,-0.2852426922000002,0.574715275216535,-3.61474141933834,4.204441338141484,-4.448609715404153,6.584195792379552,1.1680361551084295,6.158414881859254,0.6244712993559592,-1.2331843170687966,-0.365270614791472,3.81908870725386,9.790237302631152
2.2280916605654006,-1.0864218556209502,0.2907974943068535,-0.9996529084127512,1.12511043320812,-2.6298029690060147,7.471052094327292,0.340952187192719,3.157949835142133,-0.9173074020170108,-0.2662618815270752,-0.2802970660120316,2.0475893302478543,7.705447099756456
0.2587505241898584,1.3137857802323647,-0.8558171482535342,3.29922049189153,-0.6986892191858698,-0.4812029511576972,5.696735195329902,-0.756930587562501,-0.5802632570641079,-2.9179627234161534,-0.2023424097519122,-0.2333981487111693,-0.7545702842853232,5.908012082542213
-4.861385144514173,3.8612287435337223,-3.559554956255991,6.230668076875606,-3.7084140874429146,0.75733236135643,1.805340031846522,-2.9306351489179066,-7.289402555086734,-5.222438950089579,-1.830164914617113,-0.9236332487391734,-6.103395914136681,-1.8623504197945144
-7.85107727648948,3.657589908552205,-4.6904060143677535,4.576846664871398,-4.92790663104863,0.8527309383429049,-2.047489924205683,-3.290533818136786,-10.621045334794784,-4.307769234630836,-2.422923866870121,-1.1392355497764923,-8.598124085012955,-11.28700147653741
-3.0717506773314374,2.9200614855165385,-2.669722021510383,0.5621394146227917,-1.022741167067889,0.4756560604488733,-3.573483906945559,-0.4947447200280254,-5.6407961549458525,-1.5973534588747813,-1.2146970831294583,0.0797045878908356,-4.747758116813756,-10.013121422297326
1.8087606895243784,0.2347278437476413,-0.0175528967975494,-2.21518864168658,1.91113368708794,0.2674779972909809,-1.8543450693450956,2.1465820937017943,0.0386941021623534,0.8076590566749143,0.6919188037331593,1.2346666281953065,0.389028727599789,-6.005416756039065
8.595450049266695,-2.259212669900656,4.537445969348146,-3.2919175680119865,6.468457635212172,0.1464716481831693,2.238582159587033,5.898405401940499,8.881378744847147,5.773139892858314,4.081454263362106,2.7756080095006253,8.453580574108635,1.479128132249014
10.916485406666762,-2.4040272324373824,6.613789480466514,-1.632483992282395,8.365614584904534,-0.4162970652552946,6.810787139393705,6.562915305537601,13.017784945625491,8.017991906644035,4.943460139394711,2.7453577303355434,12.089782019389242,8.608254069018445
3.1519908069489917,-1.9583932594726077,2.7931786984743563,0.6662888898719295,2.9076697499503807,-1.5295592629975774,10.057525013835212,1.5392013993444866,5.27483525459985,3.7626749733948928,1.2979333208861736,0.0048022301391593,5.286433655565002,5.872055319431686
-0.6571583116686301,0.6552383391492724,0.1990816392454549,1.1828049004047625,-0.321587834976603,-2.46728566701614,10.851592645619943,-0.9252932087947896,0.4037035519707405,0.8419890507897967,-0.4513723172487697,-0.8797745208390914,0.0391800376623271,1.2441888952604172
-3.9171064365371433,3.57588551859551,-3.297977187459701,1.5877545992251054,-4.328388860693507,-2.2540761983038724,8.703810624461735,-3.757404080766452,-4.700458202362295,-4.698751518438957,-2.137603327137748,-1.4073926152368983,-5.931982226014711,-1.7776047038646174
-5.620532723596059,3.45778819872775,-5.661715541035346,0.4727886695385394,-6.468353203737107,-0.6870704114558248,3.662333259494299,-5.28799673651801,-8.009066668935727,-9.187728238265434,-3.032974221155993,-1.4036553875756974,-9.314995771829066,-3.4065819226925123
-0.933105183753927,1.5440623600721404,-2.1320818360605687,-0.9190559893633508,-2.1707498171946646,1.2884544221985803,-3.4377000951934056,-1.6389631621515748,-2.4933038722703618,-5.058989655834136,-0.437108258732841,0.5805808138704776,-3.3907683990290303,-0.4319543735432414
-3.3567612144892944,-2.405367606326253,-0.116099868927566,0.0441878173947338,-2.4127997544011035,2.303318372808961,-10.70880440802535,-1.8472503386492416,-2.1133880883727256,-1.6258590484517037,-0.960347649043738,-0.3321166197776272,-0.8159975762743353,2.482959510856746
-7.179333760509781,-7.076590504730015,2.5648538836173347,-0.0444395784690535,-2.918718540250824,1.7302832011089555,-15.655842543899112,-1.384027021908058,-3.014954142395969,3.7435115712764753,-1.709580980053134,-1.3157273657717463,1.2304379575158997,1.5308029448936349
-6.257681748571383,-7.356606896612427,5.262148722749441,0.292240966540522,-1.523576796219291,0.195265788437375,-16.48327329420473,1.2196190731098704,-0.8889949579056227,8.683602820506772,-0.3844851036289743,-0.7448513242011127,3.878456475826989,-0.149656723483333
-3.5525439606017057,-2.112788692524298,3.763356881982682,3.057066754390601,-1.6557013837672503,-1.010588090509212,-13.374683895666015,1.627289661691908,0.1984243814353704,6.342557185872405,0.7141030710824032,-0.1580016933750283,2.516030676275625,-0.2737712654020823
4.382598783839492,2.6990658639190586,2.015147705098165,1.384066808421636,2.697628636070009,-1.0217294631259577,-8.519821988585587,3.746246557732297,4.015119187871094,2.673107001210411,2.8495612469487868,1.9362924070922545,2.949248616371937,-1.1069585358520484
12.37000501973841,7.533735583038659,-1.198816704218813,0.1267174392365436,6.856756623119472,0.0042888386156398,-4.627208850138644,3.7471389916323874,7.52122680257544,-2.9753019589625587,3.689414267272532,3.009097816718852,2.901889334995426,-0.7477590141440589
12.480860254458594,8.851196965809914,-4.23102312772979,0.4305790590648584,5.958262576298482,1.2195685162827172,-3.103836105870185,0.40334114735677,6.026663694627273,-7.362802037115192,1.7187564661435084,1.9602236406689164,0.690977306994002,0.4007062883781214
5.237975109384827,2.699320727672942,-4.342695358256547,-2.8899845689626096,2.4868456873253737,1.902642985809981,-3.499136866632683,-2.2609590854534427,0.5442494187341004,-6.08698237867641,-1.4647730904816725,-0.1838956200435728,-1.7871835246505852,-0.7886619985826464
-3.974754753153533,-2.265643706570825,-4.462144104647635,-3.250974144598702,-2.940364095390928,1.9651726714663451,-4.602090010126023,-4.321310117157223,-5.478304131914845,-3.8382200171943937,-4.014317624904907,-3.2552978110553368,-5.5743172156041725,-0.5126031677564533
-12.824699247563084,-7.957126442725741,-4.365911335222423,-5.453166621816123,-7.236600469930036,1.7850708358629046,-5.8852536550722085,-4.84282319589917,-11.338687224480353,-1.233687142024967,-5.6686324350452,-5.999814003545146,-9.717937048268029,0.775484928943094
-14.18533402950371,-10.929383987354834,-3.291352753797569,-7.947303775591166,-6.450405249754319,1.6864247092989093,-7.63831064343568,-2.878592382682385,-11.898232174664482,0.6239509028936581,-4.9168475728049765,-6.193451987430323,-10.068805896183497,1.1699546524386792
-6.56931254434524,-6.116199319068542,-2.413262481043154,-4.683695119995007,-2.50342585681931,1.6457867817600835,-9.649189671188989,-0.896374683768366,-6.128183679362799,-0.7080988213349864,-2.2434242713957246,-3.76240969484673,-6.3664178007233705,1.1125533624245143
1.3387509155166415,-1.2218760529270865,-0.0024544826143094,-1.0486381116874064,0.99824291410757,1.463039997712298,-10.136028639841404,0.5067302595782426,0.3937355245417847,-0.681143828702805,0.2130010424477961,0.2598373756605692,-0.2790399712012701,0.2159040042592571
10.448568559962576,6.270224446861956,4.690899884831226,7.644182184902764,3.626682379032482,1.113020269108287,-6.674505705410833,3.4456712318717124,9.831313342347254,2.4131816429336164,4.465534479659494,5.680402718338828,9.244059475458416,-0.7538279852042608
14.11652506114592,11.078546421802503,7.270938304094784,13.83024179013996,3.6891228872190585,0.8365279997177386,1.243976231161055,5.225665247632872,14.535516607257907,5.255786561397109,6.953005699834893,8.157067984028107,14.468593255649235,-1.344483487271072
8.211492730640538,7.59136622423024,6.763553077751775,10.122126206683893,1.9466981212062544,0.8571088406533027,10.56339058610709,4.661284753953888,10.203099204924984,7.1095820849160845,5.516112786171381,6.111333990565271,11.749619293397972,-0.7214004872960604
2.78884514398456,4.537392155534821,5.59286539340001,6.295769565715057,1.9451298114453532,1.053007732560702,16.170481649578793,3.713430429549335,5.814923674164002,6.5964464202863535,4.061178379693561,3.290981190008041,7.309351707024294,0.6070902241753889
-5.277633497268833,-0.6450903119003015,2.510072938059068,-2.8438730064780224,2.341911534671818,0.988927902334936,14.892224959216083,-0.5644485370702758,-2.429980047341533,2.149651149900352,-0.175756093385167,-0.5487055876919018,-0.7909740493509996,0.5800637635602723
-11.195914393463084,-5.1087009822705225,-0.628981574927312,-10.477849372186146,1.7185913282305982,0.3332332190928433,8.511173795450583,-5.074096766395041,-9.233827768701149,-2.914060516606347,-4.372573589262139,-3.0755881686443747,-7.750532888410604,-0.3119050413565702
-7.342155410894185,-2.8772418410884666,-1.3823208810739258,-6.552573098999928,0.583902252249594,-0.7469566965744061,2.682802652534947,-4.938748783714412,-6.620655229299091,-4.8085441686367965,-3.78728975348047,-1.9914473412658145,-7.076987245017253,-1.1210441223112562
-2.652830301212882,-2.103779131402681,-2.471672384933985,-3.0956080981680567,-1.8910553869961724,-1.647350474257434,2.2542008481644737,-3.041682935650587,-3.823163269228173,-3.123716594499371,-2.8071377932474904,-1.0952280527629323,-4.640147378750605,-1.7466311806795851
5.110959049418794,-1.6539415652434228,-4.064116652792209,3.231230722673711,-4.848498449035469,-1.8362344177702612,7.053124967218481,1.1818994281920718,0.892198908098905,0.4255172177707846,-0.5714768192998698,-0.7791790449824793,-1.536665905596432,-0.071973692737021
11.57484512746853,0.0766304918164547,-3.5340506721954714,8.825629558705515,-4.655223021645823,-1.3398221568881752,12.105986398277496,5.47444791245878,6.180722321891702,3.443454187913977,2.495603742487185,-0.1602261457068743,2.49745355250608,2.778117840432952
7.1993645429939095,-1.0590209337190994,-2.30143112916084,3.456696295195211,-1.6515501953116822,-0.7318554898218563,12.25361502527932,4.571710721192766,3.987274998147901,2.4288778467799528,2.01469129206746,-0.7212462525062906,2.722737525610869,3.453035799810068
-0.9991577804137826,-1.468648284440993,-2.4991495648024618,-2.9233398728553146,0.7449254785705548,-0.6378663828133395,6.950299719901887,0.5385007327405763,-0.8032959196203409,-4.064554731329324,-0.0630156678067881,-2.0144918636639626,-0.6301241027795631,1.7638688271244063
-11.980475724988109,-0.3238530581436546,-1.5649643566845046,-10.24004655831398,3.765452198376701,-1.2352626973178178,0.7483249669141472,-3.853595710455018,-5.8751021158533705,-10.74365690808575,-1.7597075912222018,-2.634485848483423,-1.9756531380597424,-2.5578776605472955
-18.25877163471546,0.2164077397268982,-0.8018566427986296,-13.435021477412548,4.413893691703064,-2.2029391358443715,-1.0021530943409689,-6.237140457395367,-9.005815346552794,-12.20204768322908,-2.8614426222628224,-2.6462555896795688,-2.219426880632672,-6.510491438836884
-11.082289507663948,0.9818772386951702,-1.0704115619367571,-5.223643808610829,1.2677160651296924,-3.089912456862544,2.818951297862113,-3.9738470715638554,-5.3664983870305,-6.805380682962632,-1.7938292439573642,-1.5480095777446592,-1.547191425106719,-5.607139879611181
0.1226639668333982,1.3533631564291049,1.726304536774304,2.889743026700249,0.222690832515796,-3.659313959903831,8.072532157943407,0.9860589889073482,1.3125351019425526,2.834700688225465,0.8883342768512229,1.1601155181566,2.503330410538587,-1.5701680567623553
12.285109732624246,0.6334189877699157,4.273571483704047,10.655211644082527,-1.6181767886265055,-3.862016001952822,9.22446211081008,4.812642025636254,7.378100643506546,11.741642314482728,2.362936256801652,4.013143381102027,3.427537936831732,3.581032859365989
17.668016532114592,-0.0072599563209417,4.076622407449738,12.554043889458615,-3.068264550065867,-3.578036584382017,4.389276360271907,5.373757397672118,9.470172152120131,13.763985972378574,2.165692855460271,4.76130245007672,1.8635504573568784,7.187986336017886
10.356891257013595,0.3023522694861596,3.1016155805691548,4.177678073091271,-0.8039286104705359,-2.5658095880473297,-3.141601915030028,2.5671496902433564,5.5849614697074825,8.040535128619648,1.0877684084932648,2.9213824323724227,1.4267418093419058,5.927054118703656
3.0746451051185035,1.5755331163457738,0.5474569908490986,0.4860356439079307,-0.4126438349093005,-0.8037279273639517,-8.111310880888796,-1.4808482598958652,0.4514438338824879,1.648058317641418,-0.4715009406461259,0.0877031369051795,-1.1931490299384584,2.279379909649077
-1.5127231123753184,3.191545245526238,-1.5848542513262465,-1.5793531248203423,0.8726419765154779,1.1335647149680086,-8.021430462665256,-4.284124114560626,-3.7839445417757567,-3.2025121066689466,-0.8194594845779984,-2.9551657252830656,-1.7246893295642312,-0.0161066699266854
-2.4804483343309425,3.5800720885614186,-1.211569112711363,-1.7133941747480494,2.588989776900431,2.216606171215188,-4.960876955637873,-4.456876815330314,-5.26504588009111,-4.722835603970172,-0.181314963457138,-3.895514786365733,-0.6821011853668093,-0.98496704625018
1.4947905224266314,1.8949010984622592,0.1040828548517217,2.845218673391017,1.2687831402244902,1.7101888248828532,-3.151155659131375,-2.3912516487206954,-2.885190867162212,-2.3640492628194227,0.0535272996703766,-2.038288448510132,-1.713010972368839,-0.9869699664538172
1.4630677479314576,-0.3470718594504468,1.0434987331905758,-0.2673717932718585,1.326152501052647,-0.077726353335908,-4.901513744839031,0.6097013990137409,0.1346298021497131,-0.8144245597761823,0.4105471141024865,0.009207328401191,0.6216425791812018,0.8949126398227417
-3.694381648076835,-2.608251056116538,1.1044079110517524,-4.881537206379689,1.2274371373074442,-1.8230303779438064,-8.86249590833887,3.614564861789173,2.9769192479605144,-1.1044996514606542,0.0659771654502052,2.059340225372484,3.4882526039342374,0.2977074872299545
-8.408152809599041,-4.3901454662319255,0.1492364449515875,-6.7954221412643285,0.494881078442239,-2.125669908730065,-11.874547215068066,4.961571470270888,4.3054022900719655,-1.4570006370963664,-0.6816553321835177,2.892793960766148,4.048670825979081,-2.1779964095800968
-9.857637243883392,-5.0073609713965785,-1.3194941078856464,-8.444816352104445,0.5020830541829845,-0.6129061744943023,-12.14949835762562,3.805795598497066,2.418087811019003,-1.4490485533711843,-0.6639432744691727,1.7055277877882848,3.5196351936685164,-2.938237238164612
-6.984279909041292,-5.997327150061265,-2.811823142288389,-3.451691855253662,-2.380361870508082,1.7781552224339805,-10.534910789776346,0.9683058932609766,-1.485517259005528,-1.2406022181404142,-0.8510040855992297,0.5345013581684285,-2.323110580784422,-5.150099225140043
-1.0609002154852938,-7.705088554730195,-4.510038217793851,0.6352799152945845,-7.09284688333009,3.610704627127887,-8.914523809131735,-2.8003357850048776,-6.58813483626825,1.09890144926467,-0.4329661816905338,-0.8151008929674366,-10.137711471873398,-5.77923916876844
3.5357218035589657,-7.148671714620696,-4.6468016895906565,0.8273095048919945,-9.15208365983326,4.118523103939018,-7.801334841875845,-4.951281162435643,-9.147354724974502,3.4040294157488704,0.5974300366449546,-1.7456857769553031,-12.57105402602626,-3.355180375847869
3.9572904548445873,-4.056343599851823,-2.117127308341299,1.150859664224514,-6.979801768277683,3.689263281985757,-5.799407839888367,-3.476626158825696,-6.188380621089422,3.315866299154165,0.9630253469146433,-0.878395736444078,-8.165983526482446,-0.8498252978041755
1.7759449064726032,-0.6290694887360415,1.251572867767516,-3.1424625352198152,0.0854774940334063,3.293412980482021,-1.4198048631917854,0.4693842878402682,0.3756973859183076,2.6726070944453464,1.029978363812356,0.2797270605235679,1.1080669602753157,2.3376207578427213
1.0103960597981314,5.04844272470104,6.225869682808499,-4.645103446461688,10.531393449692906,3.49051241109874,4.800617773212492,5.096776493927912,8.971072589054764,-0.6135331647712209,0.3726258185802283,1.7578810550797292,11.514424865137796,5.737942002970812
1.650545264830959,9.933354096191604,8.30344076239791,-0.322827135589097,15.463418903932196,3.978219642751244,10.185504888789634,6.4928730566778405,12.731634230801143,-4.655971661041164,-0.7657684556948192,2.4525474391024344,15.032748501352591,6.589751248169853
2.8910791143213554,11.677743220572347,4.394743249201233,5.008431809180205,10.812054985336871,4.040272598065595,11.985051669717476,2.676103822766216,7.810343134142264,-5.282490002298728,-1.068815986654862,0.4562651194670427,9.016727911475371,4.611752024979688
5.862486766701319,14.832336708710743,0.0356029462690146,15.030372523832726,1.9458259340933728,3.3517131579137267,9.626017263487707,-3.3387792654301744,0.1933559907061552,-3.831557084614841,-0.5558941061977187,-2.473738525041195,0.6644888301319235,2.3966779848246755
5.650232337380653,17.0075403071949,-6.234040565648363,24.74756545350746,-9.320969713197162,2.312487292532858,5.111159121663553,-9.520027450771922,-8.246589048989954,-0.5361793499816059,0.0816770052678372,-5.805645491505596,-7.201177136311755,-0.8828984375833516
2.510328154136955,12.972950181703837,-9.51142509581258,23.39412442445995,-14.586236856392038,1.6268528154618809,1.4471956856064765,-10.489898920640144,-11.150787833842974,2.977670109007975,0.4388749914891723,-6.533564936966595,-10.063832669392571,-3.335763280784484
0.2294005075873019,5.398683437821579,-5.277149922202862,11.933432051309731,-8.466758380912824,1.609135801449928,0.720192071456307,-4.27643495733617,-4.856738171667181,3.197152342062493,0.2060604907874265,-2.984399491576397,-5.432857153147217,-2.666408748424824
-3.142257488987372,-3.7506348085120047,-1.1772494142199956,-3.751411129787461,-0.2783101828302849,1.916757166283308,3.3423848733775063,2.383270610018456,1.2120291292421523,0.6221035086055361,-0.3806574523886721,1.033833723818928,-0.3479804144351706,-1.525543393901731
-4.806716507726905,-16.116978811061053,4.522243022522514,-23.33210039770379,8.049954227218272,1.9319901103030983,8.511492487286118,9.386503441369795,6.095617446213315,-1.6552680340243575,-0.0231501606834287,5.52997990951301,3.307093272486896,0.0367746459666469
-3.498978878357456,-20.43683994311209,8.232217783681342,-31.23441723594744,11.739098927233226,1.371169375046496,14.841361505957858,11.457878278880726,7.226476271610285,-2.395064855322255,0.9255621931369696,6.852974664107002,5.069743146211739,1.3295199082185865
-2.814895558554108,-15.694545374279672,4.9981289746134365,-21.94920779777068,5.6941190564657,0.5239637961836618,20.499679837305447,5.245122226158983,1.8011182309353362,-0.9009506643559808,1.2153629109575266,3.4529621395931107,3.369269567179063,0.5224192362818887
-3.0720862018498782,-15.872946459955552,2.3484007599921712,-13.95682511963545,-1.7191542129432695,-0.0705612947571707,23.28878812904812,0.1906436443646908,-1.7062264680607693,3.0360232421228983,0.7731269661537032,1.629432489640031,1.2693341061999883,-1.297638995740915
-4.176632637938904,-13.911210295816211,-1.2498514904110976,-3.7606010457960544,-8.498581676314314,-0.1581781069319696,21.442023019105424,-6.038733189720516,-3.962716686005062,5.845256620175128,-0.9530843939456024,-0.4073107719809866,0.7241547977901133,-2.881140416555464
-4.752234985709237,-8.821815447552371,-4.534674304487834,4.623038693724414,-11.281192149119716,0.0051994306179139,14.99406833040064,-9.590447804461755,-4.703876104530793,5.472986031737326,-2.4493828060055445,-1.8293442286246584,-0.0206108543099596,-3.2750799211623765
-2.905597915655895,-5.7099371646309685,-2.811198196344792,2.579262376679174,-6.099875937695426,-0.0664509679914064,6.4899336357064445,-5.101570013240247,-1.6377269139492872,2.516149841766233,-1.9012773837150707,-0.388493962246249,-1.0705500978087676,-1.8204825371685267
0.961412497554504,6.571089878044971,-1.607846704786736,5.92144513228925,0.5963626093713845,-0.5865135475870831,-0.0881918232359992,-1.534080776310612,0.096796072424436,-2.0344470781154,-0.29640575569646,-1.3363969156923463,0.1345121941714125,0.9670401771346968
6.223771865395717,21.83365202170744,-0.2010890860595318,12.255621158980672,7.1306438362064695,-1.245727732262838,-1.836072745999392,3.985419521127957,2.352835589537261,-6.466532558416162,1.7574133892954875,-2.175589381714216,0.7337631616541309,3.8421335571974695
8.15490194609007,24.076296755980103,2.2141841236046917,10.949532782503896,9.90752910256831,-1.4459496801597789,0.9354228434774088,8.295853852525124,4.039281474176538,-7.545411581717341,2.545112480097304,-0.9737770128661152,0.2968255283243611,4.722622887587606
5.388946859108483,17.18507884667607,1.9613617094084048,7.943698842570891,5.85439968368479,-0.8145420392521032,4.755611843649708,4.938731645742768,2.32459499944688,-4.309028013316721,1.1000999974406496,-0.4426094102093059,-0.0133400226110629,3.1610938613919606
2.908938098476242,9.374352291710192,0.9723352198645152,6.202763501706637,1.200919374247616,0.4404679032034195,5.399358728886737,1.6297470381266077,1.1787771258930475,0.2047805651665021,-0.432010475874959,0.8181385442677042,-4.158064936167191,0.8813793993739465
-0.1691009777814985,-0.2393221498110004,0.0747015633636515,2.783788742791651,-2.892717826241616,1.6278075441190871,0.8720260007678906,-3.2478927653603704,-1.3468905907182465,5.563119674021064,-1.3815495617956737,1.6235305282992636,-8.968298854297597,-1.5315804431502251
-1.814141172463183,-4.031641549260522,-1.3289794727063895,3.001612451813408,-4.611830809821608,2.039449214671828,-7.304219947733312,-6.921969253911252,-3.400134251443153,7.994338625262148,-1.1707746796064238,0.6631122236335614,-9.318368048013612,-2.3070167046154197
-0.1842051571684827,-1.1681868234900443,-1.3812211039276203,5.336429198581215,-1.8672405816684436,1.4191747591098718,-15.408674195840486,-3.4002918703199096,-1.2197973632546817,5.209992057323272,0.3072392194060133,0.0228931534048368,-4.4820725186420125,-0.5465553395553975
-1.3021405797214345,-4.251595200409206,0.2598395910597962,-2.2203554019674354,0.2334925778959498,0.0890461574899408,-20.27335169074476,-0.3304820752668665,-0.1978497451143493,0.797898968500828,0.6134483494215599,0.1129161721988434,2.088308964276874,0.8242737619599763
-3.4504600475339005,-9.33080041212765,1.5178837671974494,-13.269159777916189,0.8763096862347483,-1.3287326353905744,-21.270728024516,2.6658641342880705,0.9823287531934044,-4.218213707162153,0.1756538162895949,0.7114222567785676,8.944501699329935,1.6277679048288254
-3.198714941260793,-9.419358880768367,1.594285763110448,-17.521222196035456,0.7995944334316429,-2.3530220839735527,-20.156777250322325,4.6069487829621085,2.0620032989591355,-6.081517767698496,-0.0853949914091473,1.1606966978278708,12.089604456798746,1.1737217115225171
-2.065857196297667,-7.438046483574723,0.4126830837395542,-14.325750168860512,-0.8360569800704858,-2.9010939728860343,-19.22987866101301,1.4659189451669974,-0.1927272887931502,-3.366957980484957,-0.4536596251390522,0.2798746736449482,7.970397590963606,-1.5937960274185936
0.5816725064412742,-4.27181033623083,-2.179491141587772,-2.169097853779581,-1.9722945160157348,-3.185303153183227,-19.510074667443845,-0.3730388097823848,-0.7993291532324834,-0.8342777168541858,0.1358196760240755,-1.6039010017268047,3.508963267643926,-3.9726890941303448
3.7221522863431526,-0.0998764329308284,-4.177290856133811,13.25872433875286,-2.2200419370699818,-3.38181979360561,-20.3299681170969,-1.0610476836738956,-0.66514538998562,0.2557215575203577,0.6287268892303163,-4.166038382261998,-0.8093389159351965,-6.281223000537297
3.364188896622615,0.6168093025332784,-3.723643973180489,18.377459329955222,-2.0787008880582167,-3.408142207239143,-20.34496897085574,-1.1798491730479843,-0.6268010504515128,-0.2929078720698521,0.2510094342180462,-4.966595107109777,-4.456002202280636,-6.338661368632696
0.1269829238177142,-0.1970911861936949,-1.6138361983421898,10.6309528563935,-1.071585732900869,-3.047717460827627,-18.840103800892397,0.9562212541597864,0.6461991975845377,-2.1431564589059056,-0.2540169660502216,-2.883672714426145,-4.601342759375456,-2.745755434359629
-0.8534342530406046,2.654638046295258,1.285476887041145,-0.5941665630604106,0.4350200158762096,-2.3128522257825352,-16.22558190361016,1.0913944916415526,0.5096289025357186,-0.5993925068058928,-0.317585647977667,0.2758148486123662,-1.9447473780286653,0.9404240019018244
-0.1827619736157537,6.488381652337288,4.0161848771929325,-10.984654406332645,2.534646946501753,-1.650890407935293,-13.518140207772529,0.1837071218867934,0.4874355779709142,4.437721941761542,0.5524110871205028,4.817172435800691,1.172544265098158,6.250531135449489
0.9208531505563206,7.77559667330376,4.083748653417124,-13.610042815041238,3.801527895142352,-1.6889028981950904,-11.445524078843704,-0.8753333669891313,0.4046436363426702,7.359155312965148,1.247632482276676,6.845104414001674,2.322347518555124,8.877540404668137
1.824483467543344,5.530815664809375,2.051045689398544,-5.558467699836818,3.035118829226152,-2.657149205363373,-9.92987654948888,-2.5745129436938905,-0.4160030518712531,6.184622251618869,0.9301671648710615,4.314675154851044,1.5180470102224255,6.075192045534549
-1.5318390642596444,0.6023788146342366,0.6953563578445046,2.9850178201271307,1.4915601140950028,-4.021992848344746,-8.23334660778923,-1.8580914967873352,0.2391881194272745,1.4724364310611608,-0.1772525357180043,1.4879677496278427,-2.690372189071988,4.407040478200998
-6.988608667771292,-5.485975630605702,-0.4280977587856045,8.713255738123966,-0.9675507627338772,-4.753225420574196,-5.536256967290729,-0.904186812282986,-0.2398915482429504,-5.913342531266025,-2.10611266706428,-2.4889522887899056,-6.925945873670123,1.1029491641727622
-8.696187362584643,-7.796812847618328,-0.4946003930529268,9.310935478607345,-2.671945432757296,-4.086764431066266,-1.524158808057173,-0.0979856224138824,-1.0282451367564345,-8.980618975052455,-2.7866355658803177,-4.724560738197127,-6.746829065457054,-2.028231559382812
-5.293642152261417,-4.896032300216812,0.7836990900073517,3.0949885559764443,-2.022298508567718,-2.1439136100254483,3.357336891753345,1.115749501222539,-0.179322299044857,-4.56035520381883,-1.168614965828031,-2.21832902115462,-2.6426857292677792,-0.7844443129110775
0.772088813888093,-0.9904015829443672,0.1007938108403168,-2.467736377283791,-0.6043644080052535,0.1433765989639326,8.115843153208612,0.1715976768109635,-0.6429724312427727,1.2328901448200855,0.5899024495209342,-0.5925858137205648,3.0541569408631206,-1.6939654365825845
7.126659817756915,3.935036685198752,-1.1123300764262418,-6.134825437699227,1.1469342674166438,1.7330367035815737,11.766028188966342,0.2301365571156958,0.3250220883223469,7.609615808555924,2.8588286719783342,0.9916351305468925,8.451335096298552,-2.2975347468765284
8.965137042927955,6.255424973643288,-1.354547843357361,-6.717622591081327,2.051542927593528,2.1766365993221406,13.842896204855816,0.66155376778529,1.7697050881944558,9.304232847433951,3.670417093723221,2.312044834287999,9.206352059485813,-1.0280891101973295
5.093326708824509,3.39522591058327,-1.7272041470202406,-2.543859356694935,0.9264664684018508,1.7526100723635878,14.47257078623058,0.0309670555571055,0.5506830193085226,2.5136264668857904,1.293473829503105,0.5309665214939842,3.79959226722918,-2.2797608494598744
1.950118494845288,-0.2932866163271445,-1.2252375027973137,1.069431101802027,-1.0235214369160854,1.0287377027985087,13.954442256271468,1.7944757730623473,0.1180232730173315,-4.562607918263041,-0.9921351423525476,-0.5150216287139078,-2.2159370346354472,-3.740866185749994
0.960164803374542,-4.542748281657991,-1.2498109906457755,4.898256633825264,-2.8931613462666435,0.3580713482378801,12.307006413128958,2.1726454845680885,-1.5252431799660222,-12.216098884300944,-4.077084469994666,-1.1873662602762471,-8.704885425392565,-6.037818212793985
1.481356341020481,-6.40809307259973,-1.97544082568412,7.16170490853183,-3.197613490259076,-0.2307316576537079,9.331379494565182,1.0476463493319148,-3.0483072180807125,-14.444024292225954,-5.5313470292259765,-1.9209814672022452,-10.798478215547762,-7.559937294538408
3.1112496642312104,-2.874394340234,-1.4344901451912186,5.056986229969531,-0.9695933985710684,-0.7694451574497307,5.218088928989026,0.9607976224448534,-1.140445702413281,-6.261433589782708,-2.676389182446003,-0.8963278928448815,-4.846965145242774,-4.6170768968731934
0.7123677842366548,0.3052762732989088,-0.350810105680251,1.1991136358519845,1.0733693714815775,-1.1115999568038095,1.0346947537326177,-1.675953841906639,-0.7052682375810885,1.2602278017281905,-0.1541485714477218,-0.0045878682929083,0.204089580826586,0.2142228266638207
-5.941970075600852,2.465145463366855,2.2010724484464306,-5.257995985815206,2.5220396004276378,-1.0259373574952697,-1.6202946354841572,-3.390998607826684,-0.0267258209638054,10.269538655872452,3.275860675251419,0.9693717966017852,5.528945765377186,6.7420079291300965
-10.132128758623304,3.530000778653308,4.228822258950232,-9.590905773687956,2.696661670131426,-0.5152504055265936,-1.721874130354836,-2.407826075212532,1.1812255607825473,14.46515597823218,5.43326393654359,1.71888541063566,8.257942403884194,9.936566518589506
-8.995511299409367,1.719803281754834,3.1372763405657045,-7.648550691431302,0.5585229232098389,0.0201651470363479,0.2736417629511685,-1.5326605500165429,0.340581130964844,7.384251425998607,3.1309783222298613,1.1063846111418512,4.074091029858444,6.843646496477058
-3.699250666911071,1.6786637065802783,1.5498104255288387,-2.7945596041174183,-0.6333646924404267,0.008346714534575,2.652247812561626,0.7924345898601236,1.7298704087092678,3.1890862625279786,1.7488559601971874,0.626376532244446,2.2602292728490414,4.530787001592852
5.0910462799661245,3.789730205566282,-0.8513627678182045,4.807686329832007,-1.186703197982719,-0.8384105159412165,3.715538380002563,2.328725715112764,3.627522474058977,-1.6774316249385688,0.0211166088179096,-0.0698472631710892,0.91276421979912,2.353350999459127
10.009405288562968,4.356201850597844,-2.5014224261762363,9.534676192576612,-1.2736312948729582,-2.2355586607364657,2.999653759690851,1.486917622945031,3.213547183117357,-5.28739834619681,-1.716399197753324,-0.7200123464184521,-1.175359667671215,0.5990789551492559
6.011354207660793,2.416077070781541,-1.474884121825541,5.6848332065281175,-0.3975223188289871,-3.469727225218868,1.395950612316554,0.3745761308055192,1.3804481295175473,-1.5623610560102557,-0.9076208307028848,-0.4921377455027659,-1.0201657812409874,0.6750428408662271
0.5993886719557813,-0.3771277430000067,-0.7410669303216898,0.2694119996055517,-0.2875718367334644,-3.8724992607343047,0.2185845867558065,-1.0537187430918216,-1.830899363359674,-2.210146499581909,-1.0789623704080575,-0.4064400276417115,-2.314603675478255,-2.425884933421775
-4.823478801521286,-4.505108725320473,-0.5590834147180638,-5.414707569041735,-0.3759370560847255,-3.2642647957033084,0.225992657967506,-1.7584057322973152,-5.47734845459808,-3.555094111755338,-1.4054012541500427,-0.3090693720978952,-3.981468333133608,-8.083409711182252
-7.649391589753244,-6.8397552206326,-0.5248785384048663,-8.45123524565009,-0.5140868438236865,-2.051822255101829,1.448061851825173,-0.9224006599318272,-6.085350267857884,-2.343052045702109,-0.8839519273441688,-0.0509867028374803,-3.505512505421632,-9.83078745564775
-2.9511812188544027,-4.486954953556726,-0.7825696016220818,-3.230824833274613,-0.3296582322911767,-0.9399135631199051,3.660036300776852,0.4117324262896185,-2.4821563650134317,-2.534571253586716,-0.8353233801039622,0.0245027353167932,-1.5201768412382282,-6.038141473389024
2.748702490609736,-2.6116008177382204,0.180606709918671,3.588173300613436,1.2898034134354543,-0.4772654240754335,6.676839073157556,1.9621408380692011,1.915552843438856,0.7565617977852107,-0.3029366753930365,0.2481756178489703,1.0324301683417956,0.336971802785593
7.055944102470763,-0.8007416929567777,2.52527175474569,9.54686968707262,3.3878049134198207,-0.7281231066957439,10.054752934884114,3.429639044990885,7.225970814536505,4.698502583772161,0.3917467086476578,0.6112315652013586,4.560686152918265,9.85940673097435
8.34650253208094,0.9522420539534072,3.7386823809057015,11.254882788986947,4.158459591289254,-1.2464438485749056,12.71974868518388,3.468100144156651,9.26039998194046,4.762028885033773,0.3518985310288854,0.6223466106809831,6.09215648716951,13.96462866688564
4.2714191997042334,0.6175851456842402,2.39855476182536,5.343072628878598,2.709497909408573,-1.349947424723652,13.3022501838451,1.967846953551192,5.096164462840638,2.779303191842488,0.0933633078822743,0.3512705879146461,4.177449942183914,7.976406569708393
-1.4905155951508249,1.1656360646204835,0.0457256841504843,-1.7421251040568242,-0.3374787092620027,-0.5479339208990339,11.163652329642789,0.1254999794538699,0.4749136661543774,-0.5564936386302417,-0.1669198448662805,0.0430236929724229,0.882085945596043,0.9239904315675818
-6.519310586228909,2.7433599605104413,-3.0614382340920714,-8.187175576159593,-3.93470348734609,1.1030390308239948,7.1474357249169,-2.104104944583871,-5.2488179325154185,-3.805134272615255,-0.3307726303396709,-0.1809908776588817,-4.64916230930848,-8.416114214401999
-6.879049039840378,3.2634490811921446,-4.376061727181135,-9.78216091514598,-5.254277435392373,2.9406886577011946,3.156312247281869,-3.148349602023908,-8.074625200256046,-4.37166171825272,0.094164458062267,0.0135762609264955,-7.650807554079084,-13.220812952805678
-2.5876116944656293,2.573821670351685,-2.2100345009385336,-5.138795397142191,-3.2798449405217096,4.035349360999247,0.7926293183440158,-2.293780156583508,-4.52250164527612,-2.322878473285919,0.8755888002572917,0.2140821871430041,-5.064225890829173,-7.49872362932973
0.6902187025934408,1.38824581301703,-0.1311995896498201,-2.6226910082382013,-0.8433132760827675,3.781826983233668,0.3010432956121356,-1.978533002265905,-2.1243901118388537,0.4183124057092933,1.44820197533731,-0.3015877415001342,-1.1382646783457877,-2.357966721853074
2.6828570386416843,-0.6910836277593754,1.6672842447663243,-1.6070064497032943,1.4840658781441551,2.381316702633301,0.7877513009102035,-2.162669536090488,-0.2597450863713559,3.14319528205127,1.83184497745868,-1.394082031941187,4.501874264906619,3.591665367152463
1.9617600887361897,-1.780527591792064,2.362611069745121,-1.4136161970704824,2.5291766440151515,0.8503210612312895,1.3902424478529325,-1.9251358915405845,0.963942937455411,4.396644151541072,1.3206915046158,-2.086239613345158,7.500544588435958,7.569914039469356
-1.099357103997077,-0.603063748008411,1.0505691170891631,-2.332519945729479,1.7419477192560535,0.4858957380131041,2.119697810381041,-1.093490193242081,-0.1608618834913148,3.441366756809688,0.1204930518339937,-1.5518103823760736,4.106806284871047,3.8797877243308094
0.0152823079898087,-0.133020253692607,0.2865670068142887,0.4268712935783534,0.7532649068229103,2.103366701219666,3.519204700997646,1.1379989999613265,1.2362866319775432,0.5629914313195546,-0.6638935535210883,0.1135689055848513,0.6721981914467487,1.3090358613683226
2.7782582405037246,0.0446256373774094,-0.2439237017872333,4.730026217833683,0.1216837073167842,5.532026171705772,5.611760000389662,5.246235013039255,4.76098222143617,-2.8230798725249704,-1.4265453269298192,2.316435104166512,-2.6391802906469537,-1.2271983543849083
2.9851911937157736,-0.0118244710291391,-0.7304316099259929,6.389248760674427,-0.1396089269607479,9.666406838896464,7.402503529222514,6.937977137353808,5.831399698112748,-4.373851579075391,-1.2351176974165383,3.0417683830247126,-4.803563934141157,-3.90039059509851
1.1806013250629483,-1.385685746568225,-0.6642539217410388,5.506971778988661,-0.3255236010275941,12.996967724918193,7.599997184986995,3.7591487296935298,3.114230080509169,-3.8486949351282354,-0.2942993098628867,1.4912543482064358,-3.003085149911566,-2.041789658762243
-3.746114386309633,-1.86431782789328,-0.9232686165627104,3.545556478903855,-0.410035121864422,14.28564145839411,5.885784958278171,-1.092261502284622,-2.325108527037708,-1.8918893728826645,-0.8629074353783318,-0.5478934278274575,-2.010087999729105,-0.0315496386830945
-8.787240122001302,-1.9853064758126084,-1.0719064914753895,2.5714605307607337,-1.2592386321808215,13.061269356945,3.41954319483861,-8.773749172418428,-10.053450350895911,-0.3393417882392584,-1.695960710945186,-2.6443785846709558,-2.2331032100416905,1.992435986425809
-8.015079879314555,-1.851605460434533,-0.6533658039757664,2.704334624126375,-1.9768419655202736,9.780186697269428,1.9949485386629888,-12.822107592926823,-12.680162887941204,-0.0256775164273085,-2.148795714229342,-3.2655406260943503,-1.548010991300318,3.691600829591578
-2.646615681947382,-0.8647718582384958,-0.3501267997858386,1.9046863107307184,-1.6843428894481305,5.637667054432445,2.5784697699007992,-8.354533924022977,-7.239430229350936,-0.8616019178443567,-2.344367788085659,-1.8869249318994443,-1.0544524863463076,1.786848833161461
1.9714635326820305,0.2116564637936657,0.0697121874823011,-0.4185215436369004,-0.669442426458204,2.085967957555379,4.536150070730805,-1.641541532081253,-0.0286198099689443,-1.055609097245101,0.1509228451744168,-0.3981258378813508,0.0950233823350396,-0.7274391422164539
5.350201852380364,2.070201939344993,0.7220240952237702,-5.862569600230521,1.751697669079551,0.2000551791798877,6.16728772384687,8.480188834689896,8.616549927268661,0.4590696429194142,3.324271402543075,1.3390390298006347,2.508994594421761,-3.010350978759019
4.925556061889648,2.7845986564839684,0.9365895016807212,-9.791065215159229,3.120264390381417,0.1670468145431574,5.988012419407147,14.828353106320002,11.721453555837526,1.2791363328605898,4.193597832234524,2.550835832426652,3.3228083312066814,-4.058066492664767
1.6343959568859776,1.7674378241778614,1.0798995520228798,-7.719930421490448,2.2772976204967685,1.217527429203006,3.673011154431955,10.954325068624792,6.684977050725439,1.840003862938278,3.2474092322421493,2.588087340605436,2.465013935949574,-1.8740917875025245
2.811327280837232,1.4339068745599854,1.4673938405695537,-4.3850453003680085,1.2093087024747784,2.110064136334696,0.0391787623016313,5.479284988446209,3.953119653507455,3.6604859711901496,0.592549365744832,2.544089137254237,2.677804500790045,0.6257554092344781
5.804729607855177,0.6170666581479165,1.60022682333866,0.9650019752266318,-0.5183896088534079,1.894822468310359,-3.677009738095892,-1.9306106738876956,2.5898188454035265,6.036867431412082,-1.978991235888948,2.0902262238341773,2.7630868794751784,3.1893492388280977
6.8858316923277,0.3294747590795253,1.3402097646937674,4.685983089091279,-1.3105118184959903,0.4346536139590933,-6.562103425243555,-7.399684902869319,2.338613334277971,7.868510516751701,-2.234974782407193,0.7680698104401452,2.61843611529576,4.5727741998943925
5.869641887328819,1.587683185411923,0.9082062719110456,2.718084885507764,0.0007062999819153,-1.6657211072989035,-8.318657421652508,-4.491238678051776,4.599124309114504,7.389038753464706,-0.55537023511677,-0.2069732118642792,2.872985338429862,3.217609215267629
-0.95945234937363,0.2687645780835708,-0.2346185461523571,0.861414791810341,0.1208177233063216,-3.58977872860472,-9.10769783980967,-1.3570618889824324,0.3828097589856944,1.1601351372676922,0.8090460129715311,-0.8009263132899473,0.252496514264808,0.626477419168079
-9.902093458338506,-1.9457324119407668,-1.854276442014516,-0.489531010327804,-0.3683095716814029,-4.811910664856003,-9.211037041357416,0.7608148438161444,-7.749804521975074,-9.616520773651668,0.8975675919892278,-1.5723394093401732,-3.7189696016849134,-3.4481457175167294
-12.17921271676914,-2.7621182920337333,-2.440793840243934,-0.205349014510476,-0.4953394343460182,-5.20859862064357,-8.770139911712167,2.568270890437694,-11.133481195659586,-16.012131545755597,0.2805725550002612,-1.2210365648574262,-5.068689703867373,-5.808028738112153
-7.451909208517805,-3.109536045471434,-2.1062502098876164,3.266876517298829,-1.11166769137409,-4.862820684370709,-7.727852793381343,-0.2694832318260429,-9.787796158881273,-13.607918662478587,-0.8164928162083258,-0.8315637070994301,-4.102013684900878,-4.071511216139134
0.0015302879116121,-0.8883706473883842,-1.6828814076472909,5.87528893195928,-0.6221781728652823,-3.9284334046984792,-5.972081029117767,-4.646335283855093,-4.199956212384071,-4.5795164948538085,-1.425587995849936,-2.4106248306693323,-1.190277088501752,-0.3534319064111093
8.104075450813083,2.496074563964138,-0.9662532628513432,7.640747272562462,0.0743874197355403,-2.7272475498306026,-3.560623809678959,-7.756896201563844,2.770445315974781,8.75357215958578,-0.954617346787084,-3.846109190086661,2.8668797809819693,5.4399866390351885
10.44168443662134,4.491179585681874,-0.4307638384837745,6.879768872909494,-0.1340420270759691,-1.83772629817992,-0.8272862111487003,-8.441680613039237,5.099104614230506,16.449859063318947,-0.0878172724065753,-3.932702133726341,5.171449109786892,8.972208815067642
5.492784730979447,4.797317689245084,-0.2521110174757098,2.762014319347876,-0.3114149628928006,-1.840247629642617,1.747194496127248,-4.987022904289636,2.561428456129749,12.113488211553223,0.6904572968764191,-2.576879307050313,4.677015878614228,6.48668552897543
1.88325052829683,2.647151737511938,0.5772326742085137,-0.3047553479527023,-0.1984783995427292,-2.792386521181264,3.786536695174533,1.6126741032348284,0.802078999350472,2.7347949767588897,1.565820537798453,1.3634387898210507,3.667733196804834,1.922776335159364
-0.0969365423435893,-0.3329209539804593,2.048384129928293,-4.639103510189914,1.2035024665324887,-3.9646660114238887,5.129144066838254,8.896483232960332,2.3887070144987077,-6.995307764933996,2.1421640526505783,5.613197755932218,2.9478373887327787,-3.978667226120306
-2.3439984515853998,-3.756251409837385,2.771002474559645,-7.984471624200306,2.736386468681511,-4.275346850553103,5.681462038067927,11.503476820513503,4.092741135504064,-12.153782671126155,1.0516955417474143,6.42659784915974,-0.5218033308900141,-8.334381852998366
-3.550601207236205,-6.4550184757460345,2.457703321801043,-7.604348427788893,2.4522411310677925,-3.193639965976036,5.230522628595683,8.356352458510813,4.037389867478712,-8.237574729618942,-1.0662246719228077,4.082207148007475,-5.9015191377796405,-7.322274488632042
-7.084251726837699,-5.590149284453838,1.767882936438078,-9.16994379437038,0.6199746920084959,-1.3092537147957015,3.5424505713099457,4.0103930499894105,2.0318644474148897,-0.6512426677666652,-2.4306572852809407,0.9354823043195166,-10.18529753659596,-4.581148116837657
-14.02735625962006,-5.286652288061315,0.2004618566311727,-9.539566939526363,-3.2666987880937786,0.0420472091543508,0.7495828253429213,-0.9020832045983858,-4.377251097948891,3.571472048904505,-3.693923676817202,-2.201256707960745,-17.203122986760686,-2.420831187465638
-14.70300010538418,-3.501826239702205,-1.1239949574846655,-6.129460265695906,-5.945416238852344,-0.1426412232871712,-2.4175687457540125,-3.510064922132283,-8.192429185913378,4.199480239748585,-2.662778168877644,-3.0403492345881165,-17.31887541448317,-0.0126894477851377
-6.720450069523412,0.5601535219579816,-1.2010817072963689,-2.3253275661932498,-4.359227437561498,-1.684018475304537,-4.994239186792189,-1.941734219512989,-4.758937541524735,1.820550450826048,0.6687149923865583,-1.2156924747433362,-6.492843047020847,1.192280325557038
1.7359812471149227,0.5564107223556598,-0.636769492060535,3.906584197863835,-0.7242130037395098,-3.368245896502131,-6.5937184700577305,-1.030563876217227,-0.919011287265644,-2.6404666551051665,1.4275280083517463,-0.078399250993991,0.5900150186910446,1.1233379012430778
14.976930802407322,4.074953869534269,0.7669343080050488,12.503767243662375,4.597306620573431,-3.96835099235722,-7.907012650366298,-1.1183595675639566,5.354947511858332,-1.8947368256629291,2.256312208890729,0.4722585846149246,12.966506409828906,3.707759379360836
21.318200876277515,7.224767096128605,1.69615567734259,14.711872169743923,7.582590045859762,-3.2438054204912063,-10.235570695171518,-0.8902336068331319,8.68989031845805,1.7669483000922297,2.1072234169415744,0.5193628743794058,21.32595596623092,4.829987036468385
12.716099135232534,4.553986044358748,0.6572615136448396,9.92354504443862,4.850345107919859,-2.066696730196721,-14.284343174302972,-2.0820283247564166,3.3340241435534423,3.013198717111677,-0.4341465014794289,-0.7265817548366478,14.492469775039975,2.502913407033587
6.787210420650101,6.160348405620955,-2.0081317039775834,5.18114125136847,0.4132843217014249,-1.6106772220231278,-19.277396148290062,-4.2317665513749,-1.2134978669762049,4.630448595297667,0.6713097942690944,-1.59174167664577,14.094672633785764,2.7939367392526573
-3.1905682771458506,3.2208577461134964,-5.745206146116928,-3.1374470229800666,-4.822441893744585,-2.338036284011988,-23.32051159206834,-5.608149057347027,-6.654259188331517,1.477908520492785,1.0234977936471004,-1.9434015133870464,8.990917174523984,0.797214481758802
-11.254550392618274,-2.2936790625503445,-7.0980783691086335,-8.258191853865174,-7.387862732870766,-3.654867713174699,-24.82305502096577,-5.374555064084829,-9.286673844485668,-3.874402085962729,-0.0291629022184805,-1.726126166244862,-1.4616422519275851,-1.155515320198937
-6.1712667170279,-1.3910165091982774,-3.902812415008909,-4.279013453689806,-4.109859272464568,-4.492111075393195,-23.74084094024024,-2.8138503161811177,-3.84847967725909,-4.6268710249447045,0.3514028988992077,-0.531127116390598,-4.119420274268144,0.8752079741718763
-4.713502322933666,-4.4326249684375725,0.6696804848221154,-2.7132855043540864,-0.1890739271217351,-4.265904645046252,-21.49765496073495,1.782770291772274,-0.1243712325695662,-4.282858668680756,-2.119469874087861,0.7642535135039823,-10.5286099395314,-1.5228784070162131
-1.5913766673559964,-5.042976202226162,6.195234175958688,-0.219809583081832,3.434175466272162,-3.350427321492294,-19.65956331600653,6.609968434442472,4.062159411468931,-1.2866555816744571,-2.8988044365801797,2.057311393941957,-15.059172130313357,-3.2860504003913382
3.568538418589986,-1.4088153145730584,8.58573433837621,2.627577049679991,5.1803884155837805,-2.649200233306111,-18.611805816084267,7.624128126335857,6.53807971364606,2.8966357051605294,-0.9651457786624736,2.1772177839119684,-10.409490264968428,-2.3635547200355145
1.0415395714531208,-1.5943326160881357,4.981211680439801,-0.9550919832915306,2.609777690489051,-2.689260414189908,-17.450500487466037,4.527800809071412,2.9297589062225446,3.664115720655872,0.0139193545182624,1.0082953611530063,-4.167307659308237,-2.67322841640512
0.1558914930775902,0.4970942689531862,1.3667041115572611,-3.267521784161126,0.1817326435165596,-3.1214590584072406,-15.096647802324425,1.7971329157447378,2.5424752013268703,3.570777908012565,2.26387075185413,0.5534660967467637,0.7423236943741309,0.8475790441227252
-1.030837999343595,2.1693079819856065,-2.526486038520825,-5.221968665783974,-0.9609772117558436,-3.1250152315249613,-11.4787725656328,-0.4942464973042419,2.479294500066494,3.870161701657068,2.7449776270059507,0.1131872119713563,6.813362759959538,3.678304970284102
-3.675439265325328,1.0144547759418336,-4.856191528401459,-6.593338650297777,-1.193418915045761,-2.308505785513894,-7.652163382380891,-1.0783354049339695,1.282140264792937,2.874845687775749,0.7787747151976537,0.0666474663798619,8.048701992546615,2.8536497656564226
-1.7083690110603376,1.063993036266339,-3.0427613908195577,-2.9792404043849903,-0.1165656082340861,-1.1729628110238357,-4.830479581726921,0.3023198622432473,1.9199885086042856,1.498631636959252,-0.1817895165900211,0.7712171850712691,4.334568128344139,1.6727318217465772
0.1671172942000257,-0.2485743997331937,-1.6826057684594955,0.5099614700028345,0.3460655201255685,-0.6366528139021632,-3.330981124252494,-1.017622976093213,-1.3301894299510573,-0.4079268716831523,-1.7499297796541349,-0.0820506613549558,2.4466456719868472,-0.8717535169918615
2.312177143709382,-1.450150142729979,-0.6644247525429188,4.643581947705757,-1.1802302459806786,-1.1050019634267685,-2.386331564508696,-3.978185687377864,-5.770045938357777,-5.005334468110949,-2.8946660546466543,-1.2713194728328483,-3.1485407512524373,-1.398090429819684
4.138847618196772,-1.2992257057995815,0.5979006663757654,7.344200462536721,-3.0764515248391406,-2.064633549610461,-0.8518359069039274,-4.800857825333841,-6.699012898737943,-7.032881450434863,-1.9511479891697583,-1.6613110558310935,-7.156900684445076,-0.221549127204624
2.1480214981037493,-1.0262614097272067,0.9938117611016092,5.490474016011799,-3.054208065481511,-2.630034780140134,1.935457973623364,-2.995328439925564,-4.904161207080106,-4.337877720931485,-0.4847853021904356,-1.70988693476043,-4.015907688938571,-0.5233075246758514
0.4062982355478984,0.9404606106218492,1.9277868691638904,4.988836920961798,-1.0174579319515915,-2.4470747998448203,5.799488078474652,1.061572066617338,0.0172833906226059,-1.9642773406366003,1.837097674124253,-0.4196504416831501,-0.9854645102068826,-0.8727479806088174
-1.707950658070421,2.0781345963580278,4.002103363575991,3.986798102445397,3.4138073883028173,-1.9855902394639464,9.887534832210529,6.6849170080416,5.94009329886995,2.4238949401751806,5.299509646131177,0.9955573819826578,5.712037712306481,-3.8898419633734735
-3.12661348162886,1.3095853033898808,4.3162365843587045,1.7036684657924757,6.64140264019579,-1.93560229759317,13.003384689245443,8.312160544444644,7.730802325829583,4.66580788928718,6.269776762942535,1.362300866224521,10.471379847885204,-6.094055988107703
-1.4712959150969138,0.166963300982186,2.250761733476609,0.4988827383336596,5.044523154703658,-2.3982988903524314,13.966172966423237,4.205761197294233,4.527578523127991,1.042968400718205,3.4228193343524063,1.0973284074584182,5.666596855976367,-3.3171720447267146
-0.5016943012446083,-2.1552871464305534,-0.3270956924383169,-2.159740634903918,0.5060308863908604,-2.7558599354237114,12.138050012584891,-0.2189291135289182,-0.3757192156671328,0.1422533927018841,-0.2720106485984389,0.0535571814805133,0.9135918249622615,-1.0323278322580327
0.7227144397194913,-3.07808273287226,-4.639986852136337,-5.479228104340351,-5.682896823179256,-2.3329801737809754,8.082463931671704,-5.219324428157387,-4.98537370895941,-0.5289470455757497,-5.312829992729239,-0.4649959094084376,-5.206091707888798,3.6350789322371706
1.6447236055136294,-1.1067624315655316,-6.360208050489036,-6.127139831848662,-8.365149982991804,-1.1101441506107128,3.825266157913567,-7.339491479807926,-6.09471485982741,-1.1014824738349445,-7.663712619975133,-0.2398617680773587,-9.233222067871186,7.659138945492967
0.5574826540195321,1.439548809879026,-3.480525507699051,-4.389966195474571,-4.452155768634033,0.2699027867690606,2.127669458447377,-4.301535519635737,-2.9947114765673923,1.87596292933922,-4.421443009121383,-0.1325477453555283,-5.019019530609334,5.556109339008559
0.5186539785426472,3.780136365148308,-1.457730737126045,-2.6558796105585945,1.194654363077773,1.179838869779923,4.894362917666897,-2.979620068506597,-0.0189571135187562,1.4895602996091593,-1.5611305310973498,0.1338569812849619,-2.815441701541753,4.431149710613267
0.5019783100882718,5.45765653831834,1.7388452002663826,0.1328749842000558,6.949566460763289,1.6434269355405222,11.7547855187539,-2.371391249374666,1.2590350487104356,0.3145587395321428,1.2152948464324482,-0.8332992093351539,-1.7918142078864483,1.7930719240870752
0.2118463595584268,4.397921136077144,3.7398501399775954,2.4316162049631957,8.479594133450668,2.2825638832053103,19.99536094984697,-1.4821560310451565,0.8305788643574188,-0.0711442099053267,2.441908974633986,-2.076125075962557,-0.6183309195674607,-2.0076431150238827
1.1425355975288949,1.4600145889600489,1.6570744495672525,2.840006172065954,3.670472295809925,3.646019108606853,26.08089203285288,-1.9759295545772253,-0.7113758591406206,-1.9352133519007704,0.0323527427649779,-1.7642917577224753,-2.3290731331790995,-1.873862034845684
0.2368821208682291,-0.5194621717451531,1.1841809585267014,2.879683584837075,-0.8501235571744492,5.587851130084196,27.75677261963212,0.1133597257436475,-1.053552675810098,-0.6066592528766551,-0.2313671326744266,-0.9847612521574964,-0.0871368714027389,-2.438557178041848
-0.9533176254216144,-3.2913256704619545,0.0647322490294612,2.057427402823941,-4.728322960016692,7.292839334254981,25.27902066756104,3.62921655058309,0.3820356182561202,0.6423184397874226,1.0539240884695076,1.406599943090169,4.412369411571623,-3.196572390334137
-0.5390165816583452,-4.822093899341775,-1.5345872564442478,0.2155903873243591,-5.912494427771735,7.936463064165608,21.025152769802283,5.228610651409496,2.2717701351335498,0.8311892731176341,2.108150659392936,3.797899364292516,6.0443778741016025,-2.127977742345948
-0.3639052985536143,-3.5171688111105337,-0.4662112979958848,-1.509394667855531,-2.5969371639717007,7.395163878161537,17.9157781312336,5.774565894506629,3.466526020422293,1.789515456150251,3.4002663701359577,3.463669325712152,5.831523089088494,-1.5193451855128357
0.4312134146961383,-3.768935906184369,-0.288786849397209,-1.8904163475115228,-0.905046321550381,6.375561148595565,17.759320781588286,5.723596364177091,3.771176692688147,-0.5379364183318963,2.2518774668652046,2.0869293315883257,3.358145635768176,-0.7786318262936671
0.1617087299521055,-3.4414048578914107,0.4598333215754887,-2.7320228485586213,0.0989700418486433,5.835951184646357,20.447893102449516,5.8783787605642805,3.496256135689137,-1.6601441349591424,0.1330176022982614,-0.5889097036834541,0.8271024485887237,1.3824434890288189
-1.8958512232388287,-1.9908732489426315,1.6444644552709622,-2.9575957223657108,0.8583280545153131,6.195824665201661,24.25955806579477,5.280827408185538,2.140409814999625,-0.536686704136622,-0.9523750663344588,-3.0514185722981333,0.4086483111029501,2.4840869930199982
-3.456837570613269,-1.6974815797754204,0.327245959924433,-2.0404187188717904,-0.3720368545770023,7.0271969442168505,26.92839512988236,2.7784115000032923,0.1583836600072324,0.1616318217404599,-1.1278017379393177,-2.7205261839852746,0.9700714430411131,1.4357658482725897
-1.7094502438977095,1.2249686950466585,0.03282676635055,-1.3554407140326905,0.3796797850211204,7.495904201790895,26.864675191259188,-0.632819367420283,-0.6854564318191219,2.812462579857362,0.0461598706109544,-0.7156672273869733,0.3987918572795149,0.9733817135417526
3.734845376820536,5.6777268092704665,-0.0866745558166655,2.205789394628757,1.9335813208928372,7.12807848783749,23.904304394321976,-6.120348265153663,-1.3629744048381052,2.7365024148078363,0.3284223007056588,1.8371861914813497,-3.125850718938729,-0.0468441878358899
7.670059277218427,6.979286307984439,-0.7677143453032873,5.564028344920641,2.0505161409481474,6.171933361607902,19.198886477156627,-8.915761602006585,-1.2967194286106662,-0.5970913112468096,-0.4470927306875993,3.152105409473656,-5.783695805532077,-0.948997251797369
6.604513289116957,5.488015042464527,0.0248006863114173,5.745661447832707,1.863750337573275,5.231263089916498,14.329144250357528,-6.971766101789482,-0.9158505134491652,-2.992389167650612,-1.168884752052196,1.7782846573667477,-5.1586423938610935,0.2281799709150298
0.3119248279203073,1.9855067939200404,-0.5732095372979034,5.24102109845991,0.4977233600535673,4.5819651388879405,10.254017332165049,-6.917887907726108,-4.349868842055673,-5.017508424344846,-2.7120698232677887,-1.273554984797132,-3.648850071892221,0.3421109293073368
-9.924341483604564,-3.6470341896529583,-1.832398936474904,1.433107053029846,-1.3513921488689968,3.893281067860901,6.8713915295374495,-6.522831678669597,-9.835038483572216,-4.035606851142012,-2.993994319129304,-4.353216525153306,-0.0352141559997021,-0.6566761242966088
-14.91434974975612,-6.597564425105538,-1.8977895808758487,-3.202114094496011,-1.827339970759408,2.6395434398223987,3.50697358535713,-4.751189045766547,-12.05497627875878,-0.047416013074268,-1.770152500364765,-5.083372166364106,2.384948730525358,-1.4781700848571735
-9.262354898792031,-4.307961720516839,-1.1686899265041553,-3.5895532212979173,-1.1182965131542937,0.7657351143896234,-0.1404216283869246,-2.81531667706958,-8.543371900701402,2.4050441103456666,-0.595846914836548,-2.5005270418632084,0.8736995366466676,-1.8932476860491256
0.0106413696089981,-1.3473572320685354,0.3888870611447602,-2.4342312730817888,-0.2363438606380508,-1.086852602733292,-3.4849420574040213,2.826504327636968,0.8311492720807647,2.7894579722786794,1.421532623760031,1.0250806951145168,1.2788477326133294,-0.4857321947061527
10.574584880008672,2.290468093707307,2.1152447862744235,0.6062780767968807,0.367651860802038,-2.0325140026286013,-5.478197530281971,10.396642065484029,13.578328272213655,2.285333424547861,3.3623280024618643,4.582074524812481,2.779518938241748,2.5606298335061526
15.079160447992209,4.973945302199997,2.8721726164922954,4.048021492060316,0.5769405144654532,-1.647191173458757,-5.615304597408807,12.501258928092843,18.86977494005834,0.6714766493484183,3.47178435966591,5.6773005322183066,2.721501173460456,4.281832997592716
8.083729212856783,3.086735311622493,1.9556946528080488,2.4821388130314923,0.2978968608629283,-0.2999864476187248,-4.617031102090545,7.980679442390835,12.23825810598495,-0.170997639551524,2.206116102692261,2.7160073603777617,2.2386587814275605,2.412209288560983
0.2734464112451971,0.0987930100089625,0.4528990908113258,-3.214681135191684,0.0641466229701563,1.1283038364073876,-4.146617169063712,2.5387277477850927,2.581726546956556,1.1664497145945192,0.4097939172940696,-0.6731470137812473,-0.4835645666963227,-1.942120012689552
-5.912588158407618,-2.266290925257924,-0.8878914920231568,-10.312259502411376,0.6067902766547497,1.8358784176437928,-5.744266864351058,-3.709731364212692,-7.502693507507844,0.7145476389398142,-1.964803382647383,-4.192782424763959,-4.762115369671368,-7.006512912004834
-7.665586083737132,-3.197603636166853,-1.7078794272752402,-13.199542667097122,1.0968619014356562,1.5123626066152545,-9.802781166469902,-6.042416029763381,-10.683389130769088,-0.8674109513154055,-2.940505132303485,-5.464412500671578,-5.282695602254187,-8.133171645734834
-2.080824893931375,-0.7208805804763673,-1.3921621442313596,-7.3788684406764276,1.098019567506542,0.3378722025352569,-15.335423227674118,-2.7121170477195284,-3.5377296664436857,-1.2492857867918796,-1.6678897239280606,-2.625281115150263,-1.4128351050060413,-3.550081749916899
1.4060730003646946,2.260969132431482,-0.2394172540385123,2.2586628749451645,0.7024343827189704,-1.2920259108852976,-20.62151022641484,-1.597070366553226,1.0386269335404492,-1.8801312333548517,-0.2595431550048641,2.041804113378509e-05,1.751582710499202,1.766325932794801
1.7594750845246714,3.3329238162639068,0.9106338711257778,12.230693613627798,-0.7351103465807542,-3.011103683780872,-24.156834728057923,-2.0377775464247025,1.6581434473924626,0.6152052171419674,1.4119111051687403,2.316371119522951,4.367780861461712,6.166284617723527
0.963167085369698,2.1215113222268944,1.5772329168053962,15.260720676730916,-1.778849187385018,-4.527646639374005,-25.22152557519937,-2.520534312607149,0.2164743390722675,4.042104977549264,2.332223275540455,3.129487680996236,4.551495982157331,6.491239819227138
-1.269470664854869,-0.8602137523368045,1.358737161685188,8.299822938786393,-1.4730512433157148,-5.551197091396104,-23.84084083557617,-2.927036742686723,-3.4210864957979625,3.4554828132679125,1.331433189287951,1.3717955537808195,1.311969536851128,2.6337368389432108
-0.4780616980602163,-2.6919501739995746,-0.2004656047375767,1.7974166974061203,-0.8999822278579936,-5.806034554789952,-20.47700882190489,0.1724131890057791,-2.0404631465067,0.96057800194288,0.2811541622602977,1.172444958811261,1.0455120942146434,1.6895971984808995
2.37485525848026,-2.943005042800129,-2.0514588982173665,-2.9639531013477214,0.1143721521857725,-5.211637446712752,-15.92052291174507,6.003051420156412,3.48710655594768,-4.233720265834829,-0.7411700845357528,2.130147967856452,1.5970986576019963,2.678703238418857
3.560308164955394,-1.6448948390473528,-2.789691803591175,-4.117759107916625,0.7859291731994276,-4.061515360724594,-11.431605046646323,8.829539228277511,6.782448497250429,-7.639102891962104,-1.3436012350361357,2.620189145660172,1.322799040731633,3.597824631682468
2.8247976927789424,0.247636538458459,-1.800046144189905,-0.2902138632727,0.2596846481138143,-2.9379087189345454,-8.68421421873102,6.45561459841232,6.160668193943491,-4.051959922707629,-0.4951107917274025,2.612152172444525,1.8555313222565557,4.183894939472995
0.9788706893715882,1.6046798036053795,0.7224842673622134,0.2155519441542401,0.3896790988072667,-2.321487582146689,-9.09183728099208,0.4391158749389487,1.9088674460322967,1.0865966319524056,0.4847344628238634,0.2222463503798394,0.6251791759346449,0.5006561276057303
0.0099679310291669,4.977989410177631,3.332389701468931,-1.2589476949624934,1.2197013739772522,-2.213740949062626,-12.744039753191064,-8.235407595600284,-3.2344030331023093,7.222513057068526,1.459576084351478,-3.591380946395971,1.2017280617448516,-4.243908917709167
-0.0136173029212256,6.593180510257119,3.8288495480896176,-2.053857709601678,1.3162540516217998,-2.1789016109901724,-17.840890675430476,-12.033446243050337,-5.752668271450895,9.342485093777702,1.6577355952122947,-5.165439750216365,2.2211867798169527,-5.747107175915312
-0.8662040291145494,3.4653559536173733,1.7004292421442695,-3.340303698212568,0.7512108052755629,-1.8403632252481976,-21.40728838169809,-7.383269769934261,-5.192214746556656,3.0773244100571544,0.0066291132691882,-3.8032374666318063,-1.053947994495574,-5.26950493297041
-3.894996730809537,-1.896721943178844,-1.2177655500884894,-3.362641873914298,-0.7012974574145814,-1.3670013353476858,-21.09170347870737,-0.3175312269364415,-3.803369036928948,-3.085098672572051,-2.095881070090277,-1.1857173099375231,-6.934322147968604,-4.113272745710596
-10.849567602006168,-13.368248457194795,-3.691913789401297,-4.407066769774664,-3.240685645472205,-1.405124023039793,-16.804358177646545,8.204354111611746,-4.92195395544367,-9.634668505527658,-4.675870866501844,1.6213701819140671,-18.46104429447847,-5.134457055315789
-14.269535297358546,-20.503461767988625,-3.748014865446212,-6.099468912073436,-4.16032185693401,-2.424447218048813,-10.852807346478157,11.774191932561845,-5.665966323682026,-11.751377005564926,-5.442196327645349,2.5465045935463166,-24.16800630895268,-6.37827499357904
-8.828959808752211,-13.707843590103352,-1.296787421303487,-5.384688891228561,-2.507770828520971,-4.068599983977029,-6.318630533787526,6.076014960366297,-3.7281035116315913,-5.381318328726469,-2.9458831497436933,1.0882726985523674,-14.728707534790484,-4.292106634271051
0.4329923713810913,-2.2582707594330422,1.0217243507707547,-1.2700387192096552,-0.1820559655068093,-5.183029081673609,-4.845887915769893,-0.2816842731903888,-0.6191500055972399,0.27031030630935,0.1849162705207426,0.3694949060210097,-0.3451402964626578,0.8796924804860151
14.776782717825697,16.357639517992236,3.137662335185357,7.5000379422707635,3.304143115062104,-4.610632023911284,-5.5582487245147645,-6.689886207967319,7.031043879871927,7.755103371696557,4.518229047531538,1.1692466468525204,21.309454604506797,10.75521820816842
21.799293890301048,28.004422683168823,3.286586320783835,13.731757094436276,5.18832307710678,-2.1405399308519275,-5.968075499521476,-9.484217707814595,11.794880508549646,11.600952059839525,6.684164599689262,1.5148408336236583,32.621073652987384,15.38139868099752
13.375829855780212,18.990207657091872,0.904474258961342,11.946051114209576,3.5191884438275363,1.169443760951852,-4.143275936008241,-4.459841785888346,8.651097713261883,6.4428112283771855,4.4754265798787545,0.8064408995534544,21.158894575805395,9.199639999392073
3.9690140988721385,6.277175124396622,-0.9074828845867278,6.080416427836726,1.5147020627441496,3.584683064140662,-0.3638819711109047,0.331894554436817,5.878779609052937,2.876462160477584,2.6219544345750245,-1.0564209342122368,9.793755619102695,1.9669413794720625
-8.10805269991138,-10.099461080203511,-3.353365074636271,-3.3636651751005733,-1.451696302008931,3.795378450403613,3.091823949428356,4.732826618898979,-0.0106817522025556,-2.8384395587563267,0.1767452143272704,-4.65594612252905,-4.308260517840347,-8.442394139633524
-14.540893800441047,-19.98317762128259,-4.589226015172626,-9.508244549895952,-3.5951989705142084,1.7728654105293469,3.84561456820836,6.894655514723048,-4.964520481409244,-7.252942241179542,-1.533487888224874,-5.765208092672556,-13.165107193365772,-13.210284791162794
-6.868176011451509,-11.12015943470806,-2.6302675548714256,-6.33935829668286,-2.2689178758846307,-1.1921832259199905,1.413829377207147,3.1729188380047093,-2.80605465269112,-3.522877433185961,-0.2328112100292698,-2.623285109560475,-5.62750421378121,-5.670641213724158
-1.614881365431391,-1.6421340810961718,-0.9349562696172072,-1.5081618096207705,-0.7272046729460844,-3.312765952833855,-2.347735967192346,-0.0730627732869688,-2.8892089943391,-2.3284982592322985,-0.5212541941374362,0.1934655210249738,-3.6915645083477417,-0.9874144115516752
3.5189565005784718,6.480914591930698,2.0169102059827075,2.2779706723212594,1.0683288524983112,-3.478080022009534,-4.654908765232325,-3.1564010471606725,-2.858082565416525,-0.8027414854952165,-1.9621141943060945,3.691914670979132,-4.851985739798782,4.389472233547152
6.946227734371045,10.333481369488284,4.564649985939443,3.487234983684512,2.521285793469637,-1.9990684987934308,-3.823694962591249,-5.133665355488295,-0.9333509781767706,2.011962076979928,-2.773242663142179,5.107211277824173,-3.3211243315900383,7.682502662009634
1.4557632393483182,2.698862469836752,3.731686844231215,-0.9588260211809017,1.3570382212949137,-0.3722782592949478,-0.2868537699452123,-2.800945708712869,-1.793243870955853,0.5124279788932484,-3.6260424052965807,2.3355602183335678,-5.145525172056495,2.0333099026153247
-1.9109306682738632,-4.035458814073568,2.9638323661353736,-5.77625418936602,-0.3135899978164778,-0.169387511102002,4.014803233005559,-0.6173391219903551,-1.531826552084062,1.365638852720857,-2.680572181237429,1.9206388294715675,-2.769914618671085,0.0462616657798721
-5.233038715308044,-7.797147199158313,1.449349687653778,-6.933714237533567,-1.6176859663657603,-1.8413047713253297,7.1108052428442345,1.8254196680605048,-0.3382898866354867,3.588163541572892,-0.1252421167214722,1.9745249255527908,2.6140688418808145,-2.340061877422297
-7.875431904426798,-8.394142945021127,-0.6817870799891443,-4.350146682365159,-2.0711073021368605,-4.3579572635254,8.116829049024723,3.7760348779889865,-0.2223063201414147,3.3740114788606386,1.81108636401414,1.3721096806030126,3.541485772781636,-5.164024364232336
-3.6644195500561993,-2.6657263577613586,-0.8057928331957208,0.8599398111341855,-0.5990669503902378,-5.982240754485117,7.38547073477319,2.3649868908700262,0.7357562781162791,2.4832902594810653,2.1616197811197595,1.6877687498928904,2.146532502069051,-1.7523210282092685
-0.4223293520206037,1.6600370852335855,-1.1350190878089048,3.716977289333854,1.0208649168590476,-5.556138299219465,5.960252246828684,0.5280368695388679,1.2708724744098956,-0.2690144887849204,0.9109558012639614,-1.0612951818941423,0.7590141921157622,-1.4585916804808707
3.48287419760504,4.432150653776608,-2.1380821909141186,2.806164519440458,2.0761270925639983,-3.269907494007338,4.882722617467646,-1.6659213021033388,1.0633740056041754,-4.450963762315517,-0.3961015086068468,-4.657404150589301,0.0705826486550708,-0.5048933899285816
6.917694611454975,5.677314786163418,-1.885727175734207,0.2653732070565799,1.9685855239965036,-0.3611936423925828,4.650988934104678,-3.024226965146026,0.7342516455852188,-5.6885650715833895,-0.5428984443676317,-5.223191198588582,1.3536118790931049,2.6926219158400087
4.902292140062082,3.395227515424443,-1.2487403764350171,-0.778180867708548,0.198812770353265,1.88497214867218,4.94728559422037,-1.2266589913089083,0.1888100511004671,-2.9651483488425026,0.7833715600169702,-3.490017358904095,2.607152533401132,2.340913190027224
4.4484346654011,3.1173164160280646,-0.9567723920133492,3.6646123514250446,-1.52248555126385,2.950274983537768,4.835606398101234,1.228998946554057,0.9261635572446956,0.3702529986778883,3.088407653816493,-0.1515895330262183,1.1644414490106674,4.117702062273671
4.195365786347965,3.245022326713736,0.5519756032859446,10.356440916640585,-3.615739165505728,3.1352481775009045,3.541007481307492,3.671237000132289,1.793204493905301,2.983366093203828,3.476805364605984,3.144848672397202,-3.185559698431613,5.195566841709935
2.143903360704624,1.679960362418394,1.5140052332778096,11.790562145613816,-4.650204241970757,3.025082145180611,1.376002292040015,4.430072892796351,1.5455584721701792,2.342506216571886,1.1889782708407712,3.496701264724269,-6.742426926847926,2.3310922708690143
0.8560509685855611,0.1269826916786133,0.7231524155305611,5.547987826442032,-3.282075799961833,2.9845145034623988,-0.0861811810033179,2.347724326286677,0.3311419279822668,-1.385891958046657,-1.5757796543425122,1.281755975253517,-6.277129528452468,-0.7270105994995315
-1.9730455883450744,-2.31910723464658,1.0106854346867724,-3.626012918887692,-0.795253709186399,3.084933663509179,0.9129450796123036,-0.1098884323632862,-1.4982717844007645,-2.3152108179149278,-2.978043944774217,-0.4970048153031277,-2.145042749358962,-3.272791594713019
-5.996235847934041,-4.58812912687514,0.8394760421784383,-11.71634180871094,3.821145853462557,3.3337957271712,4.7001061829811,-2.321387235956093,-2.031252826999414,0.3734971942170022,-1.5550635379134148,-1.1214933524419577,4.6365899169089415,-4.7025795408319215
-7.045745392472552,-3.7099173160135193,-0.1306053484072293,-11.84188455286466,7.174438062916978,3.8130741215491257,9.53157551819258,-3.1307073552341578,-0.736941960488237,4.594596332830629,1.7206491994455797,-0.4929141638515456,9.11548346337898,-3.21528122062712
-4.833273537161234,-0.7133128747326617,-0.122100629199397,-3.752892786630284,6.197074550599745,4.54756958007914,12.800032705336822,-2.6268904198901195,0.7613777441816805,6.94449774370277,2.988560848331979,0.8195019179395192,7.718631762275465,-0.3893016055822155
-2.501029254234096,0.438400250786014,-1.0727149364041957,0.4258916608897181,3.3738646012229463,5.301991598950245,13.22572741006481,-3.3699120658973216,0.4864296160758121,2.7517010546919694,-0.1142450276943751,0.8607897828032133,2.9782548154912107,-0.4355608564636561
1.0445198180853137,0.7977980003390658,-2.3464385300798223,0.9343201028160036,-1.5830192863964991,5.613647832763726,12.035215125286747,-5.082160924744883,-1.981186821302555,-5.275568489563932,-5.413295878016958,-0.1912607525474045,-2.71388916528248,-1.3609017552405225
3.578008628174198,0.0652337374775162,-2.1343294797658667,-0.910701731800858,-5.29900937674373,5.107623093462929,11.868251123658569,-5.356831453843046,-4.199021597469727,-10.39875381200735,-8.343210822162328,-0.9084692626056816,-6.07809741846481,-1.8698121520079571
3.030021325040526,-1.176734257368539,-0.9545466052562708,-3.7625510194063714,-3.701144827959344,3.825084382619508,14.237989022037857,-3.704179121877452,-3.480744599795868,-8.254800928396367,-5.826992627814969,-0.7151874702426713,-4.255596132479276,-1.5896726810856476
2.122112966062191,1.004026253694246,0.3922652051037745,0.9138201730942488,-0.7506899669794609,2.2526659606174846,17.847884509791218,0.3865323088906983,-0.0452179474178836,0.2990169591548548,1.0527054496595212,0.2389826804610265,-0.0680271186902633,0.8504407127591123
-0.0786150996974053,3.625645265311495,1.9036534633953512,8.259010529044916,2.146036034146217,1.0003588365275462,19.44654403908511,6.176204848264964,4.445537278224528,9.115960149009586,8.195391602963927,1.3198203389418703,2.8448157840671406,2.4831938260495408
-2.395186594523236,3.638651635328265,2.255531766807563,10.011405055069249,3.586161890751087,0.3763870676925718,16.638105276338283,8.151822327523952,6.267234852516803,11.444225136328594,10.09889577884057,1.2871139423327251,3.596629375712938,2.6447824114685443
-2.1149633924628017,1.063589680159922,0.930559896248202,5.413687867366878,0.7453020717094802,0.1922020376421578,10.195618929012092,5.94937662830974,3.640296335237984,5.572522660395489,5.694974504857693,-0.0359539190413505,1.243465229556058,2.179391539665311
0.1974139586162835,-4.061459389344434,0.3371372375058047,-3.959390223850128,-3.2070023173222872,-0.0542560234103604,3.719974353208825,4.492328853327505,0.1739272257803362,-3.2791277986388216,0.0148267734471225,-1.254828197295196,-3.120425224362857,1.5639571400611942
3.711873644199192,-8.53808062993488,0.5559587833875317,-12.796333637783468,-5.649923903311744,-0.7586102901204796,0.7865982346775109,3.630896564628527,-1.989741256372244,-9.012006620432718,-4.143888856225369,-1.9687202536947268,-5.129689387080677,3.4065723322820807
5.741300577484812,-7.646339354141669,1.2356481113689788,-12.637867135653815,-5.115169143634102,-1.8770319497957504,2.0102062666212603,3.834787670424112,-1.371235304655101,-8.073318044831325,-4.513995727571673,-1.2770328918359817,-3.893475139676515,5.160272055351514
3.754274536628564,-2.246008047192801,2.075928987807095,-4.04724554419811,-1.3242691951829548,-2.9433571743827738,4.634551182600932,4.781637718217509,1.607423733238959,-2.330325446490476,-1.333276690989087,0.6575174531450776,-1.1597250723616712,3.61583536851988
-0.8214199238296257,2.5435903575936067,0.827717847625763,3.0893400423966644,2.5008694195465027,-3.4313472916877767,5.060929953346317,0.6208197001558216,2.3744577872561394,3.257020146915381,1.0571737178953466,1.4806656477153577,3.070891322015292,1.3470199341249278
-5.543922474795767,5.94605876305622,-2.2955678868260296,7.626491731611884,4.983579337491011,-3.1703815243625826,2.0837835914588343,-7.462087019695164,0.397733196679272,5.875889442405184,1.8425898173865665,1.7671548701132147,5.617197023064845,-3.749115216144042
-6.641586207601407,5.218350095449223,-4.742679155511372,7.059990655517559,4.257009517439193,-2.4622401807581014,-2.078102342598381,-12.147454036302662,-2.740464000601021,3.884485950296588,0.985052024778589,0.8682451577965118,3.9101421800803937,-8.408402789572635
-2.976267046255641,1.2473671606042287,-4.610593559121637,1.6898286171068937,1.1393620830045357,-1.80000280822777,-3.8917799128265607,-11.43832018785547,-5.310439356610306,-0.1983794729949586,-1.3242873414256595,-1.2352203837835414,0.6510774533721084,-7.473389546618887
1.0830813271794857,1.591029692851544,-1.436917294963756,1.6429448768447226,0.2596359817422685,-1.4533403757116758,-1.831534815014532,-6.504983174778316,-4.562149980115029,-2.4164192949295606,-3.126988106646708,-1.3534569314011131,-2.1584311767385835,-5.805999827361401
3.397850604330134,3.750428844365776,3.188953851385454,3.572416137901394,0.0882108355098111,-1.3114913041935168,2.1474533433306178,0.7032538926207563,-2.6427181251206067,-3.914152974767182,-4.657184748081161,-1.5636068519863355,-4.508112325983426,-2.549286345979542
2.238472090521348,5.035191231064398,5.609648250789681,3.483326073027421,0.2878714881897152,-1.1107413773791706,4.353447826125546,4.774927842759193,-0.6758777854968032,-3.815471175812405,-4.619315349756583,-1.4483348385508867,-4.027440399345108,1.748343216174559
-1.933857737268034,4.868441479986343,3.5834030805385,2.1529023744798126,0.9186219412955688,-0.7718605218794252,2.723232840869532,3.4646686135301312,0.7406660160299707,-1.710852347574581,-2.048927273760331,-0.0633086673240863,-1.2422029967418742,2.599885273875338
-2.4104506811893858,-0.6639065325718131,-0.2197714092261623,-2.6641492702764245,-0.976140220544236,-0.4663507767889996,-1.3041535811164415,1.200038655735213,0.33653242004121,-1.0691286526497126,0.4914221168208201,-0.2950050661863299,0.2403038289261279,2.741059155259962
0.0538356985360589,-7.68516464572668,-2.986301850679978,-7.331750646989569,-2.5526892677268105,-0.3529536500773957,-4.171204796274996,1.488016494358842,2.3750227615993187,0.927351376769016,3.9818893005751534,1.0581923339992956,2.718545769613958,3.6791182191845127
2.413995380291166,-9.926106864721865,-3.1776026571596443,-7.067630145344474,-2.300527479136076,-0.3248703474530394,-3.6153320238184783,2.7974273973343857,4.567409603705315,4.184180890888128,6.133508452725364,2.8101775941942413,4.509178846880819,2.774161344152913
4.163959969926902,-6.727216882234505,-0.4153141042432018,-2.775538115819383,-1.5140035087027108,-0.108975821429567,-0.9773453734863936,4.24859426660389,4.249095410439258,5.274594969235057,4.631630193044008,2.291135753030416,2.994182571999625,1.3280415923087172
1.8704208707497685,-0.3809988798436626,2.014155233426818,1.5825336443761424,0.2196584904537113,0.3651889374739667,-0.1978128011957736,5.753745089504109,4.830186914727102,6.083925308431259,3.6680621662879673,2.5096365609233016,1.8664993244187789,1.6820472490450291
-1.023734672403054,5.560627020315703,1.523821505982843,5.047977292792783,0.8976948147973891,0.7700524143309977,-4.268091695965957,3.018163057946429,1.629294449262137,5.317554722622476,1.953638169016182,0.2132071467587974,-1.0045416347299083,-0.0328930782506089
-1.3116007912050849,6.564560785382664,-0.6270239743824609,5.153522287467449,0.0918851749382825,0.647475175980496,-12.26847354879328,-1.253025100491859,-2.907204547956871,1.616879868086583,-0.3593581635548439,-2.9815394403891133,-3.981679884649137,-1.7351640710156804
0.0644623728247048,2.674220508687553,-1.9944274986616175,2.0916231708820225,-0.2557559686649744,-0.101234644315916,-19.731581236054875,-2.779878309393097,-2.9785904979264783,-1.5052502390959588,-0.7186042057231385,-2.448508888838022,-2.8531615157009984,-0.8827796227479289
1.6344879758929154,-0.9112689058011888,-1.6748386019513437,0.1584751631858509,-0.8631552355623017,-1.0448689382923178,-22.180480330648063,-3.979729778999341,-3.6000960884336908,-2.528654255201432,-1.84127164440372,-1.8582617837377189,-1.385682590166621,-2.6035907533320835
0.1990647581759773,-1.571970443240552,1.1160492499077366,-1.5335549309935272,-0.7832928419532147,-1.6051334690394905,-18.84115129202917,-2.610830356713602,-1.874252512279192,-3.50555332154586,-3.286779928937139,0.8739192429674514,1.249404888988454,-2.420424606519903
-2.194170690166773,-0.0401647526537836,3.905181027861805,-1.9537727172458863,0.4730590051531184,-1.6175812988672291,-13.289613987752354,0.6640524209254578,2.059941732215405,-3.0157684996533107,-2.8680030017966494,4.256602425116812,3.844648922302016,0.5831918591057617
-3.0327436804293715,1.4850082027029836,3.063227017789057,-0.7881229517155769,1.2348695688172016,-1.4678951351613243,-10.445145090631073,1.1536641625769652,1.7369241407438851,-2.237482445378908,-2.057010344227748,2.75810577513275,2.3725304457207645,1.4827254012520517
-2.724153172198104,0.1115801993525007,-0.2864844759456284,-1.6284477649970557,2.17926966566107,-1.6359823326834082,-12.518172721530457,-0.6530750505987029,-0.5234008916804682,-5.718489442218666,-2.085907324568535,-0.5633367060414399,-0.3487028239741477,2.7304692304803115
0.1929373810282012,-5.157075557739567,-4.860216756161934,-3.216075934208169,3.0290304894791533,-2.119908453844751,-17.381914095794116,-3.773623256688567,-4.414150540980108,-8.644083979607203,-1.921142518234752,-5.767289246909771,-3.972050870704997,1.9722083908261736
2.5145781825647715,-8.67349292760552,-7.158804991474131,-3.7632937864592666,2.11648007329642,-2.363846648919335,-20.61472169098855,-6.298961084410908,-7.998817285018282,-7.953586495796599,-1.9932918392501613,-9.343769790052177,-6.45837437513844,-1.5467207792652489
1.5909831170325632,-6.14294679601517,-4.293749795960945,-2.8758237619952345,0.0594062941134758,-1.7977944362853933,-19.23808367825212,-4.948562103469152,-6.195761569675415,-4.602980990320155,-1.9405649179498312,-6.368336167752194,-4.334826472174882,-3.0013379069642543
0.9188769778775988,-1.2178394624763356,0.1833637023574996,0.3025012870161165,-1.5578613219278106,-0.4573257555067869,-13.88067008550178,-0.2160139557436796,-1.1786146752282034,2.301689618402464,0.2124209443757241,-0.7081112473059853,-0.6586011299271514,-2.230896484357695
0.2735467473584564,5.517283984233749,4.587439297477664,4.760765041701271,-3.2786645892945447,0.9459435550676965,-7.762047139606272,5.312829853657345,4.71911895329109,8.48943356325532,2.763448501940622,6.365858233827505,3.663605625862556,-0.202713061823319
-0.2822271423568607,9.109418127341096,6.373708203669774,6.680514242434152,-3.09010835944987,1.5963367249676494,-3.771745100699194,8.217138641489294,8.675778806689129,9.560645466846095,3.9520341140529247,10.158331237968683,6.498670838300859,2.271965225718786
0.4499899031289265,5.780789968032573,3.846308004486047,4.458843387999693,-0.5318130001167025,1.2586758123346191,-2.339264530384961,6.619838989709373,7.887680204153818,7.390741692568099,4.029274572041725,7.159689109697505,5.04019480576192,2.7460371863295947
-0.1906777386637543,3.165409933436494,1.442083904482735,0.8216823413128356,0.3962250755119628,0.4495686242880907,-1.6908371826909612,2.9948300420865968,5.606275048441743,6.195367210067511,3.2223988038267195,3.266562893415225,2.6617515788680204,0.9480483097698036
-2.3247422993707847,2.503070586106282,0.1979641691920439,-3.1458020604563246,1.5627622345046546,-0.0377752276965246,0.1788092112030472,0.0722031889621487,4.797525806249082,7.623664418095565,3.0926748110059563,-0.3633408241711516,0.8612968732701227,-0.0014955758145429
-3.822948420005589,2.33336048053615,-0.4078929246176035,-4.709823881535878,2.007509531736855,0.1932988433666231,3.751881799516735,-1.346463691014195,3.4274779407352822,8.303220298148883,2.970458364826476,-2.6363986138631232,-0.5328810529590249,0.0213723248172557
-4.392474544052921,2.4043962719012577,-0.3688090318665044,-2.978407995690661,0.1567006921243565,0.8606710512772899,7.770138297998312,-1.4152573068068608,0.4058383056301442,4.855092642983962,1.3703130262807437,-1.731565577822994,-0.9856513042712284,-0.2256869400213824
-1.9415859278772143,-0.3282476233872862,-0.4005074645624945,-0.3790671063934897,0.6282503123132035,1.309065795986708,10.359503430326388,-0.398743774701272,-1.0690723230203971,-1.320404039949978,-0.422040092195171,-1.059563414073359,-0.4273931415794725,0.9758672566226976
2.94546787336529,-6.8272421920281925,-1.5637794702538923,1.4850763735893764,0.3382027353748657,1.08076218795183,10.38391302093304,-1.504171023284694,-5.332165189689313,-11.3656330360812,-4.284270605468302,-1.75880850172527,-1.5569211364866578,0.2574920390598025
6.262915963479874,-10.63601072163369,-2.549791936192207,1.2593812950519925,-1.0669467924784604,0.2477092162124634,8.119704172698654,-3.2152729874003234,-8.55508353435074,-16.41538010662173,-6.884832761648983,-1.6708504993565247,-3.2655424359156475,-1.9858441196767016
6.645360765778935,-7.37439704195792,-1.7413873801308282,0.2351614377494528,-0.6373141042586137,-0.7219252975988475,5.060579800859236,-2.801151989973947,-5.640852079160233,-10.944208123606522,-4.894545564083459,-1.1219021943687926,-2.8597338428477075,-1.91181701221289
3.776213105181345,-1.511525790665686,-1.305971341820513,0.1779744923602577,-1.5051408910961055,-1.3606415120537108,3.131270669793297,-3.304269649437805,-5.544451473215814,-6.093500626708934,-3.148646627215321,-1.775542217883114,-2.7998027782104544,-1.9350679282692416
-0.3773324797540089,6.766601178082659,-0.2019621157426652,1.9217990208376383,-0.9637750521443672,-1.4842714538086117,3.688156870498272,-1.4477161675874228,-3.144835871711315,0.4994374206336045,0.6140220550076688,-1.61057387438482,-0.4740875949841597,-0.0663352769989017
-2.955557530387705,10.869459986975295,1.1406077476604368,3.7607062677683594,1.0895536154018326,-1.1777807764338617,6.74192970162343,1.5415342445887634,1.2723552524769806,5.009354169933452,4.181752478384478,-1.223450353253658,2.8504796275277453,2.9627434250422398
-2.2844022364841203,6.083027251839617,1.15245929093705,3.4690298307196707,1.1253374333703392,-0.6202475300200945,10.890031737962358,1.69108742883562,1.7399460250751435,1.8388592825585928,3.255271299354144,-1.1709762164968338,3.0991520229008467,3.393214946510699
-0.1931526559794627,0.7594577890923503,1.3325452802766138,0.668647394667029,1.2677428245562992,0.0143027263949235,14.17822816542142,2.227578489382695,4.474451203711153,2.7958714254489125,2.7106482293046943,1.4050687565054392,2.2635658683431683,2.2914923553980246
-0.2404845377453676,-4.342462937764577,1.1602542378155485,-4.12289230163196,0.5109411034406057,0.5277689741216136,15.416907953944904,1.3177798507690015,5.892669597569015,5.383230027297581,1.0521904747159,3.83690327211312,-0.1615427847402638,-0.5186968190912192
-0.8800275447966698,-6.30955660255922,0.4756718410418354,-6.578802185000857,-0.8925808136903692,0.6964682336631611,14.929625385212208,-0.5827510677979488,3.124865236681522,4.804577185338376,-1.947562051573222,3.762620116752851,-2.483868010575997,-3.5048028896855263
-1.7045589106579755,-2.7645543316154426,-0.1988519824852078,-4.907844044455122,-0.6449382734080964,0.4178282913622624,14.022877023614877,-0.3597116129320532,0.2690951114995196,3.960707902834691,-2.523480065998051,2.1394369202676278,-2.0051126339600085,-4.204259627996486
-3.374393951421877,-1.2655464002672638,-1.0354052622273242,-1.992082541208808,-0.6855814798655033,-0.11204634593863,13.586323944780451,-0.0809200426685894,-2.5514699305218427,-0.0349972466361936,-2.245885489953927,-0.9604214671088342,-0.6233654850749135,-3.0211251632844336
-1.4301062297752425,-1.5228956522601915,-1.861217498877766,1.7158055404150288,-0.998796527585852,-0.432203302056692,13.134538406885556,0.4374288042114612,-4.541502202140616,-5.7132680902638775,-1.5761707198997714,-3.468980265744521,0.4629942853735257,-1.1555668429293593
1.6418109636969602,-1.4232649529407408,-1.6992520134363387,3.6560038180305794,-0.8719740811836221,-0.1178973886165906,11.283511739006556,0.915718618277459,-3.016896060696097,-6.493433532950318,0.3150278721019258,-2.939930918952665,0.652613145811486,0.61760337849232
1.9961651056906335,-1.6316992969107302,-0.4712591194516664,2.3175104061996694,-0.6903234489465438,0.9009464598512976,7.290703414415603,0.0290204196826495,0.1167563152947905,-2.625633110345261,1.3629534371295158,-0.38441775922507,-0.3709077954837873,1.0421316565568244
2.943069962954849,0.4023144543075327,0.3526990480379488,0.3857334519824228,-0.0177819358078259,2.3141128037001053,2.184909060109817,-0.941960069839572,0.3165212510714787,-0.0396763977361135,0.043194110063536,1.2912003885395893,-1.2401826937552225,-0.307290025795354
1.1831635347010312,3.4832986941541693,1.0968551276709058,-1.8387601575663075,0.8097005419599161,3.714399360377613,-1.6860912849217584,-1.986685134211381,-0.593048050485964,0.8770202237902928,-1.2167019411264313,1.5795670938768651,-1.1042407026509915,-0.9175660233319132
-2.698538955298219,3.8603047094850966,1.0222938277437243,-2.7976987073384425,0.9848438993565436,4.886758614477614,-2.3975213918046023,-1.892751409523011,-1.3361226859964566,0.1666255884486362,-1.510426189916944,0.448784713164153,-0.0926927362079183,-0.4325449974394741
-3.2596818831066137,2.112457590496269,-0.0987100276291535,-0.723841070792463,0.4924584491643443,5.819384578223691,0.0262830912334806,0.0438845257774215,-1.1997870480113917,-1.4057687104821035,-0.569342562368743,-1.293617989357967,1.3387179989742544,0.9956598917106064
-2.4093417127914734,0.8486324392084847,0.1001849069916323,2.736301839483014,0.314641974582961,6.487816948011179,3.607567200028853,1.844637074766903,3.285238349890808,1.8965787316460567,3.2497169799451133,-1.0468249411070385,2.702070224666105,4.411713189632232
0.3792347424360618,0.5051202321713418,0.6382520526900015,6.509396615240561,1.0980529820201317,6.716848734596098,5.86735395343387,4.578640718667678,9.059658256974586,9.425372221828724,7.075039757940845,0.1908307913986406,4.44789792011726,6.810244894560363
4.142733715413782,1.402689700443971,0.8739682411673545,7.147628774266796,1.9009206675556567,6.308521436072795,5.449595369778933,5.579938758818872,10.103239787129889,13.120196783238654,7.298155560242533,0.9988309820638164,4.773652020459298,5.53939155308248
4.343467592889567,2.3725373234953318,0.9352032298136764,2.981591405447417,1.5645382650859645,5.287207500590561,2.64714691543179,3.032567330807893,5.71059190956156,9.329123248548983,4.11423925304749,1.0852333144197497,2.690837538522807,1.6509768703874772
1.0476793502784951,0.2488595647689634,-0.6880475840236473,-1.6674808935393275,-0.0212116159197768,3.966843731338379,-1.3332693121805337,0.1227338214343528,-2.217345690457323,-0.1847294674049109,-1.6079958657438829,-0.2746127195839093,-0.2832432497331905,-3.3503092174557394
-3.680588375431017,-3.6965699246357215,-2.755438500987128,-5.879655403097975,-2.9367765262501453,2.744857259896925,-5.440125704394845,-4.861110087233599,-11.347727678420942,-13.641102356575557,-8.194556272168349,-1.3038099237767211,-5.258722095116215,-8.20024361660353
-6.291271897816075,-5.461362528981826,-3.116192193823383,-6.267756839084065,-4.435946113601767,1.831677687110293,-9.15166527892086,-7.664879383002711,-13.493965655579158,-19.366629143737796,-10.09215217042632,-0.8946830964422546,-7.947158367085434,-7.984693976624394
-3.888636503408822,-3.877831497176582,-1.404092147906683,-1.938203690616734,-2.567719073247785,1.183021093206868,-12.014128277114146,-4.98120974346458,-7.032988858195196,-11.882187532160344,-6.207149729932396,0.3349013401396587,-5.465009210771493,-2.729786319255701
2.25794577610775,-0.0715773417900822,1.9765007857984571,-0.148169188204069,0.2965630111910425,0.6705333897563079,-13.162784054499944,-2.5141204422867607,-0.272748594737056,-1.7276887526078064,-1.296501413159123,1.9638783122116024,-2.497410008139079,1.3091674517545553
9.129244162526415,3.981552072171992,6.086437677538378,0.4523783680699013,3.752486959541709,0.2717778221529556,-11.708581832431818,1.568368934801252,6.9019931284870335,9.631753170146848,4.608660687960232,2.6375454932332145,2.360684335730311,6.039749372390888
11.116664405912877,4.600392908962763,7.172837784186224,0.4299588243036225,4.951937785306142,0.0540709383543998,-7.892257375161016,4.37415573745627,9.26332338320525,14.342507100205578,7.353131340475029,1.712678879564879,5.811547111539921,7.417356025255246
6.056910391674295,1.459686755641949,3.869377300683234,-1.0252206224982787,2.168821353108425,-0.0328202861864426,-3.800825741966179,1.651878639067755,3.547927324671955,6.862558130189982,3.95269175602928,0.2602557584544185,3.706030358362088,2.857054322824963
-1.2208735062410825,-0.8517235990084997,-0.6574139479939789,1.521140493966213,-0.4282704960496181,-0.300435095358317,-2.430886451869433,0.488364402492394,0.0831124585905331,0.277841982893483,0.7611269715188758,-0.8516992276101792,1.4537062487879655,0.8030488891055682
-8.576656015966092,-1.7335862916854274,-6.275571289422955,4.318160153685396,-3.1863708722327675,-1.1550729035024148,-5.301976713403626,-0.9708187636978616,-3.5890846757156702,-5.855069798542701,-2.764425057071506,-1.701538389878082,-2.3343596912129527,-2.76415041660604
-11.315704648323438,-1.6942285317326051,-8.834774495783854,2.622875750373405,-4.485684419438298,-2.66528696635978,-10.520918045258624,-2.8589695316958794,-6.526957668555654,-9.9099392470528,-5.30656692125233,-2.0759807709401983,-6.242976625194938,-6.050283856219506
-7.2771205755803585,-0.7891002091529717,-5.734503737236325,-1.4000518515114873,-2.381640696763363,-4.251047088585679,-13.394698201106197,-0.6821519045983349,-3.512818280679809,-5.939853432240102,-2.9809220155467644,-2.232892794953147,-5.062570506870309,-3.991309503764086
-3.30745352524234,-1.39254005900045,-2.3443536961623423,-6.242501613027002,-0.6437326272166031,-4.92110381379139,-9.757938968532944,1.2196558044886665,-1.1406436367218546,-1.459963297420258,0.0926350430470105,-2.775660240569594,-1.4110007599556629,-3.6722077592304094
-0.2540359578140595,-2.3180991718067694,1.8694887682914128,-8.881451740587261,2.1434841941029568,-4.064030275204306,0.4003336025054445,4.108082480008633,3.122881298639557,4.580964032219491,3.594427461997633,-2.69222089673588,4.767537368383267,-1.326374206579885
1.4720692592741005,-1.0554599196936962,4.601810483719349,-4.924690007364776,4.731230603940703,-2.191533531959678,12.184949023733957,6.529393730164656,7.764193155329914,10.428857327602056,6.0630975295784175,-1.3342283542547269,9.941955779023893,2.824955523973113
0.3362041907651709,1.3320956739890724,2.586861572526588,2.0594162569590555,3.8396342024186896,-0.8540016150537362,18.96343204819517,3.7413702046828297,5.8985229805755655,8.482738530109922,3.917445675463017,0.1707336411966431,7.8690784399636735,2.67027716169481
0.0084394458554382,1.959607404020847,0.5919162115502863,3.452929905698402,1.646209367238501,-1.5495654873541511,17.149095259674063,-0.2496092263082598,1.6147312808178718,1.645930529457292,-0.1089742150533482,0.9293290427661768,0.647129247697457,2.6589009407594437
0.9691069784812054,0.3329297975113792,-1.5827758489183914,1.1622568280414791,-2.603807371753213,-4.4170735196550055,8.754555971444875,-6.246523308823676,-5.633634657810278,-8.724123845499054,-4.768470190260455,0.7925365779052211,-9.401684000886853,1.287604584113312
1.6708553144170044,-2.36007031616622,-2.8107420049215794,-2.1062547263136686,-6.072068783876999,-7.895655383901552,-0.3298657813725612,-9.601039292258095,-10.810562061882012,-15.448466455387532,-7.10476451664317,0.076865220181968,-14.389999170987728,-1.540787289376556
3.112513495958265,-3.2352730414269826,-0.0435929744752552,-2.8399719241182093,-4.572977910462731,-9.799970426025348,-4.805505555288274,-4.960977875213688,-6.538171297961218,-10.026285980561038,-4.220586611088852,0.7671091896721836,-7.837555767845071,-0.7758805373355346
6.208627323085637,1.473028106415751,3.667975121707861,6.488629781016614,-0.5767478880426923,-8.983796901629754,-3.508818988414662,0.8141658088233592,1.673701795295249,2.6445024857760293,0.4091964400983653,4.54401393171066,4.242212150457062,1.4987236351289557
10.196462170051708,9.384784845352192,7.778679918252224,18.68103007684094,4.660981451144247,-6.172663001889275,0.5515426389387628,8.447173804940016,12.157210960493998,17.788209700588382,5.363258204562608,9.760168390591826,17.89689097257543,3.978592799100828
11.103216461653108,13.307257060153178,8.965578020505367,21.361732718941536,7.328616456291728,-3.284238126243899,3.11931093786659,12.287712743823608,17.05744694613306,23.57840151072588,7.324847828569504,11.192436128331046,22.227809705219027,5.088749558153277
6.488177004049283,9.184146924509678,4.492989659412877,12.004197122094872,4.150678592719684,-1.917629940867405,1.7884239414724077,7.1585260363432885,10.013594545768605,13.127976872604382,4.024988252537471,6.587529677096315,11.71538414357935,2.621767774489888
-1.514485347701138,-0.2411423635950318,-0.9133900155319225,-4.293202643305594,-0.1852216703389263,-2.3526841975707287,-3.0718797327765515,1.3370193013319591,0.4169546351010784,-1.740645583329012,-0.2421473148902881,-1.3289348924054327,-1.149148524986384,-0.6965224238333716
-12.262762426502889,-10.888789427449051,-7.106417223586025,-20.67738920405971,-3.5721676408696545,-3.769005628930741,-9.58903847044852,-5.840494562755099,-9.66590091389294,-15.978827621679937,-4.324322570459022,-10.7492015895204,-13.522148842409296,-2.786274172800932
-16.716819798252708,-15.303621352203873,-9.71144708168533,-24.306352942688125,-4.630835336789322,-5.207166672523488,-16.069551308943208,-9.819407674429996,-14.42646142500533,-19.977851556373665,-5.598163855693256,-14.02091202286974,-17.826388103798227,-2.780003154468572
-10.652729047139232,-10.165921449115118,-6.100970432382479,-13.40004983846642,-2.2752709029748948,-6.2506360213678445,-21.52081068769168,-6.615134087049156,-9.608166965807058,-9.842583795944153,-2.4631958908184366,-8.913553739191888,-10.376483656527933,-1.7341741162946755
-4.556781490802136,-3.4448701186136548,-4.088916448719536,-3.733030144494437,-0.8486034629835955,-6.914293597636089,-25.08357232196113,-4.966840900802604,-6.025345201142036,-1.5687597182856354,0.4341451139356213,-4.5955931142356246,-6.311391700549375,-3.3791854235185013
1.8114209052291623,1.111408521073892,-2.51497012709462,2.852325686335837,-1.6985847295849368,-7.106896836701338,-25.627367117871227,-3.901408964619836,-4.690741387507655,3.152257486792837,2.534195624498767,-0.9373372387730002,-5.524630055004771,-8.018015912257457
4.681312936746811,2.518279239283125,-0.9978658631128948,4.46886071128279,-2.463476976064556,-6.37846951401562,-22.33182881814997,-2.1180254926226523,-2.997164507806453,4.131170560031936,3.0684397679821385,0.8738062926148353,-4.319602869450511,-10.378796137319297
0.8386790667076366,0.5842924919225814,-1.3180392341973477,0.295328972528918,-2.080194814550309,-4.248846873391472,-15.692419217963376,-1.794474551686107,-1.8808438983490476,0.2493605488596234,1.3018799498822209,-0.7034143540264693,-3.65861929124723,-6.872129995348535
1.361190215183936,-0.277868481587838,1.501362196998696,1.3212789433053522,-0.274514715265777,-0.7752521263787173,-7.67524343193913,1.3572221497725103,1.457467847574064,1.0761761118464404,0.3880175220812372,1.5156447191680362,2.2827170624994424,0.4813124871901362
5.015317031021186,3.0323468006656453,6.071044529592632,6.39435878237173,3.5482802517270557,3.2083564038351966,-0.5485149926311657,6.867263677935836,8.336308501376193,5.702036482542233,0.206004718999601,6.333909296125599,12.630213260142176,10.645182247482804
6.5581314286334935,6.239673804708501,7.334748967705402,8.585888217794999,5.769172117530009,6.439791947891592,4.614317192597131,8.508359046292655,11.264106511857966,6.977540087918887,-0.2762321441615847,7.845626038483635,15.91912980854414,15.184355802211895
6.367744825122146,5.998054070848879,5.419455982439155,7.151203354725839,4.134539526092586,7.921908622794479,8.266905604819222,6.120453827977179,7.677781516020533,3.927786682082043,-0.9453256656118968,6.123960008776474,9.987665991399734,9.726684284857482
2.04903952264498,4.823931521582595,2.191815338934312,2.9805568572790246,2.131018367931847,7.453469877962739,11.19223171159826,3.2443483825695845,4.9086906295583645,-1.9526153796104528,-2.4028424503494668,2.668156412070947,3.1691310616476587,3.863268571767144
-4.838056139015951,0.2593882578927022,-2.011489576077265,-3.353602576921036,-0.6557254546633817,5.642281653654315,13.053798962646866,-1.0570453616626492,0.1793993305725868,-10.20414714297529,-4.431428909970677,-2.3938551660054586,-5.9602531344269885,-1.9774973633805035
-7.442491401256275,-4.227890804440549,-3.8325620284353983,-6.047074647472242,-2.5367264188854803,3.456234124086724,12.362968904455183,-3.368190144936204,-3.512580503649516,-12.79050585059484,-4.527531077477996,-4.552907740963016,-10.148530455955727,-4.891478671046439
-4.609813833624658,-3.9398488546004993,-2.4621061958018697,-3.5188942324276216,-1.3949138562788694,1.6992604564031204,8.117818681925474,-2.291910040749761,-2.5605953139138964,-7.356884491365776,-2.618406617195121,-2.637283423664242,-5.285212425693388,-2.0988111195909207
-0.228006896889776,-3.303073707678947,-1.3857266569203202,-1.3098159682419994,-0.7792762091305662,0.7745700789221779,1.5314297110561768,-2.0071082196718626,-3.779131463926795,-1.4367026148179585,0.1229394756983541,-1.4644641098074245,-3.1048797433399,-1.6631757788580217
4.311500316469098,-1.5427312224958176,-0.5366035706157708,0.6118288938833647,-0.5380542921089452,0.7643330687199743,-4.06131803181264,-1.6714722745815176,-4.7744623757421705,6.27990775847251,4.342518749921921,-0.3717404310452072,-0.7552963975897056,-3.433631507588492
5.256278036866684,1.0389049480803083,0.1961715930066454,1.014486485318004,-0.1209682111339143,1.5623965563525315,-5.3786840745366895,-0.9389034001665922,-3.145181307781016,10.648577196016852,6.272680618517551,0.6108460028248819,2.1729760239097304,-4.013221565142802
1.510654904648053,1.1222185975024983,0.2588335068322224,-0.875873358947594,-0.6344375025413828,2.8551396483345712,-1.656191409944352,-0.5897383307871381,-0.9495937809240604,8.221426223536117,4.841254038818142,0.0864238687241983,1.6708734799112848,-3.5429844047148737
-2.1580593755375874,0.5643324860459553,0.4263142348652073,-1.0199221994258674,-0.8052353435998785,4.05875526719085,4.789422286402257,0.1910370161972517,2.309401795774951,7.44672333440995,3.622823344157831,0.0608914110357358,3.621908921081909,-1.090567132731029
-4.977297110069532,0.9632227420280838,1.2422923735359763,0.773482997897178,-0.4337956998027357,4.478423243419282,10.394269283465452,1.6544385398921733,6.343308454834903,6.273008271481301,0.9129616168153748,0.5550496292995057,6.543107470189485,3.554403726602844
-5.113159217354268,1.107542073107666,1.4058656921784347,2.7964397174268982,-0.2600142465735018,3.723979820263775,12.935584024412323,2.3188679302554176,6.820909698916915,2.813904882208456,-1.680217503569439,0.3225295421661447,5.796940701568381,5.751613427542193
-1.426130563018271,1.235016184452868,0.9643972547553838,4.18657491084932,-0.0272730276595635,2.05070242499566,12.682970852842384,2.239587634460235,3.6111039683770496,0.5520689339683736,-1.261806225397344,0.136415608408545,3.4070382104122827,3.871222828688359
1.078063057256683,1.308851674485339,0.6718102962440697,2.217931268603232,0.3863421672776969,0.2597751615699799,11.392501765207967,1.1856890262687114,0.4245867842855785,-3.5699224295176157,-1.884568973993708,0.3297052438485559,-0.3961398087939093,0.965734409720758
2.920298291291429,-1.0796737438976152,-0.6123538121014837,-2.42576870960868,0.8663718924674618,-0.8132745173017213,10.386652057870776,-1.2516769356197883,-4.216016476862766,-9.689590727725989,-2.4954834870750435,0.0069941072236636,-6.391974928961615,-3.3031531425124867
3.646453298331308,-3.582188543459855,-1.6028778304851796,-5.830703730209327,1.0732390565794052,-0.8050267139995171,9.562123598801929,-2.699420134976478,-6.638558501860458,-10.196262311565622,-1.2091684017966209,-0.3874800233438698,-8.836370584274476,-5.258438593969442
1.549333979554252,-3.4831991946640093,-1.7655405719503905,-5.9738761409402725,0.7223138957522784,0.0598799898196986,8.01628008625833,-2.968276842878549,-4.991356008622861,-5.884988626786624,-1.0749365228818804,-0.7296355096314852,-6.670501210959661,-2.6977932720708324
0.9513975216538652,-2.1451831375012347,-2.447917755743744,-2.261649658733515,-0.0811081036495705,1.2367008033073752,5.375334304608565,-2.8587474970604703,-4.82583623155049,-3.39679605333404,-1.6845668598811454,-1.5794011799588477,-4.765438195448339,-0.0713947426360345
0.4526890498325591,1.2767047285404305,-2.386486007550352,2.391007882585785,-1.5755059979411623,2.213752604643993,2.3897019499612657,-2.323988404354866,-4.320100094145728,1.1628133705399248,-1.8253961404014156,-2.013309567926796,-1.2846529045813009,2.495362454498242
-0.561789367593112,3.929780891764176,-1.3448996453814028,4.230301699875169,-2.5384624983242654,2.7198174604622256,0.2623456916369004,-1.8552353136962123,-2.8009475238362858,3.4129371829582613,-2.217633905479641,-1.511586091808265,1.6609435434619992,2.983246709271673
-0.134417783354456,2.4483020044148835,-0.4376562635000968,2.139544277697748,-1.8877099372311623,2.7802954658577086,-0.5216979786350269,-1.7219136244029525,-2.081922293619151,0.3284263039160517,-1.89813249281133,-0.6303576303871247,1.0689934287270682,-0.1830299498437897
-0.8641278531345415,0.187979313250425,0.8641915526890276,-1.526702292596121,-0.7018840385742191,2.680100041095134,-0.6438168555921813,-0.628881263449895,0.6940554109132658,1.7979994312210672,0.5535606914264932,0.1640118310372191,1.6405786536844111,-1.4125858448502795
-1.782705296407105,-1.9522090288942948,1.996835935538965,-2.2239967169900687,1.0485136378004023,2.797126896457629,-1.199614316675376,1.8260910778922412,4.898894509511161,2.6215820915986185,2.922924763361861,0.7202614329447794,2.645425501161694,-0.5801350690149623
-1.4588737833699403,-2.586943495880268,1.7237476754153105,0.4908142294836563,2.3510979750649645,3.2957758947950198,-2.4455761324617367,3.634665611343972,6.936615361145777,1.7545981398823427,3.535373417214545,1.0618847268320288,2.4231962249235868,1.3897636728071991
-0.8711202099542938,-0.0460099096850759,1.2187913814417928,4.2005371888759,1.9646114779675403,3.8834724093782103,-3.2848634139844446,4.579212252364981,6.885141776348975,4.023828877425047,3.2989308999375,1.6449734590845373,3.350470709966777,4.12994958093723
0.7288392973896564,2.126455750148524,1.9210752073192667,6.113880348429492,1.5672774157257423,3.9350606403044175,-2.1378269720671064,5.341021877688876,6.495207127749306,3.380373435841484,2.487235135928701,3.086062878724127,4.764129854337135,2.738111977254921
3.180476128215384,3.346549114802875,3.3687056099176043,3.14577303440912,2.109892233290829,3.013069038288811,1.4132395951839456,5.506325553660124,5.819634640420516,3.832879790755528,2.3431314069772577,5.086508980491044,5.682419765303411,-1.2610261906835678
4.196463937043426,3.375229942671872,4.408838321717592,-2.16477271713349,2.771200597989009,1.365282792746374,5.671617383855503,4.41977517338347,4.70317512224205,5.373018566755099,2.5704106924127306,5.260095739832051,5.489206417130944,-4.225578606578912
