AF3,F7,F3,FC5,T7,P7,O1,O2,P8,T8,FC6,F4,F8,AF4
-2.088491498936705,-5.442364874428064,0.3791440912474404,-0.947111015169317,-10.154583378083505,-2.100451124187813,-4.946272304209081,-1.793766842616237,7.260314558219051,4.352490145798935,2.055931937690925,0.8047814170590128,5.304045261465411,2.7780727512244736
-3.1025031437672705,-6.215897966708579,1.528719285393067,-0.9418922873857294,-9.283022962821768,-5.447847875329335,-6.814951017310597,-0.0122126745033706,7.618110357628801,7.600832852958791,4.26534681842608,2.2254517102578406,5.936351978288501,6.886356935265271
-3.2592738876463097,-8.325680893088874,5.267041645863526,-0.5469198953284615,-6.48317197121357,-5.896932485810483,-7.752660688782115,2.525373309979765,8.682171054862959,13.408875511074251,9.751299651948452,5.036081015458272,6.209770568829381,13.82975375232322
-2.209848689067619,-7.91194784302042,6.2049658685998335,-0.25060587563136,-4.931655021023176,-4.751056952645657,-7.650803740931162,4.29108194822697,8.560477849179865,14.27521996220872,10.513692025563062,6.738899549819681,5.480312408366782,14.431079793070666
-1.796599754819755,-6.543559329168258,4.937400415469389,-0.8377468323523023,-4.998137759975961,-3.9207627582080575,-6.169378055656396,3.398374524737517,6.261599601577492,9.40074064090865,6.548266626424884,5.046527585690559,3.937309000395114,8.09227638456244
0.7865629448293121,-0.3337706285188763,0.4298935060017683,-1.9174832870943468,-4.110326153785661,-3.960250447078968,-4.885370630161116,-0.820745338918443,2.775254761562966,3.6581468647432023,2.029705706762808,0.1696295553109976,2.862091662176521,2.790554613467859
3.914697069901664,10.534281288616963,-8.608022758308666,-1.8859948239383568,-3.03567074530955,-3.86513313847085,-3.718676666483108,-4.605363126781539,0.2004333786316934,-4.928859395358822,-4.811832314540224,-5.03329592198949,3.523997960598493,-3.518863132758164
4.758521586164135,16.231164285807775,-10.58062628206031,0.5272586214218684,-1.140424898822129,-2.470306477821428,-3.2100836416840144,-4.67537259112743,-0.151806404474188,-8.012783237415155,-6.191974356321031,-7.313708527420864,5.73517156191328,-4.645631987433729
4.572772920291981,13.447465022935734,-5.293389987514254,4.792773734449313,1.9080709609402555,0.1992626109396675,-3.79664521618228,-2.0721125458751626,1.1846251855250216,-4.530370198997216,-1.1470769207137488,-5.635604645776826,7.676200528599784,1.0932004588364097
3.463956090292298,7.434931332047108,1.121555420499916,8.797829099721756,2.631104304818495,2.918615326851601,-2.918228024385804,1.2907146019026814,2.529778037867045,-3.067617002509889,1.412942985942503,-1.786183278665408,7.391793360685178,2.330464286934232
2.3092336083179648,-0.796416810779144,11.339934332218164,10.575124508530289,1.0029451507525982,4.367797090300314,-0.708713232270403,2.7201336082047973,2.6668957359574508,-1.6493562045766634,3.224508556980254,1.3691640077656295,4.562819210403468,0.4997522910682195
1.6614687597663178,-5.919568825306819,14.160411843731032,9.855275402371912,0.5597122938566921,4.129118804066562,0.9430551481814984,1.076220403529112,1.7484889026634551,-2.073701760392213,3.1780174614608168,2.196685324858823,0.7674760828376943,-0.4764668644580636
0.5667756571972173,-4.330205012228934,8.243513611224756,8.03522386667055,0.6894135152315429,2.724255295358578,2.4649144111436887,-1.2643971570838124,0.7644716515870336,-5.760716852912234,-0.3074056955241032,1.1250952677049757,-2.02974090578261,-2.4905738933719253
-0.74047793130117,-2.48816164950262,3.0702987571128437,6.778362964209068,5.1845268482779625,0.9313428685805684,3.0047448535327663,-1.1558838154631463,0.3215757943656547,-6.250859399483399,-1.0490798582239325,-0.3720481648144149,-3.2021096780711886,-1.1313305849155744
-3.557749042981759,-3.2243271217450373,-4.168807717250054,6.66917473528023,15.07790863623788,-0.7920255031078987,2.182422242075829,1.21236298682306,0.0399025962574159,-4.10308441705593,0.4561330879190583,-1.2857898850431946,-3.69377211193388,4.143152618198647
-5.562535122332641,-3.575268391632753,-6.55729714123281,7.04698739613748,18.31545948866931,-2.320344830203971,1.121562110117272,2.8320465726249173,-0.9170638929255884,-3.0444532574919294,0.1823356927042045,-1.6023780360441533,-4.707106493697131,5.611217067777358
-4.892130175964344,-3.332970875115697,-2.385582906726728,6.899359274977532,15.282036368808663,-3.5674142447825803,-0.4985171547889576,2.022114688741417,-2.845252926110544,-2.0292890107208668,-0.9052630967934202,-1.7033039600238975,-6.379668304291403,3.938459657938549
-4.8892542306683815,-3.632873186375737,0.6424710280482213,5.833823613164741,8.081293212470968,-4.393252209928194,-2.065423084703537,-0.9474390765500162,-5.087390908065201,-1.3555855478080727,-2.827446794683865,-1.6486967597407434,-7.811601198368232,3.493014131330224
-3.6210957858200343,-0.507011339846785,4.521396506449734,4.324419557573483,-6.187242554333871,-4.815000072496783,-3.401063560722009,-4.469156862809999,-6.589644451058533,-1.5296619939967009,-6.188931978873886,-1.2052515996082516,-8.202085417691743,2.9612945680468887
-1.450475400745154,2.23343746460824,5.637232071890596,3.2042274058173588,-11.114051243303123,-5.149115494389494,-5.221935006346208,-4.723082699435366,-6.857791985899765,-1.250957886820774,-7.467462592571755,-0.422326393186081,-7.696271348034498,2.3113382270526284
-0.4377295447341321,1.749696966729432,2.6714280879925734,2.9492216294992164,-6.056038093049117,-5.753571996211351,-7.343046770603811,-1.4211344562204564,-6.404749168955963,-0.7099313003907726,-6.6068123556078735,0.0958099492562416,-7.04952918634686,2.0475812434269054
0.9087931568497244,2.729642351050433,0.0987149686801673,3.337149443405574,-1.429337976898841,-6.556046353173601,-10.151705517103236,1.457440031926573,-6.278335364091156,-1.8212637918507908,-6.270657431419416,-0.3510717689237075,-6.6407922854679775,-1.6861854903809614
1.6113904448826597,1.81388504134724,-3.2951473788870884,3.720268480747938,6.533990741814285,-6.925955813534733,-13.7752247123763,3.374141744031235,-7.088402137784171,-4.548838212904944,-5.7401011773764585,-1.8316171077472627,-6.032781743732988,-9.068588899431266
1.872238943398564,0.2973118653019786,-3.6978055031828414,3.693070627276202,9.870609928876648,-6.181181777679041,-14.516346290493855,2.829191560960413,-8.402008522898342,-5.965960147928543,-5.242267950873483,-3.5656190912985526,-4.5415675302119904,-11.772044621047437
3.2241958031958378,1.1085040052146948,-0.2138073597875409,3.597848817251616,7.015226929125649,-4.328754761654852,-12.16733817259824,0.2272254214351809,-9.0814081983741,-6.297061852752907,-5.135727425984302,-4.449026355360088,-2.123472469359683,-10.10062930246927
6.133298842387661,0.5829788801775397,3.832920034720636,4.331927248040332,8.037281312745169,-2.2671015946095574,-10.349516321664517,0.3585483371376877,-8.323922506011467,-4.760473741660032,-4.241088900236584,-3.831766276461954,0.3849893832787523,-7.137637932764831
10.537675466788242,1.271507458243012,9.62535332849344,6.440860858575388,11.018231875848448,-1.112896249303624,-8.285056773766582,1.5806627132837567,-6.4922919101098255,-0.5804502792982343,-2.672152586843984,-1.9109997364069724,1.873246885439599,-1.0442323727282332
10.775205516580549,2.610521281962489,11.05773459329271,9.209929745520482,11.140061718055511,-1.1930836639257263,-6.123847267010048,2.357805878969177,-4.927198117127263,0.4668115558851652,-2.62406166158898,0.4467022921253729,1.77588666499312,0.9992290416525034
3.9506217448344367,1.123084015023622,7.2843264498214015,10.708186153220808,9.567482831088308,-1.6571237488992632,-4.444773350975806,3.0287905283546186,-4.820893902003742,-1.5616890634115688,-4.0730669582678605,2.189872854332936,0.4081903492482537,-1.5771663474463726
-3.724192308374551,1.0615702204968678,2.7777837809131456,9.06146811963134,5.273964719724465,-1.139763805694782,0.4141031186954695,-0.1594630059482149,-6.140225202737083,-4.808508063178537,-5.495281755651543,2.5542075457270133,-1.3130581375026238,-3.262510375759156
-13.927499996494918,-0.1385066672129565,-4.143553921298444,4.075958397219627,-2.622722449802927,1.0732150473877289,8.493254535565212,-4.130252822465626,-7.614318392080237,-10.635846293476035,-7.341794505077589,1.3852782397582284,-2.4280445270650777,-5.745791391081692
-17.622932115083653,-3.544240395952481,-7.533249296165364,-2.216793741375028,-7.001616408187787,4.380001132798743,12.896310412030603,-4.966367983060019,-7.815668365013082,-12.039355586444367,-7.399086745836832,-0.7522408534188204,-2.4272921510694334,-6.92285538904891
-8.468029566717426,-4.703476480187755,-6.521604413367853,-6.78446037432783,-7.867517321717623,7.223097678155585,13.937906856104748,-4.108496905854296,-6.300212223435993,-8.550903693877341,-5.2676868780482025,-2.7895126135389265,-1.5289524363750973,-6.019513226104568
-0.9239066330006178,-6.081299302270933,-6.1072366690899536,-7.773261181379476,-10.291289342696414,8.11786023019581,13.677503201698,-1.3255313619750622,-3.73009964482017,-5.303623831750312,-3.8025415419423063,-3.7091598667234624,-0.6497505073712291,-5.240582471823498
9.798842358321306,-6.261348641270902,-4.716624601866437,-5.895790341159332,-12.839097920708925,6.559856013275098,10.572336129618156,0.7759942447066441,-0.9744454882336644,-0.6551783700350509,-2.4690198420451503,-3.152181836634445,-0.9538061291930022,-3.858445701991744
16.122742976778262,-2.508766321439785,-4.61374094617931,-3.839849274949075,-13.289094857139462,3.295816874350621,9.59782381838014,0.1507360926064458,1.7528293327090938,1.758958503273578,-1.7857231999812295,-1.608134039894169,-3.047688531712991,-3.290581774344409
8.687454293824619,1.920703655786481,-6.497471471493474,-4.131260692312765,-12.018610981643686,-0.0362340637498883,10.978841174488936,-1.959642668903475,4.760786353338785,1.0817430481285903,-2.2842233727041177,0.0069283469384758,-6.272640731692085,-3.851267339869251
2.917061231075925,3.046357091529581,-6.785067162015674,-7.170894862514902,-8.800595621630567,-1.6442233163434403,12.459086954696737,-2.106031539357736,7.967195391388088,1.9736168056950063,-2.160475513662532,1.0344151402911597,-8.733023349160366,-4.963633045312418
-6.712246080586425,2.9924300053413786,-6.069543183046126,-10.999433388836104,-3.1371742665390694,-0.44820894754046,15.26037924834882,0.6111633099507959,10.36918985961277,3.480426882548482,-1.6529562341178012,1.4222130125338404,-8.316977382182994,-7.112009288764874
-14.010289532838083,1.8515241140351957,-4.104189529470621,-12.896531651605429,0.8186728796012709,3.226807789715208,15.606615507440791,3.3141323319142098,10.703255569866933,4.726177529639587,-0.4042000130245413,1.4950648289898352,-4.173327999426222,-6.697970030621203
-8.456215133935315,0.168410741844778,-0.2281722661788374,-11.454775162226388,2.969811560960127,7.575380123183375,13.182879576046108,5.398788090054447,8.760383036551447,6.345443359810517,1.9685835046037092,1.5047350905000263,2.4275250080218207,-3.479862613464191
-4.261232993990423,4.189757394544776,1.9826433757953028,-7.508423380995418,8.31710786465189,10.157559652358897,8.673685052619913,5.9727455245938375,5.95332921515802,7.872066342203589,5.462806061382867,1.493290529407374,8.626090162441551,-0.812469131635708
2.4940362761150445,8.926840747544322,2.579065146862621,-3.3591361773595105,16.176923044941617,9.356782843459854,0.9660008071014046,5.181004805015978,4.337196455189501,9.33016878681959,10.385902499914502,1.555624596369004,11.65655059098111,2.0846466644108013
8.146607889240482,9.112132370786012,1.766039497626385,-1.113511093020323,17.682437396002765,5.492177572995316,-3.881701966847378,3.825112360751007,4.820089688824475,8.694801559583304,11.637805179599823,2.0313145303238587,10.497141723640883,2.0071553433516653
2.886001329993754,5.300259533857747,-1.3798344712360309,-1.4614109692760362,12.930526431822663,0.6644653198343016,-5.702933131027128,2.35088358739727,6.222123042957309,5.669614799680588,8.885778566998166,3.177077384755251,6.290813979024748,-1.860351140559642
0.3543660633039465,-2.9164330431795387,-2.2302804435652246,-3.60086687571233,3.0903384614005778,-2.678020312303771,-8.167425834082236,-0.6208743484489374,6.16717710253822,0.9068239591808944,3.908419846757368,4.5314638458008325,1.328252907128773,-3.0212292613375435
-1.9065152675302817,-11.289311366013573,-0.7756761506340575,-6.00825750170298,-14.18321103178148,-3.39547402493278,-9.908328303176589,-5.980646263271957,3.123198630233871,-6.2628209140257285,-4.7185950829657655,4.763965427475512,-2.4759195189279506,-2.135492638178921
-4.12064509053126,-13.080689352051506,0.2030264899837539,-7.29833421895092,-21.09486762097201,-2.232433846802927,-10.848095278816205,-8.231630886498076,-2.1767451141021903,-8.552282276066704,-7.808583507664906,2.5462249595128963,-4.410312637285507,-0.1357481058278837
1.3187448838318316,-7.77199052090993,1.681912524316656,-6.725301279051664,-16.817740709437803,-0.8903841453726582,-11.22174986424034,-6.68057894403889,-7.174974920013014,-5.423721971939779,-4.744276131328276,-2.0407901172516194,-4.694154315366838,4.291911433034235
4.722696067976106,-1.0627224064723035,1.6775714497303944,-4.364363869717373,-10.205558047532492,-0.4449287171460789,-8.91631107431651,-5.298475718070415,-9.3944293362984,-2.144575146674121,-1.2308815705655187,-6.8641869606233765,-3.731773445082176,5.489160629392003
8.271581505952527,5.213772768594659,-0.2377277724227062,-1.1065795824142963,3.1898404713286923,-0.4947763302046808,-3.7636830457056183,-1.965769056499817,-8.17919017189817,3.064664245170306,5.009911985774568,-8.800582994405364,-1.7735577694159304,3.33076771116312
10.456904087462952,7.417372477127827,-0.1108340140198955,1.6317462284983215,10.64949261847422,0.2472095973606016,-0.0770439983343856,0.535521351646663,-4.898628529085511,5.0783467615529005,7.53122312622354,-6.001879885631611,0.8114320154566976,2.7817415257915314
5.458484731831885,4.0903756691128255,1.709293712770588,2.6037866212208565,10.95363098795328,2.5077619165038225,2.377892402135169,0.0547987279855127,-1.659264248522664,2.9297775471574985,5.395601314130209,0.4041221745385082,3.2179002784422126,2.753661393585724
0.4811113567701554,0.994713510125626,2.93222826193011,1.5527434563725624,10.674275362704163,5.502727977900077,4.148065928198848,2.2712617034595257,0.215898238306313,1.8893242875557936,4.390794395060281,6.749801408807964,4.435073238491043,4.778617176477708
-7.551343785212911,-0.9904645375105025,4.213303688294092,-0.4890540407886039,6.426172255401538,7.385233940036732,4.2202655618444,5.2785953363288405,0.732749509056462,0.5910417999955555,2.872819368192403,9.289473560905556,3.955129309733157,9.78164022977405
-12.87992076986046,-2.009188329498525,3.36158027879167,-1.8330248527462525,3.28893590400158,6.72820745651417,3.205021483829496,5.274157409884508,0.6755148450481601,0.2260622579747193,2.0309888427242493,6.828006653375516,2.305709699747367,9.504286552418309
-9.33589295670534,-1.220097808519995,-0.1337562482468488,-1.335298922406284,1.643586306494213,3.7368150161219087,0.7516313899342661,3.956656780201696,0.781657567325726,1.5730580241193228,2.631805943490027,1.4448407344940406,0.8523578966991749,4.00412258464322
-7.024050735580534,-0.6880051466654387,-2.485210315667708,0.7714070842632337,1.223624522450224,0.123678157271629,-0.1267688397342546,1.6791892202783032,1.398366548470848,3.260002599421618,2.5294290873982006,-3.18999735806475,0.9248488530443691,-2.416163387871079
-2.2311911751561766,-1.8320757535842171,-4.179192602049424,3.098351250974644,3.489233443506745,-2.221251889333859,0.8047399134360258,-1.3252883480986108,2.598694003552418,5.861333188657783,2.198404442437666,-4.452999821358618,2.850976751649524,-11.556743614292836
2.536903241776501,-2.5076168899513784,-4.056024807870678,4.177080769557257,2.722340973127793,-2.5861253053805395,2.153219688543535,-1.849330782432965,4.258234627658665,7.318629856130243,3.107766190465593,-2.274909060571052,5.566832219632719,-13.276605500835757
0.709823526006041,-2.146114812404853,-1.2339688378866236,3.510701883113823,-0.8901208321987925,-1.6924752153442228,4.739037121771117,-0.6088636544549703,5.90662831648004,7.398279399937688,5.112218965785589,1.411174603738001,7.157644809421039,-6.348051994307237
2.4289743169598164,-1.3241857484482835,0.9892648066165008,1.828991842827849,-6.169098862944054,-0.7911349058951638,4.706672011749384,-0.594410814387313,6.73254992388974,6.315819732342934,6.349773123122868,4.448544270149887,6.134464002254867,-0.8302717916609952
5.433939017123543,1.7867518818632189,3.080310056255825,0.4803456060334374,-14.42471485160499,-0.559489676421491,1.74691133004477,-1.2117974806385927,6.081230903420973,3.408751916966722,6.980143692107538,5.835818710430185,2.662983705686133,5.70565752698019
4.965413422717881,4.295881842223607,2.610906046117457,0.5070429806309042,-15.295118377742131,-0.7898858825377653,0.0956252589165535,-2.195577327183554,4.1109201026761895,0.3177915814508151,4.4471149717336464,5.773849975063404,-1.274493947570507,6.304024223763884
4.808874020132607,4.200404446481594,-1.2879791781904026,2.0188664111955186,-8.121353520833406,-0.965743150115889,-1.0321803959107392,-2.7531025754125307,1.8379625205200432,-3.116262065945191,-1.9507474552266664,4.765175162292247,-3.237687025577655,-1.1333354847616672
2.1510141553427475,3.902191040286344,-5.39898884971437,4.13547901638399,-2.2830496624565653,-0.96967772540598,-1.9455541567105947,-1.4977291654143814,0.2946974881672721,-6.43023694504874,-6.45172453589623,2.841137238251583,-2.405216758305233,-5.426740807008214
-2.900267383865574,1.9380598404227003,-10.546826915513284,5.4192755997476825,4.47883122053947,-1.174741376627106,-1.9490798676483,0.6634021131565386,-0.4863310256953994,-9.237123516877464,-9.573078581200557,-0.3991121423015937,-0.6327557719455235,-8.463086717987057
-4.945332528124618,-0.5266788214971653,-12.282303044795396,4.572179645407851,5.659906960044187,-1.9209904221846767,-2.4355377591177825,2.1772967891830985,-1.5901460882142182,-11.93410692527898,-11.631940231152354,-5.131460215161965,-1.273628545609507,-9.580568641784089
-3.3026722649877,-0.3622560428680602,-9.75456080592465,1.1290271754190735,-0.7238066409766021,-3.0230906221570706,-3.2745406863023483,2.5979945457104465,-4.167776142139266,-14.21864015882188,-11.370711278836914,-10.726807442227386,-6.413106079757211,-6.745207596856048
-2.112611396371275,-1.0052397067842131,-7.327596684656997,-4.171425424348104,-1.641947200532416,-3.8503135260984926,-2.519815362309381,0.6356297169920476,-8.131196327184716,-18.179779443198544,-15.318238752196867,-15.748897021441376,-14.776329193327202,-7.347576170044478
-1.4040455320399352,-1.9860979298926584,-3.754222894528492,-9.613708452957749,1.393093602650133,-3.872346244199384,-0.2556784590782666,-2.063274393906916,-11.844262287802866,-23.95370337243451,-23.542120775201887,-18.50315838991157,-22.236504642007677,-10.889357045727046
0.236336623290924,-0.9867277949194924,-1.294313702883766,-13.322233688993348,2.390905034905798,-3.106139699869434,2.0847011110308293,-2.715501696221784,-13.174797805114926,-23.75037306834331,-23.591283129125813,-17.77278306413524,-24.657861090267648,-10.598964827678586
1.3720474886472418,-0.8287147299893728,-0.6551580035128789,-14.212502597578546,3.4391394359478964,-2.0642429267384377,4.858102274865481,-1.567374851462981,-11.052346130494618,-17.418170326261713,-15.997700793807724,-13.385054175288946,-20.756549573621005,-7.476415795943166
3.5638895647178077,-1.6724637457387987,1.2433394069208292,-12.41420898183758,-1.2363732269443268,-1.3289799808418263,6.776528457493528,1.6609957816311447,-6.272960767870747,-8.209341660312207,-3.822784433416386,-6.402652063695108,-12.692147226840817,-1.329333481877902
8.812376048273507,-2.5455846978326986,3.7377710846761993,-8.848444833890198,-12.790610646196672,-1.1807990867334155,7.504667163071188,5.385822433376762,-0.9800591327751516,5.80850299694043,15.807295822009712,1.1652344569721595,-4.1495816385422994,9.215688106771337
9.994481631112516,-3.905512497542533,4.7686775073343375,-4.3743717710127,-16.469252027090313,-1.5488656343714626,5.814734147065076,6.047714990854516,2.699478922635022,11.989130716814486,22.44448916076061,7.128020281799851,2.249613660350533,12.469008678222044
4.269548673305681,-4.25576240449426,4.577868832048394,0.6270008819415611,-12.937317032709558,-2.194431981232883,1.0439375580304069,3.0292694013084387,3.856822579946813,9.226905324481775,14.739169899084448,10.099671199054956,6.113410838295804,8.018700962047594
-0.2497028266005376,0.0173065169559657,4.837019719183678,5.754161007650859,-7.186307832803607,-2.8846353033047407,-3.69841942070043,-0.8736005263975628,3.102096884763764,7.832784034971706,8.297234258388086,10.155847016582776,8.48066113107405,4.037084785554941
-7.447041532755555,6.927253766261615,5.247430347778207,9.72082869863376,3.979641863547634,-3.446093988600989,-8.830410600439595,-5.052025959774159,1.918786440679474,4.776152576966131,-1.653011817944258,8.643981425793706,10.228763573778116,-2.08810604853986
-11.81925277193458,10.05803846416781,5.490884274466342,10.341229088913252,7.604465104785485,-3.765091952323467,-10.758685310386978,-6.98984702985774,1.610608158265432,3.811592399896746,-4.049320202223615,7.16447870664833,11.228510516596682,-2.8004560372757847
-6.737514608130532,7.598792446153167,5.844690263831594,6.000206416883428,2.74540006966409,-3.8147446370487,-8.509412796966597,-4.501557992565688,2.544714698953639,6.440900644224258,3.844553515764637,6.4470384219058765,10.781299722847944,3.463277456630113
-5.0903988949920125,0.2670522019250989,3.421504109662154,-2.316376128657485,-0.4666241235721969,-3.674264513552687,-7.711262048334962,-1.5138226248083946,4.1121695472562045,6.59557880343876,7.026175976045996,6.039799242154003,8.648791308287835,5.923604288480257
-2.7287518324916853,-9.913107264887294,-2.02078933864951,-10.430180343939202,-5.016721053013669,-3.456981008651112,-7.398643085444184,1.6690307340038653,5.316851237262696,5.42214727029952,8.397961556302674,5.083213120478247,5.616808531889682,6.363733486808906
0.9252896300570708,-13.982073014912052,-3.435110375631439,-13.064617775380636,-5.541643661188708,-3.1637884355959764,-6.057579171496452,3.8546992374790254,5.504530875817819,5.4784131325232766,8.925592331071474,3.4520768552960046,3.128358214585925,6.415927751014312
0.1106629139753754,-8.223438083017435,-1.0320024898484363,-7.575302221413366,-0.3911099516829515,-2.604019713355811,-4.516897186634322,2.600008853965542,4.734672683028201,6.046993871506431,6.277962783624308,2.1579096470021533,2.365889953018997,4.310945611446945
2.9745371925701125,0.0410492571236985,3.68226044965517,3.588895824401188,1.8973846900444504,-1.5135289011135638,-0.3958807491014475,0.7122830448362881,3.635356619557001,6.740539912525109,6.241983174999117,2.5600451517323584,3.538004590418364,6.058788689266596
6.496324012499739,8.968707360373905,12.399783249681484,14.050222247528197,2.7546114345285235,0.1789319541482434,6.547257674170178,-0.91409724815426,2.9540133148167014,7.880841031772708,8.488414956262917,5.064964604250863,5.855882926535562,11.809280405756938
6.044601219409211,12.748393834681965,14.517331381431775,17.812549662172945,3.261946883336273,2.160907617805437,8.59571958021688,-1.8587997688704183,3.1409085595727757,8.836034869738024,9.583030386900202,8.523489021423623,8.12138483073138,13.775936240573431
4.203576376388747,7.058464496239829,9.476011850611595,13.481321874372842,2.025850316314775,3.831877027432963,5.7233281829920895,-0.6748373871233024,4.168789930687631,9.582867796413195,10.50192342562737,10.93690214534763,9.466486524820771,12.84856618664899
0.51607451317823,0.8169979871709361,3.891135515415578,5.02655799490836,2.7280609334551715,4.664715720165165,2.4984403678236045,1.4904858676369264,5.613487354267735,9.206382606295897,11.11835853371161,10.910584691568893,9.774827468448455,10.318726763912563
-3.3903507460076616,-4.2904744097358565,-4.773995689325182,-1.49005713453451,5.322159744859255,4.557716175616501,-2.7789021686108155,3.1803829561610697,6.909710970259374,7.436555285536166,10.996734761657224,8.624018649760576,9.57697024657848,4.647797511424727
-3.829577786405523,-6.517398525526876,-7.264134363653851,-2.484165075915177,6.328302723889091,3.8710635478201567,-4.361724458706565,3.5384537230906448,7.6287160082663075,5.26622187782316,9.63208456157092,5.516830203552552,9.51967850331001,1.8001587027859929
-1.5999744856996776,-2.9998522579377243,-2.2419436184685817,0.9719596400665028,6.331321743368755,3.108019479586524,-1.3467285580067063,2.1250685379221053,7.597987455537881,2.385642289055302,6.733314547098204,3.0041845069464834,9.739969526985254,1.9157239104696744
0.111011825692832,0.2600944306855905,1.4327160051554566,4.842472310515444,7.008574964828259,2.5283963976240864,-0.0923534895012816,-0.3701293381212784,6.79692314368858,2.0758420384942387,2.445660135444739,1.354315017383123,9.5779205638436,-0.1044010658458702
0.637998284436453,1.848184359448413,6.092200828684809,5.864306896232556,7.887213433041494,2.0408469561576545,0.7972790805737902,-2.770441511910435,5.200503936567106,4.764190101952698,-3.5437495066849776,-0.3016467167708105,7.939951831924262,-3.1016194221787394
-0.2025892096997094,2.116808101570663,6.933574074656707,3.995269724411069,7.188783631867183,1.4295148802651223,-0.1470605407477331,-3.807932493593974,2.836004694777668,5.258199603077116,-7.426496707167126,-2.8596969212533145,4.20262477444555,-4.708017688693146
-1.54858168415145,0.0257554803670391,2.3669228165364915,1.7107836793613316,4.958341552744828,0.6224013271422879,-4.023974294713117,-3.2372773759215194,0.0426624533084531,4.173994844129496,-8.961633524953141,-6.070917473449513,-0.98887831309021,-5.444081324544232
-1.2860126373847605,-1.8819375141239496,-0.5574055233086965,1.2155082982293473,-0.6111866522361792,-0.3031292610425486,-6.980846840373149,-2.0613134400380497,-2.458512768572512,0.1225211456859105,-10.081368566293678,-8.47476145853098,-5.817393601439088,-3.027916250026013
0.4533770925911959,-2.5118780685294286,-3.2615539372461053,2.3366291122788265,-10.201134891621136,-1.334180807467292,-9.595945977886542,-0.9439660654756789,-4.012268972170059,-8.1258590262623,-9.792400651595218,-8.648369679323029,-8.46715479314806,3.196559059860148
1.7341111072272493,-1.9750319276236048,-4.440068966416097,2.9517363119350284,-13.72337928117343,-2.6014159040051545,-10.615002358994854,0.236260594227359,-4.6887805015718005,-9.453170242118608,-9.038796367872584,-6.694100541510695,-8.54145841014784,5.638698001642571
1.4578897887932234,-0.1383213163892241,-2.8635271478032065,1.3164463742264552,-11.033358529657924,-4.10847301503226,-9.207687500594933,1.4535520709986929,-5.347584877388499,-3.777940705998058,-7.882573280343525,-4.470385223545024,-7.443768566696093,4.508035129858648
0.0034553525085906,1.278778925671482,-1.9329115063639657,-2.0468921177649726,-7.26071113771058,-5.373502078088416,-7.928040890109416,1.2943519099383582,-6.727044011651724,3.747225465698745,-6.664918333461253,-4.108716247794218,-7.2014942927864425,1.6883257941046534
-1.7473156820699691,1.878946028467736,-0.9960411989249016,-4.6781959160736335,-0.0502378647101186,-5.5049561398554605,-6.239872408313392,1.4027955363880942,-8.322903710542725,15.703075416759908,-5.675662067840821,-6.046599663211131,-8.654340950068558,-4.607811510515109
-1.833184124747691,1.5266469835713676,-0.5058604512883849,-4.35893592224237,2.9198583650432064,-3.8827875494519777,-4.571213467173823,1.572573956247148,-8.405432551906276,18.009207750888507,-5.3228075584702434,-8.494479755422065,-10.667120506680591,-7.80109880975539
0.2247507626241923,0.2697105984583586,-1.0352541151619103,-1.1002000341941738,0.76907501474009,-0.9257728819249555,-3.3391292805343524,0.6812090022114464,-5.5987770002951525,9.245420151639092,-5.912287164200917,-9.040542028536494,-11.191010199098958,-7.695248360309531
2.3061026904825943,0.0849277665599794,-1.9967253099446516,2.8237587409123126,1.7811037368257177,1.8681914717256625,-2.518125338864704,1.5757862882890148,-0.7002817235847498,1.555420189711988,-5.739394179231248,-6.974891670160076,-9.26907719779582,-6.972896533983785
3.72014610296316,0.3881951795599467,-3.7536943460614367,4.731011111954977,4.259213298570232,2.8887643047317537,-2.4389422886841454,1.4483634487223498,3.2569134170138234,-8.454963561438449,-4.931017078327368,-4.023720330019536,-6.1182288805572025,-4.033404924738624
3.0590005998973564,0.6342254641165185,-5.0248710733913615,3.589098041762915,4.837913697866428,1.7051676421280852,-2.60077527104195,-0.0843374583608916,3.258822037045727,-10.975041047845062,-4.886045036535696,-2.635151826625834,-4.215092782762802,-2.8685039579150127
0.6195632407516399,0.8671080986760907,-5.747062543132823,0.5787045959021526,4.488110901944309,-0.4617725575338429,-3.1527358228811906,-0.9877177518512416,-0.915178840282767,-3.5869516000015773,-5.356337805935507,-3.460497540231384,-5.149592583694977,-3.720253361264189
-0.9031838984720276,-0.055786134509595,-5.251697529026491,-2.0973638767911336,1.206213400973093,-1.6493282788176753,-1.0456998406600575,-1.723137196615478,-6.059844454006839,0.9502285052419684,-3.8409580413035407,-4.65904733013021,-8.157249490848915,-4.883954967110842
-2.1478324247130627,-0.9252850750671908,-3.090931793011036,-2.9651381224052145,-5.68313388791139,-0.7931601656184561,4.074519894541671,-0.3587627982150715,-7.95876910796521,5.300250443986902,-0.3395126313245321,-3.9139044085636,-10.63838705557658,-7.369186984365888
-2.138366063403485,-0.9776741616486604,-2.8102161812844777,-2.150486183865832,-6.888910060456364,1.3098772805283403,6.085328350870861,1.1928200927670174,-4.904083775960654,4.467821130085654,1.2389152850482972,-1.205153217187279,-10.223606640183885,-9.25671123840684
-0.9865508658886892,-0.6773448221208433,-4.328470360449819,-0.8932765172494914,-2.357771181761905,2.648858683131593,5.407660429973172,0.7678561647551192,0.7927597280170318,-4.0127103203831975,1.205698400528718,0.6136535176487801,-6.644718242381817,-10.45733901574345
-1.8768914537037564,0.0787903381796129,-7.264819706218453,-0.3875294369226907,2.276957298902022,1.791332474530389,1.6315384834979356,-0.7445286195393479,4.675068035934014,-11.210893693414617,-3.3398152413734694,-1.6532311527878978,-1.9128313517184288,-11.853408094001068
-2.6851410687115167,0.2529559392448989,-12.508550268257588,-0.9886491347371412,9.043105079768615,-0.7359910908228535,-6.7477008119165545,-3.990744855963224,3.739916969437072,-18.893569480633477,-13.616008037793128,-8.167116918222241,1.2359088195066177,-12.992514067507306
-2.3373889404238053,0.0295841337867536,-13.368175031640218,-2.2704498462448743,11.02931378435999,-2.768894901957095,-8.603195352089196,-5.293383944443282,-1.3606695992006923,-21.1935353488706,-16.478513498726777,-15.187417116703648,1.302974920083484,-12.973673414484972
-1.8073473692266704,0.3413789382200725,-9.551463745917411,-3.600370479753078,7.101704894289474,-2.324822221584622,-3.743532008708632,-2.189583077817485,-7.208479390920244,-16.120885140773957,-12.069238741726732,-17.83334758775731,-1.1054163289650385,-11.68972620692753
1.1413320602613144,0.5776695949543564,-5.3492032544035,-4.573195649277414,4.820230672210639,0.6763387394149074,1.98184895550136,0.6325147226123946,-10.451513241933366,-11.57479352277658,-4.879217694880256,-14.124132269891716,-3.99217886862462,-9.516331257131167
3.923100258642105,1.286977902156622,0.8012482397770695,-4.986466849064264,2.469377048611224,4.338519177588852,11.13451506320864,3.876983849821609,-9.9253622225539,-5.667568378989591,8.182390353007694,-6.620895620803088,-5.4856850604019165,-6.157290191220028
3.2690174422107834,1.134773472438266,3.454428415098433,-4.614618197846784,1.5913950324936716,6.406940493313661,14.072992936806056,5.331684542043315,-6.516447606815401,-1.79011931921215,12.63490659585403,-0.1588480837849015,-4.913772767170174,-2.1281549094398686
1.211808650665792,-0.8545855563512873,1.7499205733420071,-3.2414141122947235,3.436804577690985,6.072592373565913,9.632477655020034,2.366602661317095,-1.5960230410246208,-1.340907052860196,7.483301497907254,2.238923072333602,-2.7904290834572967,2.586408389911312
-0.5385517735070943,-2.267003056864057,2.4624817083951243,-1.0417643201227629,4.462968036706235,4.363489211054913,6.930912552724379,1.322258444458575,3.978407062716798,1.7711274672410842,3.8925636147583047,1.5671630705778572,-0.0713729921852541,7.630777146275586
-0.7028462927441055,-3.9293923313926697,4.34187101563922,1.1314975252077517,5.372499922966209,2.9504977137850457,3.653623501845515,0.8849715566395456,9.391632999258096,6.510243256699257,-1.478637126765965,1.3289465703980214,2.4913187919216484,12.845983437733953
1.3364124726236697,-3.8811835562712136,5.830984468100422,2.0802635956554028,5.858467116167071,2.688184771465462,2.7195130932515554,0.3280096386398955,12.995526600170283,7.260719951003444,-2.781612887432552,3.957504234500748,4.446087714381564,14.477362905328985
2.9443538045127657,-1.0995354588585555,7.918828616691822,1.1695391325988855,5.352980857579645,3.2717127648480355,5.615042027490226,1.3152652553006523,12.673673477276584,4.499452690489953,1.7686162686194042,8.583177167619588,5.439533399038762,11.94864721978789
0.6390750907823781,0.1527064738680521,7.5102079769374415,-0.931259895428008,3.4195124327739137,4.056490848123982,5.628979690849883,-0.4488195254059217,7.607312929410479,-0.072773114911059,2.638948917243348,12.067973068570268,5.2079248548438,9.99873965566587
-4.497612936561636,2.108590891739928,4.355947044013889,-2.477352446464068,-0.3646030622965011,4.863936026530718,3.631270871088573,-3.358749989067926,-0.286051262386044,-7.633079990316814,1.3543941353729558,12.076681035809806,3.861037971054458,7.725377842427444
-7.348028034046012,3.4625416844704318,3.492152707640449,-1.8666985317096767,-2.886583710268684,5.802321186682487,3.021817717476881,-4.60111215146487,-7.069485467312916,-10.461572159574288,0.6626546611640315,9.190538219522038,2.0720691872221835,7.056898182633635
-5.1210845172875725,2.330447531528045,4.471649253546072,1.076723559710092,-4.2157579951282615,6.454636467086891,2.8310324601071355,-4.321813944615432,-9.491783023143324,-7.935573107972166,-0.87785159687269,6.210189991584031,0.8087763732206881,8.981066926090353
1.2930100296410387,3.461762525189111,5.785376405264131,4.843193876878178,-4.592569273086871,5.659665214776162,3.86785409087925,-1.4470757854978935,-7.4236226549845155,-6.309910628454072,-0.4382841960276363,5.512090451639587,0.7307747274679786,9.383458866293736
9.437737210938309,3.4540626729704216,8.425316881726147,7.251802708756005,-3.226881478893699,2.4877238761165303,6.657050597887206,2.243200121315853,-3.8033590963346624,-3.760169894691837,2.291879914860476,6.970971245317006,1.7533582433835009,8.903773982027886
11.67384839815356,1.1016295470833777,8.17695562791434,6.923383250614592,-3.229307943595698,-2.4567604105813654,7.612544816026441,3.9494250412102376,-2.105513749255773,-3.2893190397221894,2.8150218746901454,8.19586183120414,3.1243138227211062,7.97714209206477
5.31263228953612,-0.6083923801206411,4.728029974885507,4.079148740481716,-4.540078154282995,-6.9135340125944005,6.847005695843732,3.1659885875807747,-3.595333075551207,-5.893242756820927,1.5731394803570014,6.659445892093634,3.899940922024677,5.903566116341888
-2.0672814857790525,-3.4286147181166973,1.1303167765109978,0.1856994166645091,-5.579308308617519,-8.51166679009718,7.131662256871426,-0.1232545583120189,-6.701912013337805,-8.403512630949471,-0.4515292149604473,1.8209706860168169,3.453130430074585,2.0064590108957234
-9.161748402464962,-5.228991457766478,-3.6176861797777415,-3.1006660676409794,-6.98720259449976,-6.744820795807987,7.833420461449812,-3.557086043187838,-8.768519175368837,-11.821099822529526,-4.154151994140591,-4.366258798819364,1.772588000580494,-4.0314701291614
-10.81770877604338,-3.3257037748884324,-5.337548733917751,-4.845294366851494,-7.5069784418837635,-3.5116999380910343,8.881800089805184,-4.162160308466866,-8.327289450066125,-11.08850101690035,-4.410215091987158,-8.73296276888705,-0.4765205730663223,-7.10955474915367
-4.258585138935791,-0.3084889247462921,-3.327990790598372,-5.0755554931858775,-6.92812408780147,-1.572134382301975,10.691637085241812,-1.6654955181517606,-5.875487999520871,-5.412347388281303,-0.906707423511046,-8.903309587141987,-2.139597851431632,-7.105879023777212
0.4487569828106161,1.505064900602593,-1.5191400299031237,-4.404676290025758,-6.0683336475618415,-2.2154214172249365,11.089145778071572,2.9298001424165734,-2.824247642850259,1.8279569085472915,4.272529191293293,-4.722308420832847,-2.0718403911397574,-4.822604628902029
4.41094250878957,3.2895268133258764,1.211397065090186,-3.452890085306053,-4.568337836884925,-4.228888838966772,10.038261114748964,6.967827184382778,-0.0180026205199723,12.110824839157742,12.488977188265755,1.6797954892248868,0.1474882243145812,1.1445758200890837
5.939358144664777,3.135772650542449,2.238591677841098,-2.494627665737557,-3.183484058099132,-5.089297442655727,8.153414309894256,6.575540961536169,2.653697113164924,16.021797158074605,15.079660910870652,7.157036720297599,3.715855730033878,3.622433023905769
2.0662151816763044,1.0843337359133436,0.8613165516254014,-1.5431138829413449,-2.006490378091278,-3.273156655384195,4.886104407049963,1.7457144637655966,5.398383070343645,12.522793780559176,11.358776020453242,9.392809171015948,6.835073973998599,2.4539515704520496
0.1085873362730916,0.4326484429195194,-0.0435013597646053,-0.7412760722765839,-1.6512497531030017,0.3982161903077248,2.012901618686444,-3.038029626467851,7.60101991490035,10.00733429748648,6.083105655911291,8.188291802808484,7.729478257268754,1.2714315560288303
-2.161165329230339,-2.1166129021105973,-1.2649200969938983,-0.6160469372637927,-2.42935763243457,3.515738201925336,-0.4253236043443338,-6.504821849011629,8.022019956133134,6.172359619287803,-3.01824022321009,5.339489589711864,5.839549410536113,-1.5899814555866834
-3.339455406686645,-4.345229361789479,-1.5715139326378813,-1.7603799578568982,-2.6276226756970886,4.144071221114441,-2.840685618887345,-5.696872345916718,6.054433104022857,4.991822334118956,-5.642981193167695,3.196529321354601,2.30829482088987,-2.660271241467064
-0.3068062426135995,-2.86435202070291,-0.5111527721983868,-4.018741424106064,-2.424023262524002,2.3016235010316777,-4.778779077309482,-0.5096280695915563,2.7969560732664327,7.869863381376392,-0.7220011513233849,3.0058669067474977,-0.6689287114897944,-1.5192926159246225
1.1742803273427154,-1.219189228577987,0.8079568088366711,-5.944208525674929,-1.3864108331619216,-0.3362995218507052,-7.655830577839758,2.0171613653196654,0.7249988215582377,7.821260816950468,3.7086638258746,4.315943391350174,-1.2351316160057877,-0.3301998597495644
3.413119288669627,3.3086452700033457,2.839018261574236,-5.387410768798549,0.8948094723984122,-2.014757315250172,-11.472267135281376,3.501869572809777,1.9720418765923924,5.937531638686564,10.21935884937644,5.800133514108138,0.9304121755312736,1.82154606594122
4.423351128124526,7.044014031070327,3.3118552178203284,-1.1793747541884445,0.8517578029971683,-2.219173510612393,-12.910619097469716,3.15744459138102,6.544794942137202,4.292859807360224,11.073464246845226,6.609895792911072,4.411367313224275,2.715704287379456
0.6248972565860237,4.345937013654752,1.960957090452709,5.371999696640636,-1.5360751664701406,-1.6869169773702417,-12.006340233061724,-0.1972472002640762,11.991277320073966,1.8268635541299425,4.733770149170176,6.97589091723744,6.983648372782298,2.0573865325844265
-0.2647057277972477,1.1249037082153874,0.7906232496242085,10.73317718979454,-2.26165588036805,-1.4111461076319038,-11.206980621624494,0.3192634448974267,14.912452866449604,0.1661600306927101,0.5657464649604763,7.591113121022666,7.055808915068109,1.2853230548489134
-1.2682967660998257,-3.598795272139567,-0.7607417969378089,11.429167795337891,-1.907020485674932,-1.7588122655272755,-9.853379019710092,0.6827837789241233,13.213954611296993,-0.4940844956989178,-3.397033763074047,8.51254288017325,4.644041748661085,-0.2018114251818024
-2.776246973208379,-6.86914469057852,-1.105871620596047,6.759888089993524,0.8013660507770867,-2.436147217855897,-9.518834835563029,-0.2946155518980657,7.418080304115698,-0.874935702073707,-5.213238159691432,8.741472234420232,1.20024596040723,-2.052620590495435
-0.9451277006421236,-3.5396541731092874,0.1487813969629084,-0.342909323071904,6.786609075850816,-3.0409178312180565,-10.678093649095286,0.1794503126400954,0.1581656996161626,-0.5314327728076311,-3.246053115757934,6.946533671242154,-1.559294024738275,-4.183552649174327
-2.5485791202565755,-0.645136296831886,0.2330593967310762,-5.248777496793032,7.335083575338152,-3.44673785360461,-9.929505831877853,-2.539009492599989,-5.581401398688129,-0.7144388130583657,-4.761953190143306,2.7057021672120243,-2.8845230861806286,-8.294289321093654
-3.908183077667229,1.673482220572359,-0.4939524076544599,-4.945358216428065,2.407113299137776,-3.668849739772124,-7.6050570148588355,-4.418013379698165,-8.086483242653344,-1.4923822182220978,-9.120813659497395,-2.8238812143453416,-3.269705527820108,-14.441140650197465
-2.053280728615245,2.903825304330345,-1.1031392634666783,-0.1248343325226279,-0.4358459210028002,-3.555002744782307,-6.804170298910597,-3.0179965726727245,-7.391112706860788,-1.5641381069329816,-9.668983547977067,-7.414162498893354,-3.5993578094086125,-16.55767402275929
-0.1953680880312336,0.6847775210204294,-2.0536461297603767,5.527036824598348,-2.8418713007844185,-2.818383449995292,-7.102090996044434,-1.0971862779593842,-4.680781123802998,-1.1655000970526417,-7.321171790962322,-9.121749107419593,-4.042186313261105,-14.524895497793976
2.955585367012341,-0.0132084140724159,-2.357188985819958,8.077715827458078,0.7754515076580942,-1.449237715144687,-7.274779497605763,2.1251720553892355,-1.4100870190995138,0.3912500930829168,-2.110651855129975,-7.536092689977437,-3.832397739859804,-9.131129177690957
4.68709727472619,0.5282660138699453,-1.896554405326346,5.867583763527552,12.17213117683166,-0.0197406030001268,-7.83938126509419,4.599705326763375,1.2391417031335443,3.404543606802174,7.334824143422242,-4.055258415688719,-2.1970077671253634,1.3108201026511852
2.934942957787804,0.7239280752806794,-2.519564687213232,0.0822084236379474,14.258124536666724,0.5698609361989284,-6.599137506131144,4.128237862033514,2.546648054104132,3.7856337821053496,10.076391064298242,-0.996999176579731,0.5134128079634515,6.5082908975605385
0.1066988967428912,0.7836854349771039,-4.09324260628752,-6.515334704786735,7.768330486621005,-0.1980290484836686,-3.259707628036128,1.587609737635691,2.3754058180727924,1.4660853377880574,5.719315743574604,-0.1392082340052027,2.7130471398534795,6.148270529224375
-1.469755765587203,-0.8303553617199841,-5.1745323877430085,-11.285860186816254,-0.2642902784273132,-1.8908031498286773,-1.4230731318852343,-1.5319178717046114,1.2587359838841028,-0.3310238463539233,1.7519551055334348,-1.667646080366083,2.7320502868803658,3.668117871280299
-1.303292939825846,-2.4660758206139275,-6.052414238991235,-12.68716721253709,-13.41369182501076,-3.2516708137215997,-0.6991998723707287,-4.737935746930634,0.1786762600997118,-2.4470967086300344,-4.287836078898376,-4.231085644692818,0.2058923750720573,-3.5687797809948467
0.3467801773882453,-1.7616925135863686,-5.652894232729807,-10.47216903679108,-15.330873079989592,-3.017589033720684,-0.4570298888728322,-5.785754254502304,-0.0579456110017044,-1.2484768306325713,-5.98534152852065,-6.024436495314784,-3.5813453656825693,-6.80594542927115
1.6648985066367583,0.5671198935644712,-3.619005655315757,-5.65672732149031,-4.363144186874745,-0.8457892541364576,-1.406822282441219,-4.013966084033988,0.5910830163460261,4.06065776040372,-2.000438161411384,-6.08153076610682,-6.679590534371476,-5.695219210210743
0.6710369437489039,2.041481510965524,-2.8997957474198564,-0.3775081036933336,0.9351658356124256,2.356181952540851,-1.2992515727818603,-1.0597232602795243,1.4691527526590529,7.886923641198505,-0.061392697723512,-4.828132892407789,-7.833155962897779,-3.911426619224805
-1.1281664196393688,1.3741928181759135,-3.3070093939363066,2.8196723295212447,4.022157649771426,4.978977142975365,-0.1127735894954083,2.631793311932521,2.000232985820615,11.089860579579234,1.4882085563220142,-3.5360755053090145,-7.03650636031935,0.7027131377677631
-2.4980316363755186,-1.1675029164435244,-3.230406160781964,2.408148999251413,3.7922510696887977,5.761725568302084,-0.3529465053958281,4.659590981458435,2.422136349174492,11.11424084271621,2.0057686793647527,-3.1752256060478867,-5.012775368747473,2.111157246851657
-2.6494286914966527,-3.122939390256138,-3.208355081706605,-0.8532168499789732,-3.028917919871088,4.590474525722206,-1.6665904021260238,4.316225991395824,3.58281474820542,6.653621843099861,0.261898992864188,-3.611017072834208,-2.3953626981806204,-0.0926631405530735
-0.8223914017574665,-1.1360039857024795,-1.433305013233531,-4.129467111285184,-1.6728568119176517,2.4876625772246843,-2.7166230185346265,3.939570241566991,5.800546862721773,3.657202640850392,-0.082992686022524,-3.795702483697103,0.4743485080459528,-0.8423500590638722
0.6797528843472125,3.305255726374073,2.4344596683280244,-4.472184608936182,7.361796922568136,0.8517178081743264,-3.866394281626628,4.594836208081161,7.898801122595655,1.3144317740740752,0.5424994149949672,-2.789589784383601,3.062049306213602,-1.443587275059958
1.085302577040714,6.215742096347842,4.384825548658875,-1.1065396670570884,11.096721842169137,0.5432529520237366,-3.0099498251568884,4.7879946182735456,7.637776375240246,-0.5032640665162067,0.6910786618937406,-0.7458611550013572,4.273541851140062,-0.7316235831619178
0.7916257211253273,4.747632007803484,4.681455357945235,3.958146912070778,11.907068839118743,1.4479926087465278,0.2538616064910786,3.5566214260979407,3.544990848393485,-0.6613488141691646,0.9403854445826908,1.0336586950127296,2.9638193044339034,2.072371341302329
-0.6714080808798181,-0.2081723376447005,4.780703555027949,7.609062034623768,10.090956144252573,2.7090904801140248,0.9388511357471228,0.2557074172208124,-3.3464565929276384,-2.855043937829234,0.3317851423170807,1.1294250659378413,-0.8925597843587703,0.5195770128213417
-1.0888976265195096,-4.834032816173023,3.8726964115700975,8.10799922447978,3.3672842211737906,3.3382040390397094,-0.6649253818722898,-6.806158387040608,-9.593664158250146,-6.891021273054358,-1.329971403079724,-0.6897495658769586,-5.507650890497764,-5.342675262864272
-0.1126870118902018,-5.889639116533015,3.5826582125936404,6.163876537316892,0.457309936769002,2.77083357570889,-1.1893726857731344,-11.084209445296796,-11.577248362059525,-8.069513485714348,-1.8123819476656504,-3.0650343927771004,-8.04300872167712,-6.970621902875025
1.145412755019288,-2.739534721195477,4.036956837361411,3.831260083893429,1.1506884561576898,1.1239571956974554,-1.5037262439455996,-8.677615728752876,-8.233976832668388,-6.781695973200543,-1.2395599508080406,-4.044676858599445,-6.548223270953752,-5.232432215113198
3.2374893508068707,0.8645383642551965,3.038559610027095,2.556877599643986,-1.9352905429567655,-0.8525294458163977,1.4205124878677722,-4.5986168951718165,-2.0053416086122877,-4.542824552672122,-0.1858792797544523,-2.7097543835585114,-1.555154985694763,1.1699184919453032
4.380194137651454,1.245828570084929,0.8523982477724084,2.304405976848414,-7.337071906538883,-2.074440460587333,8.358204019259349,2.669764738412602,2.9192493819567247,-0.4036826157356919,1.8365139330801612,0.0295256417088438,4.127439175617088,14.275606725500651
3.257931002588427,-0.7751479112969685,-0.4401254022963246,2.3144319159109337,-9.5672032602675,-1.6296480350740126,11.154402186347784,7.560866478318675,3.714898695683935,1.0120976244816962,2.21705676323457,2.251124087288307,7.390406783216463,18.731621820635432
1.1007859509644802,-2.377717744601347,-1.0846422632278834,2.3082280796708403,-9.308403532382886,0.6467261961510928,10.221856722590836,4.597475983677866,0.8555372772954826,-0.6734117488562823,0.7983229060873326,2.717344302085266,6.962680133996656,14.445130845404824
-1.1536346969373132,-1.84181902313778,-0.3073154865607335,2.6977750920665144,-5.752354538017715,3.8542470565577176,8.754330295986525,1.7290539384214294,-2.672929480390554,-1.520104110739063,-0.517253190010286,1.8352466209395928,3.956936154665975,9.101899389597552
-3.0663799661510804,2.135009036872966,2.4279258391809084,3.714293670650093,2.402614038121808,6.3149630134607335,5.0622276780022375,-1.0879184377515985,-4.092947527713939,-2.592316557788515,-2.3340727420556093,0.9907414069258637,0.551279915022242,-0.7762428599787965
-3.346687377619183,5.652145544331719,3.07019932447877,4.668228095458765,4.717900122016935,6.485915586062646,3.783162880747412,-3.135097176915252,-3.0830360552636904,-2.988441841682318,-3.275687107515849,1.0115906986132757,-1.810190989341024,-5.503119711179696
-2.5477645645935305,4.496952099689359,1.7142249269817285,4.351138413353048,1.0569468220458154,3.998254205677611,5.346449429181166,-0.6792531086370351,-1.6673560313395583,-2.133959882340664,-3.018287178669722,1.3667506336500352,-3.0902409797135704,-3.9120374137979166
-2.868920344974376,1.114406803343073,-1.4738027218729952,2.2253115841730704,-1.6818677123221877,0.0646581726545321,4.78504782068832,1.185401711089757,-2.03600299691216,-2.0653297920669864,-2.909891333344764,0.8590579681141008,-3.91368765762347,-4.379115205504976
-3.284340956024267,-3.283219278415161,-7.535321986581194,-0.8833330280241043,-5.736974662779315,-3.1792104569075903,3.056766029832919,1.375364669564072,-4.4140913583886245,-2.460346087378629,-2.545958691990589,-1.0460943717097564,-4.507193467486765,-4.541858793275187
-2.538036551763774,-5.143239124172578,-9.85051855980644,-3.360958860545672,-6.57348924885397,-4.061821189866485,1.8007753650016365,1.2052039686630691,-6.9228290501451255,-2.4345194123305185,-1.6750493931255888,-3.7163846783276,-4.492878885379206,-3.3861583343249384
-0.9034234115374254,-2.094367821186136,-8.280957910344082,-4.1048833840953165,-3.070942557627817,-2.5234788170058025,0.3573920755700768,-0.3087283781628501,-7.421229568180017,-2.2583218185749283,-0.4041006378614567,-6.103611590374733,-3.559413337516709,-1.7580270972188412
1.504469794624328,0.588245599989635,-5.25329099509968,-3.3254660230618214,-2.459302387346422,-0.1295869132145952,0.0594178813933399,-1.5529499120034862,-5.470545637333181,-1.8803915405600788,-0.2254971277367588,-7.743757979454564,-2.054265040139988,-0.2294623416675052
4.28349522353527,1.7003930059153274,0.8721673986896579,-2.2022201336399405,-3.673584869224311,1.1215924573169789,1.1720333871066777,-2.09799372114644,-2.5764831364324863,-1.1865719726387007,-1.2646450495189494,-8.818948745987328,-0.7510026809214807,1.0515216801492655
4.743009845900902,1.4469063381934872,3.2456641719949424,-1.8465322488728333,-4.276608749045725,0.3048547565177841,1.4702388549363272,-1.6943953633426865,-0.6335948653356667,-0.7765516279686249,-2.854456975586852,-9.336022054708335,-0.0729504314795406,0.3468640613412024
2.6902239685837634,-0.1793933938995852,1.422431683182009,-2.5274138418150613,-5.388282439412902,-1.7944235578179644,1.2200721613598,0.1639093403579136,-0.2253466727379987,-0.6449727323508594,-5.421676288552698,-8.631552631227578,0.3010162375423135,-2.806250394126487
1.3665482758821414,0.3429479495431038,-0.1096069211757524,-3.694382192638571,-4.398658023081208,-3.404451939695221,1.1441780147392338,2.314332186260735,-0.4310030627534615,0.3757267439054702,-5.726771685594839,-6.064271878579859,0.9411532129574168,-3.089176811562912
-0.8160841551507518,2.324090562813558,-2.98971147416218,-4.5759944643481845,-0.94461786517464,-3.232522810566508,0.8562315333588075,5.545919966395662,-0.1549992131299689,2.2456788063451225,-3.498172833299114,-2.245482895490383,1.7614229111024713,-0.7131619047202351
-2.560711740598716,2.8035880837565545,-4.127951137316066,-4.771481331753861,-0.4101053643713109,-1.462465542013831,0.1648364682694003,6.742736046120322,0.5421921449026001,2.4008875980027526,-2.812024743949264,0.7465160516474043,1.7081586884753506,-0.0040134659736974
-1.7955974960675227,1.5998288300538102,-2.9017389482691063,-4.442241926880158,-2.461010869109358,0.479391779838906,-0.9549319512569664,3.8451676976966778,0.5291219393923399,0.882721683197184,-3.0431845516869016,0.8441276160127416,-0.4342598165282822,-0.05563171514087
-1.9893086849997808,-0.5206390614125449,-2.661883880214884,-4.094741898307433,-4.6057460604322,1.0983464293258862,-2.272442074343895,0.1344136475773232,-1.0304593109869558,-3.3347725383065145,-5.317778679242579,-2.0193456568181034,-4.6753602431383,-1.272010076514458
-1.1011925061481378,-2.144600889086316,-2.606160819251911,-4.188101395102066,-7.892054576720763,-0.0717401578355065,-3.849672753589334,-5.732524493316774,-3.5176702770760784,-11.05524257788455,-10.527007507415368,-5.419966258796023,-9.155698617592662,-4.4020785370497055
1.5717504906427435,-1.616421557738263,-1.930769907359224,-4.822989058117258,-7.442567553270384,-2.2731852217790163,-4.279649201245293,-9.173600475032256,-5.169927234219188,-13.651404356191472,-10.79222011815786,-6.226520350723746,-11.077387346618451,-2.67718884266956
2.700957108339425,-0.12556106849541,-1.0074911683396817,-5.665660509381922,-2.637966691289336,-4.223464398363333,-3.389298058986584,-6.612977797207918,-4.618292352453821,-10.979703959560393,-6.098123196954127,-3.228907205165058,-8.784807703352357,4.100491965925815
3.0130563381443007,-0.6203046402880629,0.6266170896876215,-6.12221186514148,0.6014263939862171,-5.0215333306556005,-2.6900668437194764,-4.178935076265291,-2.165347519894425,-5.382292871378325,-0.7005241497285178,1.7784725723156498,-3.340928844493277,9.238171795961469
2.606008207712768,-3.129039043649131,3.0697252763026643,-5.646484336407838,3.340495840733707,-4.5761481961583,-1.8466849962750629,-0.4664322347325026,0.4233754327581494,5.366637844243336,7.142063961511338,5.512530277088956,1.9345494067087827,14.025530874041822
0.5782733396915404,-5.148922177914631,4.36704706315563,-4.015356899632479,2.7475725627243444,-3.4022639522788864,-1.2346592664483196,2.61320444728453,1.4034028892745385,9.210163556208226,9.227960640429885,5.966163980707904,3.8665089272456328,14.85027553247312
-1.1401290291271609,-4.570839619662553,4.486225433682444,-1.4586198737077467,-2.4950282046002457,-2.13129817114293,-1.117780760106231,1.2121865997742247,0.4271965523246308,5.525777896499774,4.512129680219544,3.922540296699623,1.8513028281291355,10.206330574022576
-0.0204790867409799,-0.3131494405649629,4.660154932319958,1.3736632832939577,-5.231119391730858,-1.1584388206206455,-0.5751407806096751,0.8292761321373026,-1.3730798683778431,1.1570568804868928,1.2623355566493413,1.947337003555333,-1.805436646357478,8.754834693075699
1.0693555451644388,5.940463461958146,4.453022999218429,3.5887495377962537,-6.221588199955426,-0.5813635347742547,0.2476068313102711,0.8136395230396408,-2.5033069646287416,-6.829034580175263,-2.488820881211913,1.967363613695916,-3.936830538406866,9.573553974817669
0.5172032197372574,8.456067837450345,3.859274817191911,4.36617807681602,-5.2042746184981485,-0.3091654223532885,0.614338798534781,0.5429772028137658,-2.278916450407756,-8.659051073036824,-2.8962589047588643,3.756690578383221,-3.0594286179321277,10.063175404174254
-0.9894009562769688,5.289994717945105,2.9744091141719453,3.35408325343586,-0.6377714839626373,-0.1734041040217562,0.6126109625504058,2.919927766507676,-1.0451718857849812,-3.1072049933526604,1.5867114851651585,5.584153767425462,-0.1486279278018187,11.792376402964928
-5.170880313197649,0.2426081927255181,2.4070978340074416,0.9600138455620096,1.761489058301038,0.0015176753425407,1.5270333243523009,5.56116064951183,0.497548229391711,0.9869114307717958,4.5942575208074645,6.115956763043073,2.79220716788398,12.082216151169318
-8.999973994982245,-4.666710764705058,2.2528517038411686,-1.72175995660346,2.322818209788885,0.3182451580090699,3.326412700028374,8.1368345949787,1.9782096991960247,6.021365539071898,7.34221276917393,5.586578435643911,4.667281734255113,10.779473616849971
-7.997847149881183,-5.570618356298336,2.276014321723171,-3.43924413669329,3.4768969421259337,0.7194147956970873,4.094122321087934,8.083098422559942,3.36135857826417,7.325418725465638,8.320741671150998,5.212182254041036,5.781770799937306,9.61544537218036
-3.088802868845515,-1.7152052677910614,2.6820708786655736,-3.50256514198132,4.1278356766726905,0.9947084403459812,3.979753577443892,3.113074712660439,4.476455022929711,3.360801334096822,6.351897606513417,5.677254595329348,6.726436190273383,8.00103501976256
2.325964887242688,0.4227338515564312,0.7459857134298999,-2.1781637624711543,5.752638409673027,0.9640271480343828,2.0363008764368447,-2.017610334490328,4.816269840961907,1.6570170287959411,4.13665504353705,6.353266348978641,7.249368474456761,3.5303390198268207
8.006894951397749,-0.1506043205311991,-3.75730176422419,-0.3892512590477393,8.575840034067445,0.7321445941624063,-2.2878955227034203,-7.982667637262863,3.9643075486218815,0.9108323664997088,0.9132716065055472,6.001156763814597,6.550573532887385,-3.901278830847168
9.4835264623257,-1.5965988667946855,-5.051501854402523,1.1208220622051996,9.471935959018806,0.7557717652427676,-4.42922954555709,-10.284340404056312,2.186145696296319,1.2465921700788425,0.1197825658637704,4.157795883561628,4.642167244972698,-7.845194194567335
5.232383053817506,-2.621656513635665,-3.4259737013570803,2.493261962543281,8.611509347976508,1.55472828765922,-4.491568994095498,-6.290234947866141,0.4337315135560491,3.976856407086728,2.379696803854686,1.7908130072485426,3.0683167114977508,-8.399838946671641
2.421958338873272,0.3616515894154534,0.7311810003507053,4.6405913917437545,9.389364394860417,3.226417163911165,-3.984173134931965,-5.2939829516818095,-0.3815407872395013,4.783788525312546,5.2526477761413055,0.5929796047800462,3.8814262484522217,-6.378654512671517
-1.1081815887487974,6.951160235761764,8.826239732155482,8.248709272111888,11.385111259864592,5.186870265543686,-1.8658419371678687,-4.358734447099783,-0.1529207475875296,3.946502559121145,9.77319072939036,1.5562631004121386,7.661506679817855,-0.115964449579196
-3.9696408602925057,10.29892640460258,11.148966959701236,12.665369186838888,13.8690723591097,6.445375496414883,-0.655427023939001,-2.414954808391905,0.4239777113733112,3.732324166472482,11.085571025235618,4.035592898462948,12.523319825019357,0.0681914901637235
-2.70340193974683,6.909218203320031,7.3796556836610625,15.762191322595273,17.487267400945903,6.268141121460957,-0.4468473179513333,-1.639686319976687,0.6556621896699113,3.3820286212803734,8.623603687663032,6.0481879866008015,15.261176378730092,-6.1713432293242105
-3.070809568940961,-0.4252993466997362,3.3980218261661896,15.209028717829868,17.406585065343606,4.706590808655498,0.0425127393847793,2.7737886134827763,0.6513716751579679,4.488877173150056,5.455571606001492,5.6148940204017,13.81099214826655,-13.526778946167356
-3.239644954131132,-10.621529132809597,-3.0343845155394638,10.377651500478647,13.273808034010957,2.5487604257747023,0.2318739958055169,7.626184019347773,1.3056557025397169,7.433213613541429,0.2587909565403489,2.2519726238950923,8.959688513445052,-24.469210771478668
-0.8229484434174443,-14.993940580515323,-4.114871814663602,3.32800592567574,9.573157080132066,0.7468187778441404,1.190457456545898,8.190910268794148,3.48016051787144,9.886580511190711,-0.5274211583190985,-2.3831554127364427,3.8471407817361154,-26.363504895511824
1.3910095637342823,-8.453599888490501,1.3189788558871345,-2.1610985601387256,5.237639557716397,-0.186709076854953,3.0528374909729177,5.710639475142813,7.190345936650786,12.238589377950628,3.840704723233785,-5.228646086915049,1.6741341758564658,-17.844247812901518
3.887706303812252,0.3758083172756405,5.331300395238533,-3.031938387574769,4.294101640931106,-0.3473043605019938,5.843303275838536,3.073629270075464,11.541008987598644,13.454184304483178,10.074431107447916,-3.654776607142537,3.472066637348576,-8.713485140952775
7.158477579954795,10.610358500951788,9.855731191487171,0.90764492464848,7.791123163982836,-0.1442400950137567,9.914559465827846,1.8429235385121532,15.360795853019212,13.012849068638364,20.006340550532872,2.670493104533349,7.615484022129294,4.232043596218505
6.652273819781136,14.637039860422044,10.330880882834656,6.785603734643686,7.631178975428836,0.0857696018852038,11.162318988943944,2.223264407111839,17.838576972288962,12.005721618729474,22.574939657593884,11.175792300574017,11.244130629268495,8.426546249357743
2.2891688756613737,6.951151732459982,5.215648751374102,10.587357248543327,4.66021510864686,0.2078306594415977,9.378289840765358,1.7564966349953908,18.626086813886587,9.975592129158423,16.79778303783742,17.644828529774458,12.284525898855064,1.7145597966211517
-0.3032022147435749,-0.7465550068800587,1.2520740017022791,9.769497476881384,-2.372343674605901,0.1676860817118353,6.354998313404296,-0.4672859983088136,17.57437480860206,8.977155010431538,9.025245493660258,18.673079030287,10.512513138174684,-2.0705893810030727
-4.329672433468412,-8.323698036180925,-2.936412193409649,4.70840875795156,-15.337777543380026,-0.101614259999792,1.0221616098428798,-5.080505780950646,14.666308256906676,9.243518467019218,-3.6703947155422303,13.70453970370869,7.096957486924595,-6.114660993014827
-6.850495059475176,-10.950486974090053,-6.523580952042655,-1.8875556381620129,-19.64572316920724,-0.5721284462974836,-2.4083638763613755,-8.93715958638964,10.323384250077396,5.41830974997527,-11.97460701358766,5.21490403239838,3.3087142712223567,-9.457937162587164
-4.634921951250733,-3.863272793762726,-8.387651336849528,-6.975676262629236,-15.173792755039672,-0.9768140361337032,-3.619818874594376,-7.704660612496799,5.583740121185457,-2.361067405287855,-14.860826494309666,-3.0963421393053068,-0.4620378646185656,-10.03422304460643
-5.352653742323851,1.0404421866131792,-11.364542494698052,-9.094659996360775,-9.2845885810391,-0.9354068955008756,-5.163682423070206,-4.927526143479687,1.565878834069906,-11.854022858648356,-19.43741083226526,-8.773743374471621,-4.728322501779445,-15.512790350975411
-4.763712518347827,5.011007868837487,-14.9377417068018,-8.956038306107388,1.3438005712968644,-0.3775641586705376,-5.988739543177645,-0.653243703938754,-1.5713558257922386,-24.244564122447805,-23.3703066618158,-11.8998999416346,-10.146766780151552,-25.38174799377309
-1.4072388817968535,6.627395482607352,-14.723337798817344,-8.479657251163985,4.160189244870966,0.1436708997059952,-5.952139131782821,3.563048797888671,-5.098201357376979,-28.46854978013341,-24.38114031006581,-14.290428262513558,-16.647306132622816,-26.27609693822796
0.5908615703736902,2.2575090555680988,-10.720045024113354,-9.089782553444934,-2.2940527646726543,-0.2786349448998635,-5.141354381244154,4.649846920259714,-10.722957586970496,-23.427076198096493,-22.852553628719008,-17.33395965886666,-23.08215705108424,-18.586200820858597
3.677973900869133,0.6843949443146672,-6.842472162477083,-10.549248914738826,-4.77237604064178,-2.081485527602183,-4.542365833100981,2.603311659117993,-18.61051045748277,-21.269337047134435,-19.733626475854045,-20.34627878200609,-27.648734738264157,-8.991823060828809
5.916833491206491,-0.6448079300519475,-2.2383435361769566,-11.211047111234308,-6.113952820881963,-4.531645062721879,-4.218091417071217,-0.4883588609638956,-26.181598645562985,-19.567493744088644,-14.59329539809743,-20.926298440556906,-28.86608821939089,5.372417051689778
4.590066357207655,-2.342104354252893,-0.1511312768244151,-9.514969277671211,-5.529758427445971,-5.926566857466014,-3.404882563189075,-1.9913442674121624,-29.215005387817683,-17.54441035240273,-10.45340965681491,-17.113753836299225,-26.49302372637689,11.516915499274342
1.9783772957972925,-1.34854760881558,-1.5275201442692814,-5.538706705375091,-0.9061721682185564,-4.778895102737067,-2.340843417113735,-1.4464640628819732,-24.8467922762523,-17.09557828041219,-7.663204899079966,-9.503475081490537,-21.712612544158105,7.845651053132357
0.6423369475919367,-2.780503895701905,-0.7247619059794075,-1.25146720316215,-1.1225922956222316,-1.1298484808710043,0.4960723928224739,2.936971611633174,-14.126999804205155,-9.402733504957297,-2.553620241632585,-1.3473228481088595,-16.361633245147175,7.665063337328782
-0.9068056030455124,-3.799449840063792,1.4266815459566409,0.8985461809479034,-5.796615893246536,3.15180941412396,5.338221702361033,7.761118785325224,-1.81471040315202,5.690590146845476,4.2253143735232666,3.667458503598823,-11.752410514169298,7.919705994581193
-1.9175673009512657,-2.1596466287905622,1.8574807711299943,-0.0122674526743935,-9.031408535529032,5.495274579288662,5.9863841157024185,7.99126689528782,6.677574146438076,10.943684124383696,6.216468968836599,4.185067804979326,-8.05555970837301,8.325327909074266
-1.9492136110762903,-0.9525694725708548,1.3186371501176897,-2.5058648372605887,-12.397438327341195,4.408752773374431,2.3513249777364766,3.098683501530356,8.7812607629659,7.05958094857562,3.3984386017231656,2.096742185871165,-4.7598137261215925,10.772220941902406
-2.514151710522317,2.2033029584785595,0.4454806413844169,-3.818046922564292,-12.854380849799972,0.5479092779000894,-2.163782181335831,-3.039497505748871,5.903122652874544,1.589214221215263,0.8821964490227795,0.7519767942503961,-1.6964772504087762,9.510966621843496
-1.3603366885864112,5.544825391102204,-1.1681433278616506,-2.156961998183732,-9.311939756658909,-3.7655022033951298,-8.98918955475512,-8.20987800036352,1.5151045028517558,-9.122105072183372,-2.661032043214321,2.0171321726414817,0.4876475042116794,4.807514354173896
1.274805451326979,4.588956801593565,-0.7593050308939149,1.796795742716455,-6.2158631024571696,-6.190898885235242,-10.630627812041984,-9.084630481609604,-1.8145197462473843,-11.945400422372549,-2.670971047215821,4.795470391197341,0.9903065186698824,2.850424929946022
3.0766701448651093,1.5187003619005577,1.9376504206025615,5.4406858835852745,-2.620641248905615,-5.904143876136516,-6.181134046549262,-3.768171587353848,-3.7837065306297006,-5.461522192815055,1.997778137380608,6.296431089015698,0.0006697033803106,2.9012639013354105
3.3840505039931466,-1.389490213940085,3.0212898106034296,6.370653990026909,-0.8857601307477115,-3.89661922325908,-2.398232599693617,0.786087520437615,-5.285682276379632,-2.286379146082814,3.82338809301304,4.816026774644797,-0.9645089593559532,2.443492447546396
2.274812643120101,-4.7165975411242815,2.998513709932189,4.261538321027771,-1.9127551181483655,-1.939462380004727,2.5779006271047504,4.054789893728877,-6.496125787344212,0.608495280398343,3.9039918841399976,1.4206959713214502,-0.121785133948947,2.5465080138428675
0.0873496592705267,-4.7078574969480265,3.300741519196602,0.9899213609009364,-2.0791594014362933,-1.147599138731934,3.917138895349386,4.99850160993787,-6.322840611268802,2.1205690239333044,4.2652153019704135,-0.9934727354730342,2.979281474441919,2.8520812933295376
-1.3917088958396864,-1.0399529973833876,3.2813630513796657,-0.936543459909302,-2.145180229486241,-1.2986870298029345,0.3276729016780323,2.075819793397108,-3.7551497782973513,0.3871394792540174,3.682905431711072,-0.3109588682886937,6.873017231709568,3.1928021466652927
-0.3375130542685903,0.3056690823680908,3.540177378063642,-0.2079309432257119,0.3350982724152592,-1.3431635285706136,-1.9516206455333065,0.2761593007135433,0.4604076781254349,1.2239233702618069,3.9491787968716334,2.9835844008838706,9.300519074354796,5.70553492919867
0.2422791709225116,1.995458895959965,4.19530722880312,2.6117570360382807,6.155350699658304,-0.5314966792415845,-4.285762012226323,-0.7612871422206209,3.780537892679728,3.996970271313869,5.169505016448978,6.371309083389114,9.07760420698327,10.463375464931056
-0.2553804452631139,3.251655249170342,3.3275011571692628,5.773181423658352,7.387633749412966,0.8687425711594532,-4.832189198320673,-0.9153996441458871,3.761975676624637,5.766677216545935,5.233192124204011,7.541865752086256,6.974000686812889,12.495730280639425
-1.0734502108938535,1.2958710329691514,0.9452177734733264,7.513501578482355,4.320256896455419,1.84431107783574,-2.487710179196548,0.0435311412254725,0.225013422714696,7.415896970654368,4.429935731241274,6.15281339260379,4.807326042049804,11.924850438050372
-3.954416707316687,1.4880982889142946,-0.6708773944959918,6.8102918656671925,-1.1138578809281836,1.574728726503185,-1.765477474914266,-1.0099956908043413,-4.314187015910363,6.953752196729768,3.882214645629823,3.661715894434185,3.703716085266127,9.151651218176704
-5.3770619043424,0.8758161931855474,-1.8145760751134232,3.5900371108126308,-10.740465201844064,0.1789700316472604,-2.046368398693255,-3.1061960190184874,-6.380666919621234,3.824426460851946,3.28309581162332,1.7581971531056908,3.266658162586751,2.8950639025742158
-3.639224089937746,-1.1585126222490634,-1.9803412951487145,-1.217568454083306,-13.016174827455966,-1.3301260642629984,-2.1448454822553047,-4.19260502031425,-4.003944932616392,2.8685016250998188,2.8876351337447463,1.078515421483374,2.4043957416690773,-0.405644239894257
-0.7520151670232791,-0.9260369040722992,-0.6430437539073293,-5.6862574439723375,-7.238194546491347,-1.7598928524741524,-2.802028430877668,-3.751323840654776,2.0247721369616443,3.748927017642411,2.875477461561869,1.2125149101021575,0.8301182582466282,-0.7001309073327255
2.0810258175483773,-1.73517650216739,0.2808065416816582,-7.4123151320596605,-0.9141007804707196,-0.5067665609359437,-1.9391808128727075,-0.3044251191429966,8.86636023559663,8.067066157856132,2.4248887690584344,1.512967238323938,-0.4224460398055214,0.5816933254971608
3.4556077150079862,-1.8770277081466893,1.0218466229602263,-4.83636269429212,8.740819907799956,2.120563095373313,0.5962818819466065,4.80085930834756,13.495939309168191,17.12887393334686,1.611228415132539,1.611167462647387,-0.0382129382909113,5.070158764547791
2.469006829447104,-0.382249507752139,2.0310651281894607,1.303765478703042,11.552236432991297,5.080299844217905,0.9031161917962232,7.160208776710459,14.26735223083989,19.77569310317772,0.9685645368337076,1.3002558587223234,2.095103029011966,6.655177258920343
0.4912417951077106,-0.0057266408179027,2.97254660926741,7.766125577085631,5.985789413413831,7.051394999353022,-0.7837312811273602,5.695105531401086,11.34061266861704,16.03783076549566,0.3724233048006691,0.3893232010076417,4.550650802931102,5.238548666933945
0.7171035284604014,0.7434267065131422,3.8178243109518593,10.583256088214457,1.4567084205387295,6.968545042001722,-2.960047269757241,2.04911668858292,6.144090107498641,8.851059498342588,-0.2102457187192409,-0.9893447242445744,5.555072580480271,3.921928973112749
2.721180559845777,1.610332789291022,4.509602270718992,7.840997872962419,-4.669176964714736,4.538335011161394,-6.425201474180614,-2.3482053106065672,0.5276453128200274,-4.5377086374294215,-0.7004376021078104,-2.0707474638732606,4.503949216144576,1.3282465180723872
4.08817500306075,1.2093954538339529,3.7800208140194607,1.2523309050589546,-5.575909896413875,0.5545980484371853,-6.848080098956474,-4.128482489260054,-3.931889398174121,-9.352813434350916,-1.1427843701583946,-1.9340822834991516,2.3128766918081283,0.653331937337577
2.9078805026743577,0.2641220503369186,1.4424557135846576,-4.986991964338756,0.5083398820183421,-3.281487230566313,-3.8056885243717926,-1.767129338659962,-6.381976092770174,-4.817981531837386,-1.5118251831851794,-0.6273935621844657,0.385876987197264,2.306974993658404
-1.4673710815008705,-0.9023357401769724,-1.2529993203899084,-7.328463951975209,4.107603505160742,-5.1519293936081,-1.738834315299791,0.7506146641499063,-6.906005754986552,-0.7226924861239027,-1.8778633119789503,0.3309797046549647,-0.6054908323235395,1.309594748360302
-8.386325880168148,-2.65544672780406,-4.642677000559071,-5.441024693911572,7.04934719733683,-4.16613079904505,0.315757445292872,1.98570335964815,-6.389453181568172,6.389551494759221,-2.24250957682811,-0.9263255042375248,-0.890048493288873,-1.7838103556043232
-11.478167173421353,-2.973136428699824,-6.3485816773926445,-2.0794310362200576,6.447954933358358,-0.9583395900299364,1.7400984250850424,1.722867606193525,-5.98066917407823,7.751895259433727,-2.502997060895998,-4.613782365761153,-0.7595905523982083,-5.162489879553464
-6.29054213838194,-0.8564234928536739,-5.975403485852175,-0.4741064621421174,0.4699342838079748,2.6536513038699923,1.7927313403157863,-1.0390429915647723,-6.379896936579257,1.720762842770618,-2.668231935300289,-8.496842115715594,0.074818027279548,-9.70262115877053
2.8040179419208817,1.6014231300705244,-4.38849565116672,-1.6343859776043246,-1.256918801931242,4.773220533977565,3.5668264434734964,-3.742207960130065,-7.4149630986891,-2.1366825527629776,-2.3581651665023218,-9.5466695079665,2.022061360925477,-10.620181187056492
15.293499438550466,4.991460469521408,-0.7993556948098675,-3.906340193904384,0.4866667610111567,4.538557735940458,6.828710318034366,-5.28287608636792,-8.201278370485511,-6.075231888314808,-1.509981008038731,-6.791110392900691,4.542075571530404,-7.388584390031236
20.71581769628702,6.150073272860155,0.0365959844959502,-4.944498034654544,1.947944495340794,2.502391057497221,8.050650332988127,-4.897041696907169,-7.735247247145253,-6.13135758567501,-1.2471226693794313,-2.541375765969633,5.894754783737426,-5.934049495160074
12.280850690576358,2.9288487987731777,-2.1451651626003776,-4.05733631560372,4.913885896724287,0.1019807670772934,7.570515479892873,-2.1732743730870268,-5.471719922582565,-0.5728323742721821,-1.5431183893932114,-0.474768836348403,4.42980707795391,-5.263501317630063
0.0020441606489786,-0.6006642385638693,-6.095251843735382,-2.723097374951635,2.731451696696824,-1.3164256137856682,7.1549601251279,1.41987524199518,-1.5600030035238888,5.553457829415981,-2.143012363868987,-2.183594516128096,0.4096110405803301,-7.568721068862365
-15.648156966841876,-5.636122499724295,-13.134673694309829,-2.958778525890807,-5.354439094010687,-1.2311461226165648,6.177417879191744,5.904301549072918,3.2402963089115246,13.72495795308088,-3.317964689193209,-5.569655411393455,-3.558414053434035,-14.148405160505474
-22.324728698851864,-7.943774986183222,-14.22068398735238,-5.244381887467057,-7.600791369755298,-0.0407338352360966,6.138597103780686,7.275456009333656,7.785248556595775,16.77671900859635,-2.616102441772288,-6.830035368043127,-4.333671076853307,-14.793745109732212
-12.38858853562384,-4.089578386695582,-8.837335585413651,-7.965108247434045,-5.015071834829391,1.374794369753772,7.347120965869064,4.166449810477991,10.8718160312269,13.47672059233968,0.1330905904544047,-4.191742002263709,-0.9480684665538774,-9.764251590341743
-2.2683092383580026,-0.5116099706237357,-2.751786482079054,-8.789365066090909,0.6768366413676102,2.219897210437693,6.950484841100367,1.0865456056697602,11.72665378569434,7.912644890173394,3.2582369051348588,0.3377127892958924,4.301597303544895,-3.385043468341052
8.553439099308129,4.735628002886955,6.214455766702993,-6.650354071885886,11.984635998134728,2.12881792000087,5.223574068451969,-3.1676777780398377,10.519159956431167,-2.1409112641990444,7.3604043870342,3.0436897775913394,7.633942883296299,6.5569150408286205
13.216998342392106,7.909658571983452,9.385188945995724,-2.619480889745546,15.029564902084488,1.223252501782042,4.420383868270638,-5.017629208668302,8.453555244982908,-6.402022003106008,10.279465532978486,2.3606417351477944,7.041624492122139,9.989329107073852
4.481586940336221,4.240436580812906,5.514512724950966,0.9382594046871872,9.283567548934911,0.0094579316505587,4.143095042989128,-1.983968301918944,7.105398368798205,-3.9906900274757615,11.674512907065589,0.565390280792144,4.103768515288493,5.911458074338831
0.5079932667188607,1.440609978346205,4.001536882563968,2.120712360871039,4.161195646139404,-0.7958683506851685,3.5787900572645808,-0.4715952617080552,7.313750786120636,0.3260408310840905,13.365104868636376,1.4868898073175387,2.6184218092787432,5.083545015657297
-0.9101269477610584,-2.736269725777092,2.7676411190798644,0.7768405018712201,-3.450478299894559,-0.5536619646361487,3.062325789001398,0.9147197408819094,8.528540796996253,9.343515377744946,14.765325344497562,6.465433606560168,5.208841459820178,5.316552071557041
-2.9009108195128444,-6.387074255275364,2.015548022696568,-1.5397455159725268,-6.021828617619284,0.8789131944403152,1.4309931782489056,1.5020568418840667,9.283206204966175,10.8786589801905,13.130711209926767,12.63280508973662,10.920118797126406,5.293513242118323
0.0180487902528522,-4.021570831906601,3.161970121888876,-2.8037502914444303,-1.934517243114936,2.806706465095658,-1.490421710927833,-0.7005612342479073,8.451156896845646,3.973928795051308,8.339736283287737,15.296275226103376,15.89444555577927,6.605138200449313
-1.819880169152193,-1.8701745154065403,2.1956821135381346,-2.00311782367794,-0.0113093853049921,3.802591723948353,-2.5019098592576348,-0.4037079766391101,6.122760120508474,-4.168409324675077,3.9770971214233386,12.121778215333848,16.42290994681059,3.4421491307279832
-5.860329622141758,1.525745116108674,-0.526904830710835,0.1780708890861433,1.7332840045965154,2.4308507495272806,-1.685030061068432,0.970748806408658,3.254747793170054,-16.64476841039165,-0.4549587836262703,5.083335626411099,11.675800789105097,-4.356592367293926
-5.061696140135064,5.235880353337282,-0.5417036972320222,1.956170260055728,2.7389525338160903,-1.7467274849844898,-1.3964549646868163,1.8774200713602616,0.5026665279652889,-20.565318143004838,-2.222762502897858,-1.5417104655481353,3.963839953622028,-6.6824296641867225
-2.2871161058638627,4.188496288937379,1.753129476739882,1.8724134746738628,1.6779933252654788,-7.589094221374466,-1.0349799720645705,3.255481197913615,-2.4417474805387656,-14.391391378035635,-0.3280569482798075,-4.95267246648541,-3.272715243153812,-4.144463626930713
1.2239318195742226,2.301891855479413,2.393665267581277,-0.0504278953208086,1.0686610768310862,-12.756663625010331,-2.994455803652676,0.8726706881028403,-6.181472560586258,-10.661770731157011,-2.377249365708276,-5.674723838382079,-7.737669146999565,-2.3117086523499
4.278552815013357,-0.0369822978270408,2.014431397413053,-2.332044111763821,0.3469644569288498,-14.937813410507031,-7.843751511099638,-3.115629937625859,-10.278804296703813,-6.313342216630842,-7.839398530243995,-5.9905361334643885,-9.059047152215156,0.7256638179059858
3.97905234212425,-2.834625785414692,1.1724823032730405,-3.2126105465413275,-0.8138465467514105,-13.171982971895543,-9.363658814717928,-5.074221173711689,-12.840417247602034,-5.670922233346288,-10.652946692647818,-6.979880546342429,-8.036476156256413,0.976901230433202
1.7349966509752028,-3.2100702057702195,-0.8440821811358155,-2.02473028839961,-2.123178771123768,-8.414322497190938,-7.882853412651484,-5.069372895226604,-11.846164665296556,-10.881977473262303,-11.980623588248813,-7.391262463224507,-5.64104465268764,-2.470970711093115
2.433149435031122,-2.8024945176201195,0.2814260048668382,0.3172564458837428,-2.212413810287543,-2.9802375485239736,-5.10029770848938,-1.0191158367944395,-7.226779620089985,-10.344696722077286,-10.592052154224104,-5.418333167247795,-2.8130258487398123,-1.9336350195957717
5.601032296821604,-3.744563744595979,4.772883096649907,2.016012050214784,-0.8926168395078301,0.7709160234589945,0.3414611317418132,4.179651114749144,-1.6568133839668917,-5.162885080816373,-5.297613525681622,-1.3365605071008986,-0.8353294867411023,1.826673743581032
7.471160304718261,-3.461968197263893,5.752271751822101,1.6597835211832717,-1.4518274080727758,1.6974822190246073,1.6338290843837835,6.36872991726632,1.038944670732178,-2.846126677895009,-3.725524337398383,1.9352715311974864,-1.2562000936590607,2.4327982264821912
6.167461515065388,-1.1797305974879009,3.8184112750502366,-0.858453301070881,-3.723145545892256,0.3405855371895541,-1.6418905089083835,4.683918445972125,-1.193624126338534,-1.638674702263047,-5.690564627654719,1.1561515846613588,-4.854712719474321,0.9088638537581132
0.4356984510261893,0.2968646894680134,0.0976954463971868,-4.275519163446006,-7.018919801070054,-1.6190152937231232,-3.559868921086919,-0.4316518093194761,-6.815220377491443,-3.538795160230052,-5.994973557915362,-4.147630721080702,-10.419809910053289,-2.4631980814424965
-8.098869568000197,3.990554993727549,-6.873012856029555,-6.655684474976511,-12.087558843985873,-2.484887201770164,-5.597918991522874,-5.529603832354506,-11.620941207412386,-9.909793791071465,-6.084889007991304,-10.785286336189984,-14.758299981647298,-8.89563241649052
-11.755346955002436,6.2093896210949575,-8.934083729114452,-6.436875089962683,-12.251991737429725,-1.4846316567270037,-4.133672643300521,-7.156952207901621,-11.791378916120038,-10.528565379703103,-4.12943566034467,-14.175207469151417,-14.535133521569293,-9.637277336344791
-8.061667934670266,3.327805346011275,-5.736345291387459,-3.349261265489446,-7.051054244650313,1.038528536349702,2.0072105114618206,-4.105079829999333,-6.661648878343215,-5.600588300809854,0.7027768986731703,-11.892466221657571,-8.854578904448772,-4.352487983503004
-2.767582134076354,2.16241939105554,-3.472375474440426,1.270016082330656,-3.404910245335369,4.150871465507578,6.046581581681747,2.1304095228449595,0.9339595878035284,-1.7708914629193206,3.5735812991091684,-5.467443510285648,-0.4611118155466016,-1.8938802815888511
2.236808848389567,-0.445008453397763,-0.3570484378179288,5.109768095759065,0.0772182645814641,7.012598955343407,8.905468244620288,7.715873460321974,6.883102408333784,2.966627096903561,4.906616260559535,1.020921164770698,5.787488341927983,-0.5802399192391579
3.458437547088533,-3.0460308045284896,0.2098783591452955,6.313613051195965,1.7273188910069757,9.15233877913296,9.203774664183422,8.743303657074323,8.72741149097358,4.632813483796279,4.643257757939924,4.245135047760954,6.349301311852429,-0.7696808789109437
-0.1489618865103505,-1.808615031291543,-2.825835193391688,4.843886883442742,0.2453855388217524,10.25682014930511,5.475891135154066,4.466649791678739,7.065712557658021,2.0872864312889505,1.6990856543528967,3.9872328925387848,1.71015667993872,-4.010015742892527
0.0169801892651899,-2.448356030102671,-2.6858628951779777,2.6546094994308125,4.80431493550045,9.916534966177922,4.329801338044151,-1.8988444318634028,4.570893357146447,3.8321811595736,0.7998037456463479,2.682547309746032,-3.9405034649229536,-1.180813141939291
5.096730970426821,-2.4622218865244494,-0.1460859059834715,2.2658890311819158,15.202556353641524,7.792952585919771,5.264714855951114,-7.029543142752521,3.659971974601742,9.067429399608391,1.816384761884213,2.7839553134800283,-5.998726872532185,7.750738654595846
8.418258843607727,-1.0683909417891648,1.350782057422334,4.677833864556838,19.19677396722361,4.16186032724648,5.85180683056511,-7.140679260030433,4.752820246304985,12.016756213712368,2.4261245158739206,4.418262253788207,-3.074064715062775,11.910665552007115
7.134833520539632,-0.6621800625132889,2.8622879938054298,8.351473896619126,17.927148803632992,0.2577995337651941,7.3431344456362275,-2.323837165248585,6.370683466789316,13.96368875478341,3.5931442153124578,5.430557826412212,2.0865701503367617,12.687635645536115
-0.111750194700516,1.536219658627274,1.1614280680435405,10.301274362904463,10.162025212959382,-2.135560698507589,5.322208370472398,1.9924963308713384,6.755499808871562,12.47416676379946,1.9130896688394363,3.71324216077366,5.157410046009545,9.788328288619535
-13.264433248927212,4.057535340114149,-4.482986454600824,8.568095620816237,-7.0214997481055255,-1.7702037637704675,-0.6563713297076008,4.178735474341633,5.518478117605724,6.371278352428839,-3.072584892430083,-0.3615489266016425,4.001342358274897,0.9233541883611452
-19.54910150942576,4.392860778799774,-6.09416155995559,4.014790824570255,-13.27577870354389,1.0818108554887118,-3.079685933836903,3.0196827569722138,3.92695193386362,2.694972110546622,-5.27248011955813,-3.733083237239029,0.2986754586808331,-2.4415379010785125
-11.9844028788125,3.4616799170172325,-4.125342115304287,-0.1772787116582037,-8.46674696417534,4.604896705583272,-2.61071615335856,-0.5685362601600985,3.651034129333908,0.8743641402604772,-5.23249620592619,-3.054345789089979,-2.349315244133265,-0.4503422668181875
-0.947785103022612,-0.2187153797492995,0.1252782128502629,-0.981289193925818,-1.4581428935411078,6.550708806010277,-0.1147579892882389,-1.037110875353546,5.099370258879446,-2.5318306128815027,-4.108934333561417,2.2640972769115137,-1.970125546289552,0.5852291562859149
12.737926002020108,-5.823253051027458,8.471307960234864,2.1179102409558936,12.491989202469329,5.728815540852679,6.029656703403122,0.7842191829049845,6.821948686012831,-6.281197634123837,-0.6431806503078562,9.05473858055825,-0.0345822267491939,3.0469076937411765
19.312053623984777,-7.67721911589834,11.58415357323638,6.8823402119761,17.22122630570693,2.7586623186954853,7.059695257271904,2.100877468127375,6.56375256011205,-8.901612343123688,-0.3803609427060682,12.50118231596909,0.1735533879648017,3.6232223493761033
10.896593545646375,-4.698908466395585,9.15267153079142,10.312583027477784,11.288241393600693,-0.4867335596689202,2.7247466068913044,1.7731801321771017,3.1449812419647856,-10.525308194041608,-3.5231404473156647,9.786006627487978,-2.9664429471716858,1.5531534233907114
2.869519589215938,0.991286953367501,6.503126748862625,11.036441993426791,7.462572644959399,-2.27985565585152,-1.7387922700121583,-2.2434294988947783,-2.402821945763719,-9.816524264335555,-6.332694819460338,2.330608762398328,-7.471726877137797,1.1584476323371624
-3.944722710137163,8.94237393280216,1.470863522171018,10.038668065536967,1.9173367360554976,-2.1682210445052306,-8.320313008296043,-7.489475258579606,-7.440517145684396,-6.242757065332723,-10.038584955394958,-5.207958011877707,-9.276739487686656,1.629826758643092
-7.676281013261759,12.087038696347827,0.858626284978707,9.308054998821063,-0.3204363715694617,-1.0156643098626432,-10.185228198869046,-8.416663067272639,-9.613876881323876,-3.9566709384186223,-9.549550637458536,-8.342873213046346,-5.855575769073965,3.8404828357478618
-3.547417547925605,6.595852928232245,5.61301579718221,9.861210521582676,2.602655979729489,-0.0879195139407613,-6.3061451746849,-4.015168384965806,-8.488054335047252,-2.713088815002806,-4.002502131106702,-5.792827525623267,1.3906332154204222,8.596997253186773
-1.647446500744103,0.5901810497844376,8.47096125984713,10.976673569746737,0.2804710792621524,-0.0620206481731031,-3.91071555910409,1.463201207290273,-5.613899031453798,-1.5743829787261427,1.2108886702769432,0.16162333281315,8.141108334834968,13.448793290892548
-2.701727629056788,-5.823622162998181,11.03493871873669,11.156906630329445,-6.065825681656192,-0.7460840439545393,-1.3297376533086935,6.455951481980951,-3.094145991051221,-1.4455142915281272,7.400634766432447,5.947373464515607,10.591243534616666,18.811558484239107
-2.577705546706476,-9.553344663273968,11.273241203172391,9.712712552279555,-9.421169524779948,-1.536339175244592,-1.478554141109761,7.401965048432134,-2.004164580169146,-1.5679835860249172,9.373151581848491,9.426404133483205,8.253935255187884,19.641692478949256
-1.763096926207658,-5.94128484699515,7.895229371020308,7.443907833835169,-11.203134878468047,-2.0068615590935224,-5.687042607792077,3.413889251197614,-2.0249414158907086,-2.10534293805994,5.86706817690602,10.849327976103694,3.845494040367442,15.006269391741222
1.178812831865102,-3.507206676059919,7.420499458206541,5.8759848298303154,-8.282088525144562,-2.091854298792299,-7.367799629902028,1.5679372554134543,-2.388557438187973,-2.6798127554799493,4.070813342001908,11.63410956124642,0.6958669069085772,11.982900460542105
7.395994102499121,-2.8042912261842847,9.287370916606156,5.83609424581266,0.8811689208567659,-1.8877578447616656,-7.342903600105664,1.4434130335562343,-2.9583701485458107,-3.174477454959059,2.6071387603393377,12.48477746350366,0.1504282455573218,9.371220627949205
10.238929577940851,-1.0620267550422855,9.477683410900823,6.656280330793692,5.361544274417194,-1.483769096056761,-6.768394404297721,1.498185311949153,-4.249214645730376,-2.529603127107556,1.0521605940216288,12.680838733943716,1.0636743502901709,7.633663135990421
6.807505109358608,0.2061208389207147,9.028408978415268,6.697295605991428,5.725748027704861,-1.0357438879788674,-4.443980254597788,1.736765665951694,-6.429469015888287,-0.4708962644226027,0.5367812595887572,11.029444362396646,1.3844632537058033,8.077240780921043
1.7747008904037629,2.2222678676294976,5.074083070848863,4.795682593096302,4.505558402638905,-0.8578251596746327,-4.421513819026586,-1.0003461826955071,-8.52705718997899,2.2909144110198665,-2.838199913965766,7.38549343383778,0.109569626425781,1.8290929805370684
-6.598478166765927,6.931003638172814,-3.24269886085603,1.4691756192968055,-0.7114687574270623,-1.2236724481315662,-6.795849378693246,-5.589628684844897,-8.906034202431414,6.141994162884624,-9.011495276934196,3.2291331166868247,-2.052826689557264,-11.204039999723165
-11.942092944811725,8.619232380335209,-5.787844583477505,-1.2011316770630174,-3.053008315558564,-1.9799126898181212,-7.628322408071137,-7.29947233965307,-6.715213510764414,9.104040368806212,-9.096134394453284,0.7486425156287169,-3.546214484401503,-15.94570225371704
-8.967859865082222,4.086728732211122,-2.763979653326281,-1.147153741236707,-2.450749476277695,-2.455449240811106,-7.649903946720225,-4.6213445975513565,-2.8715658600592637,11.006756971247777,-3.1850360265211988,1.2214158824131118,-3.324463435986189,-13.32804458908493
-5.214846265468399,-0.5340202962744297,2.3249525737903527,1.7635215735367922,-1.582368795944748,-1.954748151395321,-5.879894562483496,-0.0164098851985182,0.5218658726003866,12.122703513800888,4.846842447082504,4.058335162092547,-1.5669137191891451,-3.794828880870775
0.4896987245813975,-8.192351493848951,11.808280125422314,5.143838214560532,1.1338089609113475,-0.4750592582197726,-1.5328868775511428,5.706296073070538,1.895884638380608,11.845193478419722,17.045358075072283,7.286936335010864,0.5947623460082525,16.304836998630304
5.564684509420028,-12.245623873395864,14.36081715384428,5.691372051080279,2.4409022835064715,1.0900354249278763,-0.0601119528490797,7.848831059409521,1.4723280142538044,9.211734799652852,20.33738877495296,9.057713600103227,1.9075656519917743,22.845775813036656
4.428966566276595,-6.644310914585353,9.152336159951574,1.9706234509268512,2.1571806571684564,1.59294457466099,-1.3330370251071153,4.145578136593296,0.8589425685303667,3.845926900241228,13.452006264498651,8.931655977312303,1.750993539748876,15.259512682464676
3.0870759072688383,-1.1236344884405254,4.459387939918567,-3.9674639148369977,2.6204506655461794,0.6047553539131485,-2.76851526287976,0.3285635323135553,1.3752974801829083,-1.3632144134864432,6.451639735878409,7.895978075006099,0.4165138119727771,6.131061010539987
2.616879515977302,7.395585196876618,-2.4118476837957554,-7.821103849922991,3.126134455741988,-1.193926377354046,-5.521577991670911,-3.198063151756527,2.71176789092101,-6.631105386631781,-3.928801403123016,7.131647906260866,-1.1763753999981788,-10.173255922831446
0.6089691313234633,12.297395100396754,-6.322564233966474,-6.434149188185003,3.762846930164405,-2.595457985005183,-5.154666748084789,-4.216846340651741,3.1839568105169818,-8.333468389596478,-8.450427606873498,6.662600477295079,-2.16210901922026,-17.11439541576097
-0.2853887950018481,6.717363843782724,-5.994860610881737,-0.5922122211520175,4.785810909670695,-2.871985101063089,-1.1386761147505604,-1.1520372345192154,1.3297306875470485,-5.426375465642304,-5.258037408822395,5.184549991458248,-2.407059688197428,-12.696131449973082
-0.07763309848509,2.7120006194500466,-8.107887082658598,5.252822813478744,3.504496138618195,-2.266877215800598,1.8135894090124511,0.074157696940182,-2.624884592411746,-5.060048488608259,-4.845773006026707,1.3469663349252556,-2.6702778839476338,-12.697242143508548
-2.249658513556462,-2.797612140162381,-11.301580260247189,6.235121379232503,-0.2200089748561006,-1.5900834433047637,4.711448500145175,-0.4821624681707134,-6.733964355909844,-6.367529871103978,-4.792240226928174,-4.633957604559004,-4.001554940084908,-13.219401275968863
-2.7082177859276437,-6.400879937157624,-13.790081360955517,0.6596605750237288,-4.143119728094642,-1.4329454002563935,5.81697268143189,-1.3082762887546024,-8.729160524603902,-5.965809728466004,-5.7063141866608005,-10.617644036742329,-6.744865772869307,-16.30125986405827
0.2943798672953523,-1.460270684473565,-16.430170908049533,-8.933024790767046,-8.856610467542067,-1.8075169967182028,4.228209768219673,-2.1957007155910926,-7.647718747343381,-4.97151522958284,-9.130404551769562,-13.995266110243543,-9.98058988923809,-24.267150934336488
0.4502835953410113,-0.0787245764001714,-18.324344281590747,-17.851702553019614,-11.73260026521527,-2.441860441782854,3.626653835340481,0.1909759300078746,-4.413156854631038,-0.1232864312214639,-9.287134645037222,-13.830249023873185,-12.02110336354213,-27.11596902894736
2.4417337231531606,0.8612625059458017,-19.304953282199204,-22.586865051964285,-12.214361327050206,-3.2258742322011797,3.435364103916991,5.0488175175875005,-1.0527011168746911,9.267334900238556,-6.52106605318784,-11.791886601450646,-11.725697858647042,-25.536927483043108
3.8402238552333534,2.240744557874247,-21.206763483796205,-22.83879256640305,-12.832218154981804,-4.228845067680047,2.340218096305374,7.011859549298609,0.7042064048141476,10.755655466051712,-6.82692313082427,-10.96794117941896,-9.622428772524833,-26.71769196076052
-0.0551750509125537,-1.405851299235342,-23.91046536855084,-21.12294141072654,-12.818582956122825,-5.331749939257584,0.8689388565590981,3.888544244212054,0.3958149184238593,4.317589291330135,-9.467303203083649,-13.517857400941566,-7.842641150551788,-29.09043545459545
-0.8901427250532707,-1.9244674256224596,-25.78554167278572,-20.73916439317489,-14.205155416956604,-6.046993909348664,-0.7389847746806959,-2.714684597493435,-1.1619677250048357,-3.191186783674414,-15.073638739454111,-19.139820459193395,-8.730431622381605,-35.20042710498051
-3.5932268091301176,-2.547643931750929,-27.10348656862884,-23.68277281075805,-17.448023007092058,-5.882599075005679,-2.553384086154948,-11.439234497219813,-2.597679715390047,-14.540742097223475,-24.98914041211061,-25.5236258970006,-13.016608962713082,-46.46500817381472
-5.846024799440177,-3.785682054695227,-26.499003063861647,-29.597695359335443,-17.76532192696096,-4.904958948366939,-2.1978828398264474,-14.18757449326271,-2.828523421963688,-15.807123583743715,-25.122670257105657,-30.146643414324043,-18.85950816832881,-47.08183157972958
-1.410097520383256,-0.8322790753275656,-23.52316895711237,-36.035313837624535,-15.46003054901009,-3.816874001005502,0.6238041312243547,-7.325783273799729,-1.5370549790041397,-5.213456450959,-14.933228725010252,-31.70556044068417,-22.556603831727937,-36.87512177804965
-0.1047364448705204,0.2778282867192437,-20.703312734406676,-39.76271904796051,-13.6216127062072,-3.348366220159328,2.4106084281949847,0.9921865051027696,0.8698152142192086,3.396450038175337,-1.5343749662341264,-30.11803101145059,-20.64395743365432,-23.848038644165857
3.627233957187042,3.51174128556347,-17.672742441919134,-38.55824048646458,-11.4194114833206,-3.5370618674043186,3.6350618649731934,10.279250698428855,3.69006913517304,13.392565961111424,18.54432569890107,-25.59779046839042,-12.11819869198456,-4.353027684424131
7.014499873109175,6.375146061869876,-14.390761548508475,-32.60610297782169,-10.540376702544949,-3.6553542144962714,4.693233103072901,13.937017419691877,6.459965967707504,17.751274391463685,27.881664140963068,-18.1547202037848,0.7144426853764756,5.488786582495012
2.3471724408125243,2.872097087640084,-11.33290479872977,-24.548099326806856,-11.565656611317674,-2.8917765636411588,4.926145719445947,7.715219908247114,9.241664913316562,13.866917580573377,24.69161062472451,-8.187982358500626,13.461349189115197,3.859668541120069
0.4513938644019546,0.3195543798965088,-5.987767523911713,-17.94100527833345,-7.262625769527764,-1.1156074833554754,5.81791389682687,3.186819684467133,12.409295427606914,14.894285023981183,23.50551327288911,2.5638922399642823,22.213005422836797,5.796273208205569
-4.40287318944612,-5.33792937515393,1.6602325680510028,-15.05136594422354,2.346356392799381,1.013941034960922,7.278390748391656,-0.8757615865658323,16.019099619581965,18.88456696734305,20.069363188794743,11.053030719878926,25.679912711732413,7.451648122672471
-8.964001086237474,-9.413784952396798,6.17621568651793,-15.54859847800516,6.94097373524655,2.6473388931389508,7.590131458381075,-3.602105325007726,19.27392883639436,19.787709383575702,18.48912630636509,14.415812995245515,25.37590187101378,9.74959472552374
-5.151993835702109,-4.631278428235606,7.692814327185024,-16.981180993297272,7.449909879865724,3.431870225057964,6.91127360800374,-1.3034738642878678,20.68342836638812,19.442655876571816,20.75854112853508,11.951424942462635,23.85764753766273,14.728863388784328
-2.6639203616247054,-1.4063199150017869,8.34620153922451,-16.484382888724447,2.462252706789977,3.678226749387932,7.771424966408679,-1.4993659858697408,19.023806350818163,14.558304270875862,18.40484873197968,5.9579737698387305,22.61617691936074,16.372469177672738
2.8434267427051045,3.604448036477721,6.906854886563114,-12.349853949184592,-10.535873210070262,3.981967973329276,10.034858503815082,-2.742446169727832,14.431118498657284,4.056596684420257,12.65003560037357,0.5862505989396141,21.41232920344196,15.306225077849929
7.298867291102816,7.482449441109555,8.328829362210879,-4.581274283446405,-13.326170435583686,4.738707290574624,10.399965929192506,-2.2655585414378563,8.65126477588474,-0.4608192649459942,9.68248742621654,-0.6181916582459195,19.406185736633773,17.331247156476007
4.257179074107476,3.9397292128681087,13.02661660817507,5.383346257074862,-5.820522097999883,5.92060981985226,9.16692309148313,-2.264793155058181,4.053234748217605,0.7460418536257076,8.549231583330066,3.161813004506953,16.702158466953748,21.806176488153152
4.369519521401952,3.948468395569973,17.074344062926592,15.212262790143171,3.953231437819385,7.126422291108852,5.654474282434824,-1.522339732476795,2.0759763109341094,1.4838682000548304,7.873227676095066,9.61715628761246,14.608724364621082,25.215661799705227
4.277004602253798,4.154487116073242,21.638534744123287,22.38915895331482,20.217911844293283,7.75301697811156,-0.9694248912054452,-0.393647395364727,2.3497025885985607,4.174280994762791,8.76273386012897,14.86285472344676,14.320425621059698,28.48944095242188
2.9008753876255517,1.671571460583337,23.312100113696143,25.32734204812345,26.669362462542164,7.256257694709504,-3.6494371614322394,-0.2532073006220876,3.212571881005701,3.366500507727135,7.452174881587548,15.926000992393938,15.429650155169597,28.64393750293851
3.243195210484885,-0.4758940863004682,21.326585121142152,24.54687352597708,21.788140753462237,5.521944969912582,-2.311333038713628,0.1177254886636275,3.1435195249865444,-1.870042506413584,3.755609780561369,12.59946600833976,15.90982761244885,24.88592139331461
-1.4019157464909393,-3.6126936409873793,19.10538864578565,22.77424669029113,18.011268349689168,3.1606113637651703,-1.3569696148964334,0.937930814455285,1.8514941500479551,-4.8430894982686095,-0.5175636195553112,7.462523053852166,13.738319630560255,21.93027214817852
-8.056444013775508,-5.13078432851162,15.659780633712622,23.20044282216376,11.369413778764748,1.354408940909508,0.7453080414512645,2.334283976818664,0.1294780549038563,-6.813362919032796,-6.293300020195702,3.9977983277988183,8.669546494654497,19.015066446134536
-10.332032942507675,-3.226044484107334,14.506655909017002,26.863459849614983,10.027273425654446,1.1306260248072988,1.3706008664940472,3.330657646007864,-1.2443210413968302,-8.002879036646943,-9.255418131856464,4.029867540316872,2.5108667712948503,17.006719060870633
-7.718567188186181,0.5467047002773288,16.369828714561205,31.484880916806446,15.98302923782554,2.529074099727161,-0.1100653135602361,2.322094440314116,-2.403464021374745,-7.317574023313481,-8.988340708101894,6.339049962687213,-2.2939392106846626,16.847006480026927
-0.8551423348397744,1.2954528605569624,16.461123458297777,33.23534774600553,19.66103330927857,4.437861368468319,-0.3921002100105958,0.3732865786013575,-4.17925577435426,-9.41156167506014,-8.068937975278198,7.63081610438563,-4.418539910728264,13.369177780023
7.113419608461294,-1.7077714683757508,15.642336584332638,30.188204177255493,23.324809037281728,5.410418018719092,-0.1605280675111526,-3.153021662024571,-6.990629280604182,-14.260237351346037,-5.356322555173508,5.30231090856978,-4.237689689802664,6.786722585155507
9.890766363205328,-5.155809549631356,13.822642117122136,24.29739206174539,22.513893131979916,4.859261038013138,-0.0817463127281022,-5.724156560081839,-9.97625741009277,-16.092833968378443,-4.283545858174833,-0.1140013518022229,-2.986323993430112,4.436646102625062
6.557189912534951,-4.962319946829402,10.173287073665875,19.83478747323317,15.46381834055706,3.5551596353926485,0.283742599987998,-4.506619938232871,-11.34166780618986,-15.557572704768017,-5.257593478923882,-4.937364006209371,-1.542032131480994,5.788749063413356
0.2045447489160687,-0.7038117743483548,8.32961733201554,19.57002412624663,7.927088620085501,2.9112770458248107,2.3076078461104186,-1.4055943252911154,-9.780468774946357,-11.086165630023642,-4.332775809002436,-5.032358160570091,-0.0118591583980318,11.106362704845688
-5.478957413427432,5.890152345935567,8.207303939538862,22.281217592494063,-1.6586039420609695,3.6531012436681394,6.163104757852226,4.069887000227246,-5.790688757738408,-1.2656977929855675,-2.246372731353137,0.7907521778498889,1.6838626161340071,22.18377991156866
-6.013353667864344,10.650924359206362,7.339346490794742,23.9964365159156,-5.098923690912065,5.092027899719305,7.400058771029398,8.13819611764197,-1.692908281661012,3.1449693104236487,-0.90930933954191,9.43224011095073,3.057031289172812,25.215678625009527
-2.467783054960869,8.009086360194983,6.406165096645855,21.76252573721064,-0.9076851329767508,5.693132307531361,6.064513115480786,6.707913510384892,-0.1863186278690562,2.254697836213111,0.1501985129323141,15.457032117175077,3.052332117446703,19.853938127263515
1.2311793378853582,1.0246695315124843,3.95482866227488,16.31794389684605,3.6976462619437034,4.427990570275092,1.271179670569651,2.4974367044563746,-2.4575196293408155,-1.2155348092653693,-0.1954314895645899,14.969529915155576,0.9341273378632486,13.074417617216788
2.3913300751187934,-6.161896634357659,-0.4726027287842411,11.22235789192316,11.050360762865733,1.681073663211528,-8.28615756986484,-3.767588234539485,-7.225474347336764,-9.878966203290242,-2.363568358986652,8.482289122449579,-2.717088221271716,1.6035023924059892
0.5916296697798382,-9.695855865050197,-2.3706209963715503,9.501410578814326,13.108649878518582,-1.0877045417466356,-11.825926787026033,-8.042671493082265,-11.431344710986629,-12.406735371877406,-2.88713792350827,0.6121941749627737,-5.903694229104033,-3.10151159169605
-1.623727560437526,-6.237781463751115,-1.9132355952836169,11.12535118302464,8.417677020468789,-2.564435056009689,-9.229756594088032,-6.01216726270898,-12.141103190770677,-8.354278924784523,-1.9421585999474225,-3.155232111610061,-6.367207844307192,0.2139990674872676
-1.7780193483609033,0.4897666424389637,-0.3070238323738371,13.508212870239284,4.529119245221551,-2.564377703490857,-4.202658771845419,-0.6130040803586089,-8.435359896944274,-1.483678919811456,0.2238113132213673,-0.2619962888953679,-3.314473753102765,2.9713579678049187
0.862581665577987,6.040845795603425,3.46836668448729,14.090882427540372,-0.759748462884953,-1.9686018515781232,5.90819867378925,5.6016125487538,-2.0797746320216177,11.131580707935283,4.439032746625146,7.244928455847436,1.6152077312544382,8.06898473852234
3.225634178409293,7.308574636090086,4.186175610004248,12.251874061352243,-3.4739348435644044,-1.8165815521198443,8.585364225530773,8.214091621009924,3.480372701874657,14.49250892754526,4.383315313961168,14.2301902763232,5.095323937832638,7.304466459789628
2.5736190707197637,3.3307859772054664,1.543611887966313,8.935595277602802,-2.407474089190534,-2.4564434019586248,3.018712544986824,4.047268904592896,5.219713312679319,7.68862611638686,-0.1990983028397618,15.998095818973828,4.254297077099636,-0.8640448295129168
-0.0072032032131029,-2.7310653367856217,-0.6217334847358091,4.96098014943354,-1.899602958135556,-3.432181882155372,-3.5090184401831674,-3.1868392762830045,2.4119001428107363,-2.0544019081724074,-6.825085597584854,11.32311637729227,-1.3065432848153202,-7.937556397765904
-3.591619659302528,-7.521371258687856,-3.5079438505370573,0.147708752758742,-0.694568109356349,-3.99766296948269,-14.102308632257806,-10.19363028489767,-2.9624682495679244,-18.58823151905817,-17.121123265797014,2.940800509551548,-9.191740734082313,-16.090001455408547
-4.656811571416103,-7.931478276035381,-5.009406665729836,-5.868561533312041,-1.9273365219007808,-3.6411913064324666,-16.744724539210864,-11.709498565271556,-7.586413749321297,-24.27391507004845,-20.850039703965997,-4.659340563756404,-15.856737286189755,-19.23553490714694
-1.7517198031800405,-3.4159470956873466,-4.529275157826798,-12.305188741586614,-6.367100465610984,-2.228825243518473,-9.962727269250848,-5.56991951557336,-9.007687991058807,-17.505957784355196,-17.20040529201063,-8.35949546592396,-18.897935827336124,-15.672554155537613
0.5223190546845277,1.8015219584884985,-5.476569551928951,-17.08998497765552,-10.9055082110521,0.0700768048632261,-2.991390122296097,1.7312641612520232,-7.096304579093685,-12.260051616769738,-13.735853112105882,-8.129453382509848,-18.21465185459205,-15.562034119005904
0.8672846142182062,5.6142119779503465,-7.325775853058404,-18.21796820118275,-16.483639774456588,2.7268924148862297,7.289747285552828,8.386844928623573,-3.760966969681048,-4.284367512151652,-7.973015286584052,-6.262890324402153,-15.370990981348683,-17.37086770192162
-0.6203657083987572,6.164302253336487,-7.6892749915308976,-15.302543029457128,-16.633110205190704,4.709793528406379,10.989965636073183,10.53046549207586,-1.3006449097642765,-1.900400027066548,-6.032569988472385,-5.098548641855579,-12.065399388814525,-17.5011973752808
-2.387023909018851,3.139300044682569,-6.9511656150733785,-9.896037499562771,-10.387606421184644,4.706478314817717,6.346070507594216,6.01435480205637,-0.7869725014392603,-7.38935377090293,-9.21423515193037,-5.281374015851135,-9.177892330616643,-17.482580675651572
0.536119683588735,1.4179135727029566,-4.889487384996907,-4.445354671252723,-4.129762658763258,1.964048263697064,2.460285071032681,2.5341795005655925,-1.6778069670280082,-7.498803452419445,-10.44654557168697,-5.872807423624749,-6.985186452991202,-12.283183387997928
7.859891216416417,2.0626461694666616,-1.0059947313558952,-0.9135863361627834,3.8071824021991927,-2.7647016041933874,-3.369227209274645,0.0384267918164761,-2.695953618613085,-4.306257354229761,-11.34695294730034,-5.81030407423615,-5.841919225888649,-1.1768592465109808
12.615146955383398,3.292908542242928,0.1443183428244061,-0.0563200351783521,5.458806982687874,-7.163152227754271,-5.835463150519956,-1.599240613970217,-2.986251095097188,-2.28733341643904,-10.733213978863564,-5.079177630504798,-6.2722001794914455,3.3617791435079925
9.723330405823225,3.6462967503150514,-1.5785910259596838,-1.4878946142000764,-0.7914508823840313,-8.659343705558681,-3.4589019803336694,-0.6081800631749417,-2.5633308443489184,0.5279047000657315,-7.48070089637991,-4.504668693519086,-8.279104718382555,1.8051009345579976
0.2369565612438731,1.61651838029421,-2.7613639623874757,-4.114511477963728,-5.068644943743419,-6.32618709783533,-2.191490089095536,-0.8886899237739776,-1.92342202676506,-0.939093089036828,-3.3900855782505595,-4.616483707533082,-10.736914346998688,0.8091573491394726
-13.277154819944377,-3.107030893840612,-4.388358334574052,-6.6450342396062325,-9.43753518600614,-1.7901426655926045,-0.4364715411167699,-2.399059839600553,-1.4647714976761037,-7.439579993954067,2.252193105518812,-4.96441584571965,-11.808974914810218,-2.1401897387671247
-19.64914196334998,-7.444748875329238,-5.305198165946005,-8.15875737090214,-10.873924994139076,1.8323499128903755,-0.0326736485743653,-2.93354030515893,-1.3317658480195718,-8.909311429950597,4.777599396184604,-4.674904660233917,-10.299750024731946,-3.385374837724971
-12.231534322229804,-8.247952911485383,-5.00266475050234,-8.586202065577513,-7.546244640902855,2.27513973518921,-1.861551269763817,-2.907269041024568,-1.652454864126419,-6.075935962080807,3.6587819870045424,-3.633254969373251,-6.767797281313314,-2.0934966744043715
-0.1494702282695152,-6.8459414805916765,-7.209134499840138,-8.703248342069212,-6.426568255697455,-0.1968828826415247,-2.422017311277633,-2.888197165598181,-2.6643575510093527,-1.577270604868916,-0.1866438285836026,-2.945604274206332,-3.250362943149014,-6.65126790093411
12.942863248513898,-4.440655263192474,-11.739156826330436,-9.443062210488922,-6.433917163975708,-3.2337876768975384,-2.29919551748455,-2.0586832441286163,-4.417681856875557,6.691000666892892,-8.24279194909725,-4.027568396974427,-1.6670304910110725,-16.535756586504316
17.526447908880176,-0.9985336066969736,-13.198521540845263,-10.978802263412664,-5.202561026807969,-4.560374517137696,-1.8175568928957595,-0.765181337393328,-6.340486544046321,9.661106334664824,-10.42533391781947,-7.084366291321771,-2.244297740547914,-20.336229721402045
8.258313553430707,1.312788315035588,-11.949489274483758,-12.40461485167275,-3.745529841121866,-3.8716363886934415,-0.4018828664270584,0.5402723424897306,-7.248133771138111,6.8258473964579,-6.309364996833665,-10.47423837559857,-3.375334732384623,-18.89605221386717
-1.3475306867006789,1.9558736344618763,-7.747158047536738,-12.399380786189187,-2.3565088062115787,-2.7647154416259383,-1.5244452387659686,2.0213170582231634,-6.018658114048886,5.563484592878392,-0.2294682229884116,-11.73589020006428,-3.050078345556063,-13.223574384314364
-8.632511848092669,4.7974421541317325,0.7499478022946793,-10.357915951288277,-0.9296223149038964,-2.902790607233157,-5.332590245666854,3.24282975207548,-2.476183722373378,3.895354853686118,10.373287528280436,-9.535861182813502,-0.5559078070816561,-0.6761339639328083
-9.774371654592484,6.126262027868115,4.071490096671409,-7.009361143891223,-1.55394497255435,-4.286229907795107,-8.142933721260734,2.83679254550746,2.279875079271953,4.782580675892132,14.33417623994766,-4.85990855501036,3.049826347951356,4.450972106770973
-2.1634666853259024,4.329222964422005,2.0598493034016694,-3.965881966545659,-4.513171304359388,-5.327113335627594,-10.608705522815129,1.0778466320646205,6.46086712139174,9.449466080108952,10.766113456608927,-0.3355415668336512,5.975714730067935,1.8716305701426248
2.014816720222611,5.121602351591102,-1.745837147808424,-2.542894794767925,-5.179240405386732,-4.589753378567433,-10.46270495148502,0.5805937629941264,8.689246725102183,10.780493153355906,7.342923538232311,1.802929155040136,7.130792925755426,-0.271692214640446
2.609868263207781,2.622741249338536,-9.66812775406539,-2.778966659948697,-3.8191864254775703,-2.41191054324618,-6.816845662066326,0.4207166909041847,8.77969160288672,9.481785356784416,1.3319279086535174,1.3632491723973246,6.65189454587469,-5.195693682823791
1.49262965169371,-1.2046063727347351,-11.864991125013988,-3.431102051633108,-1.7774514220037598,-0.7790564735258982,-5.522345715040752,0.8415294915196172,7.648360191389134,9.11125065682706,-0.3922750674948204,0.0313669297783434,5.294637222740224,-6.542565484639333
-1.824464458793759,-1.154113440838642,-7.6616932523167645,-2.992879814194236,1.941491548612308,-1.5676011942220889,-6.068539799845086,1.8635683042522229,6.518469957302388,8.496575346368003,3.432899024033369,-0.379536387684741,3.575175252703737,-3.219759934496388
-0.1638035392239681,-3.844921415368527,-3.001213499023801,-0.9912031561123128,4.2877430012870565,-4.82644699056587,-7.907529568384785,0.2826309101552803,6.106568890178124,9.969195704849165,5.030555554269411,0.4270449388634425,1.5721113020905726,-3.4804276549550077
3.953642487089138,-4.735363379103843,4.545720600323161,1.4814534994301063,5.1254379640985,-8.654162027810461,-12.293461987907468,-1.8420625869522225,6.367991717616896,14.131793377090254,6.124540654266275,1.2551110822195837,-0.6211598858733147,-5.914067992770389
4.958421151307695,-2.168444568471656,6.111517573563288,2.5389986187176774,4.365716058489064,-10.677636678031044,-11.707249691577886,-3.126446929549068,6.8256316364122025,13.889650970352404,6.285715925198639,1.0014292661574355,-2.526452160510521,-6.942906936510341
2.819450206721144,-1.4481709752729517,0.5315501469504726,1.051054331511363,1.1115219389392277,-9.744192317658891,-5.912918078578907,-3.86845716300777,7.039469269968517,9.456818145702972,4.327904870374227,0.0994299619518148,-3.5124212670656494,-7.660918436204566
-3.033340943302142,0.1504392658179839,-3.959696160503824,-2.348665844364266,-4.038691337275303,-6.458529049279614,0.8567623131046989,-2.302107750513988,6.796426700525606,4.579964364417648,4.4512080231431685,0.2196788732280428,-3.387581414683257,-3.993782754047401
-9.4403082249239,1.311930431699612,-9.55655929173636,-5.770312068125398,-11.566140412109236,-2.400025581614768,10.353873644930768,-1.1269565507750068,5.997816581007914,-2.19719574074638,6.370255132367647,2.4073547461881546,-2.711737818131379,4.923237607725116
-9.758655370409514,0.3837298482969917,-10.209642025481934,-7.688654447212836,-14.59646884083958,1.0487269504752916,13.43398708916154,-0.7821643862381141,4.557189608337886,-3.906707646451125,7.183036786634748,5.554651832543151,-2.474149412573695,9.422932628615252
-3.699705727098905,0.2052828512029445,-4.28963525067042,-8.11489688414103,-12.56980027004654,3.295930533150834,8.977689383686855,-0.1611233735691702,2.5478675386480063,0.3997522009313207,7.552641622278146,6.965377797100519,-3.349091150651597,10.0969133684992
2.690685684742021,-0.0410365290999304,-1.1205839630623502,-8.124724098944718,-7.707175133850927,4.3822316622618,4.640868322038217,-0.5199633938184866,0.4594186426257032,2.795331659007681,6.537863378691172,4.771990370402222,-5.04859877004805,8.125298522308928
8.722998522456683,-0.1550678808838676,0.8643631845509884,-8.26587002045219,1.9898469986510632,4.570831843417567,-1.913451797347435,1.187719156937416,-0.8384104372801877,4.894130771229408,3.5921796610849324,0.0043113325483084,-6.254701943017559,1.2928242974714663
9.732432256470291,0.6752738210570934,2.3588131523387674,-7.674444822968287,7.172274481235728,4.159107346950574,-3.444136952298988,3.321255878294964,-0.6237315357902897,4.975645996469538,2.098457584011747,-3.816865754616841,-5.341447947078892,-0.7263120605570208
3.807702730013935,1.1769556479360137,1.785145420439838,-5.068419469149489,7.419807791933413,3.5175009039992684,1.559085151804532,3.417254535666064,0.9883677802939652,1.6016324736658305,1.8594731290502815,-3.485186797939238,-1.6165210700909085,2.1587462619002924
-0.3566370205220264,1.4686272839291403,3.996393749608317,-0.6667711519801467,6.489515292535947,3.0753570661571263,5.76320699640128,4.380805310495876,2.853492992296112,0.2528016804113619,2.435937147793616,1.0889918250852006,3.7576931603182055,5.254137180435426
-5.053304261785929,0.727344153618046,8.859114479483479,3.2080125473387877,1.9957420956381628,3.1308328738712468,11.200131158430867,3.2702605695343334,3.455244495302772,0.2642553589775623,4.594700202220649,6.670581650337903,8.126206531762762,10.742520814048088
-7.707978146574192,-1.355296824767075,10.15363518125216,3.924850203394671,0.1199670806509575,3.6616279812250494,13.160292703336214,0.5464840463839559,2.00368435213314,-0.6199958737587621,5.389442099378854,9.41115983956846,9.12984297650048,11.35655711924778
-4.229277724200066,-3.185157275062586,8.45349628651456,1.2134624610419693,1.173249826237503,4.363526833630354,10.328627730939424,-0.3939972950634176,-0.9371312109159202,-1.5389072085855495,4.821857530441738,8.11374822710247,6.697428380262492,6.279497008519381
-1.507484490800128,-2.511225979999888,7.3719754770371875,-2.084083073010387,2.524016902318876,4.905393221652989,8.287947222630503,-2.2627680343645324,-3.872892429789173,-2.084240518467916,4.278253347178278,5.104534681830647,3.4318584911770733,2.385409446713184
3.154735660960865,0.6594611740934867,5.855880910867607,-2.313979828889488,5.7044239237961945,5.164191088280311,5.634199826894183,-3.52654221430282,-5.494463451596279,-2.3868145567348105,3.11042941346597,3.9218286258094737,2.7150890243502395,-2.023763706431683
6.984677731455967,4.225353388411571,5.118234431588525,1.5832218153949196,6.698488550813543,5.234818975602599,4.690670096661975,-2.343926372647558,-5.47810430659804,-1.4225775031452332,2.982881168456232,5.965455835750948,5.942784989688394,-3.11266452361893
4.898221028257159,5.734497182206416,5.723982161450145,6.8445354935974825,5.242211468985975,5.236979070437712,6.40252021307805,-1.4105435674369404,-4.305379079355052,0.9934826242991864,4.0865111095501625,9.203534413801185,11.310723731358998,0.4372517778474472
2.890046364083341,2.758910814747451,2.369917487482475,9.17052809121978,4.592937461811568,5.118167621305869,6.474297096224893,-1.102788930003153,-2.4484370783056164,2.538436394885597,4.137320695171248,10.089091312833837,15.30788379365475,1.519950237164844
-0.2004216920509295,-2.0671469736201384,-4.875527828229475,6.474672169252689,3.878433086817734,4.639826856119155,5.590562352949975,-0.7468801803463782,0.1044910493253521,3.3601696291582326,3.446558143261534,6.844231850221352,15.605262459083647,1.1546157472568963
-2.587974186909377,-4.841897774616682,-7.509798337137391,0.6117033765681281,3.8452563658462977,3.579981229853816,5.243802302789302,-0.902560881629646,3.4575910115974136,4.788411556997809,2.4970571143685114,1.0731530304581254,12.76548240636962,0.9911430153522014
-0.1000774949021398,-3.2799097976453107,-6.081494953904103,-4.424925746995717,4.975096260579019,2.0242669275446774,4.815660476022422,-0.7927342638610082,7.073817226363319,6.400759294864973,0.8836137125491981,-3.658738885115275,9.384467494320468,-0.1536297623865124
0.860455415726659,1.6460598667321256,-2.741776112528324,-5.969211671522837,3.195203350102106,0.5290649250725874,5.015844040847441,0.838184816856506,9.694993741635743,7.864667411908248,0.6042896349592256,-4.805756079059941,7.690587149160651,0.0475044736488966
0.4970333899566989,5.299654671356231,4.365167582215845,-4.538035752697929,-1.4694509434031042,-0.0364722754460924,6.01521883050594,2.4187127266095074,10.224904900153035,9.285101103075537,1.7835131658840593,-2.649635649522163,7.883074565346846,1.6693589335656016
-0.3532278572142579,4.932878864059099,6.425899309074512,-2.639453272138537,-3.8762693909810886,1.0103846366534572,5.229455409162433,2.154110317760505,8.75229432268548,7.715908939250208,2.3887761999026624,0.4325905673662316,8.505742104560516,1.2710979096370418
-3.85188440512678,0.2178888174671349,2.9625261090473938,-2.135775539056487,-4.6028821591565885,3.575772312432303,2.6607908244916545,0.7074468274320513,6.581860647760443,2.80091642651072,2.824122524626316,2.1738883065782755,8.117838197744948,-0.8598765469021687
-5.546014734054165,-6.103857380114418,0.6789581018200458,-2.881641530083284,-3.239169227265171,6.550232737465471,1.418874567972223,-0.677801084082058,5.086998560050696,-0.9490202521296924,2.6355194485836217,1.946109726603094,6.511807471791779,-1.977252749025133
-6.552991449604646,-10.114661699746131,-2.396196057217882,-3.6329827295438193,1.3725001248108493,8.24151946613978,1.1074103252257934,-1.4084861552613528,4.452536635876768,-4.094990738114449,1.4417988618548951,0.5434805531906921,4.52625989609547,-2.5969570020150097
-6.162625328905593,-8.619996186455271,-2.7628746836259057,-3.7360931488458498,3.2520217139379404,7.341256186783297,1.2220975613405043,-0.5027426327943247,3.593853315180999,-4.835568309272505,0.5559979684255287,-1.0130978837900422,3.022307438963601,-2.3879941621695764
-2.5251173496949346,-2.815375157411675,0.6748813213146584,-3.553876862989755,2.5326536859925137,3.808751310311356,2.358098742423838,1.0748797877077247,1.4094324268712253,-2.0553642228623707,-0.2130001182581226,-2.2194896878923203,2.219993236038327,-0.8263366477263214
0.2783765845387223,3.537303193870376,3.4496216948220466,-3.3654771853412626,3.0608018082825983,-1.0011257684905903,1.144517846935284,0.1801882643180533,-1.8492992553138343,-0.5955684591853865,-0.8537413340385535,-2.882127798292478,1.8871295371653092,-0.3180117852681285
