AF3,F7,F3,FC5,T7,P7,O1,O2,P8,T8,FC6,F4,F8,AF4
2.2826514807971936,3.329845915317179,1.2210515249307452,-3.369152123657904,6.270590876445221,15.613296774405148,3.676234267946154,3.681782147426392,4.81823871148102,10.171137556628397,7.20011543465286,5.733493898944292,11.393177579820067,1.6190687877677628
-3.646170451041853,-2.3340079245387457,-2.2074575542508046,-4.005307056525796,-0.5322742481936023,13.454844254175786,-0.1897656931231509,-0.2333624538385025,0.5081529796105583,2.2652374600538927,0.0237767420034925,-0.8484941729253608,0.2502831557701919,-3.1669768837811536
-9.33819083529407,-9.557624359425883,-6.456609854444329,-4.184368900234618,-8.76173587747307,11.064595571117586,-6.017131093413397,-5.06778678101506,-5.785692064047492,-8.80384401398948,-9.436422998111944,-8.500677395125106,-12.58550376297639,-8.661565909998563
-10.311540934927397,-12.75259857896346,-8.089214471436597,-3.0266139801727814,-11.015999293163484,9.107452968905458,-8.20646147027501,-6.727464321102506,-10.007514755976896,-15.058149494896456,-13.92959210456726,-12.082325678004008,-18.34390404964696,-10.680150293812456
-6.580642855325271,-8.649365351152014,-5.507801523578316,-2.659994771139482,-6.055874712695007,8.174796398479574,-3.17273076362277,-1.958200108323276,-6.447706579006907,-9.39096697146064,-8.581404959649497,-6.861933026643437,-10.517126703459372,-7.609890101785263
1.8085464867433472,0.3316626382363129,-0.1125220526381159,1.4287082476570143,1.2920278373753615,8.716679300997814,-2.1111226522225937,-1.5635000786331228,-2.9975982489047355,-2.9254707632453743,-1.3047934359827038,-1.0337396614861507,-0.966246112376552,-0.8429268143609554
10.0782317789242,11.49987384921097,7.474336112290197,6.88511017488251,8.168832049621724,10.728236705200077,0.4475758365929007,0.5165395388267203,3.656020534338096,5.001885812720715,8.298195022657973,6.264843307565645,9.578471667917867,9.092301018474853
12.078755836673905,16.414493722637232,11.753616003468885,8.578151323416735,9.406085232149875,13.30163002622126,4.351958018176278,4.208741539629616,10.408841309788103,11.155670959226688,13.893909828238298,11.167693623054364,15.52211238677272,15.16400595375467
8.058916248045174,11.08306494632758,9.11147800047759,6.97697870595399,3.729268394276559,14.577383836843223,3.886125126216936,3.3299376114846684,9.284914249567494,8.55551463640879,9.256755607854156,8.275776631832555,10.14910698032488,12.762554257611882
2.116151550263988,2.198086682118514,3.2954275879396926,2.54867327320484,-1.7891941122745214,12.56512927477232,6.724284669657534,4.714920962181149,5.796553720146751,4.758604257190884,2.583436254713697,4.355835701352617,3.0968647769412594,5.883132186159292
-2.480315401480896,-8.115187350635745,-4.899507207676658,-3.4721761759874608,-5.715613767824124,6.568391601527413,8.108895721497298,3.003080279489912,-0.7595599141123222,0.7496991333308686,-5.795889834182651,-1.124928200574226,-4.667446229429489,-4.023036957936158
-3.21191876477708,-12.994568709341332,-10.115850429902537,-6.402665942309323,-5.882016882589679,-1.862134507524967,4.067833600213353,-2.4169467719831164,-7.54103666244013,-3.8348050856187808,-10.942822233184174,-6.021242875006676,-9.911437136431797,-10.641853984298326
-0.2550693336216755,-7.329192086060178,-6.849057816871792,-4.217122332748925,-1.118663944372991,-9.493589344546292,0.4684479317625234,-3.4711540379659547,-6.5699415820004194,-3.785414281834501,-5.922062078809071,-4.094688138507386,-5.976305467566286,-7.437620775348799
0.8045098106022498,-0.8913373586899377,-1.466595266467166,-1.1405324513852766,1.1387975261887786,-13.414576718272716,-3.6457041046457705,-3.1655483774788253,-2.038676683330405,-1.4590353485976388,-0.3452550149252721,-1.4547476377524733,-0.4836956975783582,-1.381167536600296
-1.628057953522252,4.384608561550319,4.007148805018226,1.7615610721625805,1.6121184508648885,-13.059260543230298,-6.9297640000632805,0.6811619454865157,2.9556110754364515,-0.3495632446840928,4.52992753802112,1.0075307552737995,4.289544120509485,3.665346276995176
-3.249658341376984,7.664060559079998,7.811983433240795,4.070303387135682,1.82289408540548,-10.582880483096597,-5.101879647319184,6.270685217390852,6.739845828591616,1.4307027350898007,7.830149312408714,4.3118034737063775,7.399783267384654,6.649035626642144
-3.3787342235972435,4.627824060862204,5.0096523345404265,2.9148543310060915,0.3495031737501985,-9.166822363465457,-2.12467415734493,5.177205357078162,4.241263303804022,1.6404559882057976,3.802443012846673,2.905688109881753,3.700805955189724,3.0033042166237385
-2.7251986681360294,0.8945541135340979,-0.5108758439541919,-0.1916098656482664,1.3624367489656684,-10.556966686612654,-2.918687186422668,-1.236172998257771,-2.8699305320926305,-2.590530254239643,-1.1812636020913934,-1.747928551269288,-2.9019779336838103,-3.994293027890402
-0.2419806232731788,-0.7676189250495692,-4.919078879179638,-2.798925995313522,2.875425994166709,-13.808167760885167,-4.649910044978839,-11.17635751399166,-9.099556418369769,-5.467525741469997,-5.049817438301867,-6.386237092664036,-8.76272977283016,-8.427792414894714
0.5049235430300051,-2.459678820169352,-7.294725711959564,-4.801162068924059,1.7994538304747754,-16.211538690936223,-5.988968658588715,-17.230487607813043,-11.099363018002244,-5.959909402503111,-7.577841074635676,-9.582179839812897,-11.168779614669392,-9.20805204564278
-1.2880303436738412,-2.7629906735971232,-5.628800374087843,-4.522723250074643,-0.2289847496973178,-15.589323226517696,-5.6591944144949125,-12.117628520487951,-7.282003987341827,-4.980493989476765,-5.724880687281815,-8.323818326045652,-7.284275424131726,-5.855196757790461
0.2656705084130919,-0.1927159133431525,0.3413645986333227,-0.0741542820765188,-1.8862401613471973,-12.082350054776992,0.5754789703964055,-0.2218480356287513,1.878908477267166,2.058853905906208,-0.2896024035250476,0.0776836877438633,1.0278269618831166,2.4360920850464147
3.734649255278178,1.4740242957112766,5.94817085745438,4.697787339866236,-2.0810698733804305,-8.044785466444953,8.596271010951003,14.807614619665593,11.193815911436513,8.995294991259025,6.494364767416104,10.98159885863924,10.239935606973372,10.207233238703395
5.61412727395496,1.9152224838108156,7.603408626396836,6.4539002355214645,-0.3543092085939434,-6.204907500010101,11.828346174958522,21.65889261318719,13.58465294488071,9.70961010120577,9.9800391073888,15.5370034001836,13.529255679352156,11.459029381405566
5.160961815361894,1.7861564195204842,5.325930506049664,4.686993556111281,1.4172945189954356,-7.574346443461565,9.735634934545836,14.005596074003304,8.352657968645191,6.036094637951699,7.764850321220971,11.367846142892695,8.541310694010686,7.08731496294195
-0.3268866285921996,-2.698762433959169,-0.9825369461109676,-1.422703274018855,0.1288362037256242,-10.708345986954274,3.75098679772967,2.2209003280484545,-0.5096736067373796,-2.1595213814013503,0.891247362092312,0.0947342320866657,0.1661266178790909,-0.6926130873250762
-8.758157195351668,-7.413318370506474,-7.3928955496061235,-7.817357215829253,-3.1400452919084274,-12.83196895216721,-3.118037569884053,-10.74564499135442,-9.811293725279985,-10.623188743105498,-8.645495091923197,-14.193146591118994,-9.362197994789994,-8.991586613933116
-12.511653127391591,-8.331775420964304,-9.390026570377092,-9.58763051754046,-5.213465645200982,-11.933145228100592,-6.329409825547342,-16.555333069627796,-12.73972480343692,-12.216296702701406,-13.597089312616257,-20.145754944545107,-13.200236931583769,-11.334688528111949
-8.990326266103551,-5.887748618751334,-6.555689436838615,-6.312140331179705,-4.160082697588224,-8.236642366615573,-4.759574432892575,-9.306987286019428,-7.144219931610219,-6.857990749616578,-9.529741667236152,-12.929860902048596,-7.8142699093575425,-6.529809939801067
-1.0189467715069602,0.9070998538849652,-0.3305569569005515,0.1107293776681338,0.3513809278738375,-3.996091341002364,-1.365897904554436,-1.0516174915535588,-0.1454084077911606,0.3428026873442926,-0.9859106882917804,-0.7947982645675982,-0.7902484953209888,-0.2891800738385375
8.724360313003709,8.09459299506531,5.994137794775523,6.087033117282593,5.880541922260488,-1.8265990745439729,0.3490434391072028,5.499229361066327,6.4209507932409045,7.119114059276689,9.16501376479354,12.350686646769107,6.249150860878463,6.183657766364814
13.466640403741732,10.453258276249471,9.090147826089895,8.325500719292613,7.955535240777699,-2.8570853533407874,0.6099619501487377,8.324410110717269,9.428756608996697,9.836136302486482,14.451395376261752,18.69259581974976,10.142786403363424,9.592403085397944
10.102957154785477,7.743855424772397,7.643861507390588,6.55690505480242,4.992616868401318,-6.028038357587491,-0.1147827260399498,3.849516711980258,5.858559239700245,6.658138718467455,9.564033003100242,12.271928781801416,7.198946777936783,6.687930447754843
4.242992710178171,2.711528407720059,2.9690724210426933,3.362955775792686,-0.0835445628547731,-8.931772972619829,-2.1805414088742787,0.1188453543352774,1.4702386700133052,2.959025000734333,0.755658084261196,2.625410915598549,3.3368135895486537,2.2048488819313223
-0.9228838523507208,-0.9021151800057552,-0.9410622325300936,2.214090441500812,-5.151268566554834,-9.47049172619616,-0.6530255750889028,0.5890333479346006,-1.5709477645010577,0.8969213955141141,-7.267471073382008,-4.970701687015193,0.9671356177558588,-1.8438981112682515
-3.4963998784228654,-1.3992202815886976,-3.037024564129842,2.00217719119072,-6.767783564843074,-7.132301891964952,2.152709583468324,2.0870646700526225,-3.1842248015947785,-0.4661685173549191,-10.00454540801254,-7.930271185303416,-0.6491262722092812,-4.35321223428449
-1.9038294353656784,0.2850761802296828,-2.9799389532281606,1.2370890641553465,-3.5423940810502663,-3.108326499391973,2.2986105856059798,3.315141473874673,-1.8849613322354015,-0.6515723050892195,-4.790582671840319,-3.797201318326668,-0.1459926288440073,-2.979183583929748
0.5003256408375486,1.6522266909772918,0.193322533124078,0.7927873371937204,0.5662578327410035,0.6415803243761884,2.9872474683089774,2.4386935146043376,0.4431819323181136,-0.3073634868455701,2.305779286317198,1.7260148973240317,1.3802159896999828,0.6485123344019619
-0.3529947391457583,-0.7563775297164002,1.003008415496163,-3.3682887063603903,4.332981793213172,2.6142645370784816,0.2380532293654143,-3.3691180132266303,0.5865264712469005,-2.8833319684732084,5.964704978022223,2.3426470181797385,0.1751941013422807,2.725197559270936
-2.376169838244669,-4.421187269934101,-0.1913213519985599,-7.176737950281982,5.5665511242267485,2.490970988710749,-3.591433732120513,-8.349184382577544,-0.569386831867548,-5.117195050696989,4.359119059428296,-0.6056150668411762,-2.4504223143886668,2.1413807289050237
-4.122980829416958,-6.01994576461014,-1.1523799567869517,-6.321519529829075,2.6776343388956114,1.0707235370060486,-3.009451436256078,-7.252857859279226,-1.601285270601621,-4.025678575158331,-0.8942320499222949,-3.9437292457680337,-4.623532810929586,-0.5537245307577185
-7.008108334116376,-6.774270291015604,-5.268942021028519,-6.324091923500143,-0.9242624598131072,-0.3251828799905141,-2.274897527779631,-3.610251380927359,-3.217047178654191,-3.6431922994656696,-4.608982615522033,-6.5273851210937455,-8.14094651970216,-4.919446194652534
-7.0186029322806425,-4.653975985667969,-6.680857025651924,-3.3614071924793825,-4.566216200610452,-0.491313231670146,0.0416895321543159,2.977569079528398,-2.478794993265828,-0.1141941102889697,-3.874829943054797,-3.821087228201552,-9.826663967373973,-7.503483452757838
-3.984549730462368,-0.7979538529389526,-4.069924796891776,0.998764193497866,-6.037733986400743,1.276499792737983,2.6463538075735165,7.777563856007854,0.1277963254817039,4.101254594281613,0.3218715603966,1.8908150185172543,-6.856405916816929,-5.82055463925367
-0.7834925383393726,1.3169479961781314,-1.222399276495742,1.501929019830924,-3.2349843504056164,5.027019632371604,1.6185257437511096,5.772684993068237,1.830557029854028,3.9927351734446073,4.3438039933567625,4.846932056489544,-1.3664624567013277,-1.2392840089034756
3.602253434513082,3.1418554051450363,3.577333724922033,3.2481189251483773,0.5461992566914677,10.108640590458736,0.7830821037684677,1.8979258378273445,2.7119107266099545,3.575315030542758,3.8684945757319698,4.811493545296444,4.479736280845064,3.0721476056908403
7.610172588237674,5.648261925819617,6.557978677954889,4.858375741461285,5.131727404157106,15.26419502239165,0.1456612351425404,-1.9088514480250849,2.0229563325599864,0.8104586360024502,0.6313032345344083,1.693162808750844,11.380754721315666,6.7606077901511625
7.5229179200858685,5.774021930082063,5.255386848828448,3.824169127061468,7.645552930009761,19.020924888165997,-0.5962504758246099,-4.092105120875537,0.2678858368045649,-2.8518805067311783,-2.6491720421951883,-2.4762581240911934,12.815816508211324,7.128765489085485
4.456006352017746,3.4876780636577616,2.726435461460877,2.696582060883096,4.962077830360545,20.368589812790155,0.0672338219616303,-2.905797293787705,-0.8859737709818083,-3.030660151326434,-4.290407910362029,-3.84619162495492,6.740656752281628,3.1748097117450573
2.026409551758989,1.5190323349998422,0.4450324117795448,0.8116126172646426,0.6215181378389021,19.376851391492146,-0.054076833487445,-1.4638426498850723,-0.7932276632775092,-2.0622694306074525,-1.966506117314116,-1.607276425229841,1.8085720497953817,0.3161420150615547
-1.170949971458502,-3.4647049017032407,-0.7354654153063498,-3.176736407807556,-5.477050860620606,17.27483471679613,-0.9379506720356596,-2.384830482024247,-0.6220815376829985,-0.4520760510881894,-0.9116518081085824,0.4925852440079762,-6.509045415024139,-3.5773430266844346
-2.9264982539782154,-7.199452063280009,-0.3757861418230913,-5.771835552853806,-9.411719175122558,15.81747020760184,-1.2214052853347808,-3.395532813051957,-0.4755644963732361,1.2314011962375957,-1.8587162182132824,1.2722296921938825,-11.880093792627656,-6.279842135471138
-1.8578396541397797,-5.645502260933591,-0.1045206617942791,-5.408737933190281,-6.9039229555300485,16.279111999317053,-1.0583272934657293,-3.16697130480782,-0.5482286999864856,0.5007937604348122,-2.246552274078968,0.3948021683089366,-6.884407291251533,-4.348245675125152
-2.0163462554144624,-3.205311716950616,-0.4294443985167342,-3.250811804103333,-0.8426770891280561,18.69627333013208,0.0754904252274826,-1.5957363015840331,-0.5627196335370248,-0.3931357207453149,-2.9102207816646706,-2.139899151262268,-3.120509151651877,-2.3937129145961724
-1.3355542261424378,2.6226399086435546,-1.076015532358943,1.56537432608116,7.927275013814848,21.82187851648327,1.973224535486142,3.355990244091759,0.8858104810899802,0.4028773426720587,1.4663165769270312,-1.7188777424764607,4.17368672107002,1.4007238730771083
0.5275843890279995,7.545852412019449,-1.351263780851348,5.938287944211647,12.493473283634174,23.80622124133356,2.946018693907336,7.136414436474017,1.88712721436316,1.2424732048403802,7.331142256853359,0.9869534205715762,10.82958642355324,4.948090093758252
0.9636626001336044,6.097096098543366,-0.6626898843452594,6.554896459857781,7.76083578563325,23.21093872789009,2.3996296222465685,6.758016266593216,1.5914329524133646,2.072631776866729,8.259371154099501,3.4004639788580544,6.932310310739336,4.428858370443889
0.7790623252944567,3.211846206454643,-0.6872783573066208,4.788932579183981,-0.9206054750969,19.792001591426,0.7286941927575705,5.7705301231337165,0.8475662240882184,2.1544415555873635,6.935459330594078,5.6441006544755945,2.660999553044665,3.520813489740451
-0.5160644173304594,-1.0430485653368813,-1.228753476549553,2.821113604688528,-11.421252941161988,14.61538606282497,-2.178100133080417,2.800042797445668,-1.5400394186512614,-0.2804270654500993,0.8351465804581382,4.593528211103841,-4.017023984426949,2.1929708982595697
-2.5481712493830204,-4.087731278736621,-1.5445621645939305,1.002962200401989,-15.26287514440443,9.444574017428405,-4.411275402026583,-0.7635763064037312,-3.1305054224697995,-2.689025080218697,-5.925998930591812,0.7287858397967812,-9.957891878937945,0.3238079798529784
-2.436528014953646,-1.458629952561166,-1.0140669279453736,0.6764279705862871,-7.059131802484192,5.784840232061423,-3.9299795832027193,-1.4789101045855386,-1.5851983263489111,-2.266437158518353,-5.767778334778565,-1.666041388969481,-6.662403946423152,0.0860796047370818
-0.3397863391089704,0.2228686676407927,0.7475414569350073,0.6393819160321668,1.701053426512284,4.181990957786386,-0.9974208425395116,-2.292910179510477,-0.5106544452178045,-1.3079352545296348,-3.137474747957672,-2.790553194327398,-1.626222508061423,-0.6062114652896731
2.59937052884916,-0.2700888619343016,3.295035317047526,-3.161051124829177,9.355389535545504,4.155852666196289,4.514258689422229,-2.9303317780138776,1.3805890768806957,0.8555301652560178,0.7189371670535676,-2.3122391743754656,4.584505679035818,-3.0798070100826407
4.632465910814392,-0.5029906738281832,4.6618557374786,-6.199977176459616,11.406291646237108,4.670589549540772,8.756959633597923,-1.2260534997560475,3.4870442126528616,3.305145006574018,4.365079172093637,0.3180176359285377,8.655464993631194,-4.128139720650958
3.169361196990561,-2.4397361358900005,2.8095192712665247,-6.048013919934792,3.457469195254504,4.736564650179275,7.124864582534699,-0.4127900829130546,2.158671600073668,2.2363837356613097,2.478258177242326,0.9809669632941244,5.002966472409376,-3.4100944580171992
-0.9064024242351864,-3.137511612283509,-0.9861588581254036,-6.239136223808514,-1.804852873614465,3.832638696027871,0.1512840584385804,-3.043069214784507,0.2772218313494416,-0.3055491864687719,-2.8367195467684763,-2.458506837474565,-0.2168584908891612,-2.942048197963466
-5.772847599613186,-1.681152653241767,-6.310343906316337,-3.228907246382771,-4.782552174814,2.093871662945883,-11.002347066490302,-7.321152979787244,-2.869809212175501,-3.255699986207418,-7.722097437589314,-7.268749143168498,-5.824105192332164,-1.230744456740079
-8.208610697228828,-0.9148079460897272,-9.305062167463769,0.1358345252870207,-5.708298226719244,0.2759283681178832,-18.073222549889145,-10.654504288646605,-6.144359038096969,-5.442801294977373,-9.868455171217423,-10.126859696501588,-9.031368811658288,-0.3183049935814319
-6.149020985852125,-1.1174598550539787,-6.931757473498346,-0.4226447987611059,-2.0239246173915326,-0.5993049257756091,-13.802955241493835,-9.505107180210608,-5.876410744138656,-4.813730893204052,-7.522486086625299,-8.391911141545362,-6.648463631044818,-1.8259466044898796
-0.5639994462758758,-0.1130233089153572,-0.9563299483862032,1.862514308347959,-1.409281814895439,0.0695190895999804,-1.651032390540365,-0.6088620478575113,-2.0471846726586733,-0.5244264090812213,0.4101147450373498,0.1221877201882704,-1.2160221433144094,-0.2624918351326867
6.263077071007885,1.825703943902228,7.651849575395661,5.08792841998751,-1.5589408429143434,1.8206242371865533,14.766293795402715,12.16459542045483,4.323286685166846,4.881165741379378,9.290476086296424,10.96729645693316,5.473976569131012,2.940794474493256
9.486655224054262,3.2932845721565056,12.202427581875405,5.447344499045234,0.1265825428342561,3.1608675603521474,23.511769442372326,18.9769741078638,8.69098925196049,6.968673783680036,12.463667271493057,15.486442999381689,8.870177487535333,5.041171465544095
7.5891390438905635,4.642072537185853,9.073112212305055,5.525356963614604,2.1096126913032007,2.507075001064471,16.472629457320245,15.564116069254611,8.117547827990725,5.683214931890088,10.101755067764962,12.090675710960555,7.258129319071414,6.865559181258609
3.520782117440735,4.520461533515826,3.083245217954058,3.5136278240280685,6.431194553595355,-0.5884209000893628,2.523815131019534,5.494507944598067,3.903791629260347,2.042153787595474,4.558520082222493,4.476514326925454,3.5055312911319856,5.359338882705542
-0.1329253270203745,3.0619712133567494,-4.146112460365647,0.0739806234730947,10.73994328508227,-5.02104523826169,-12.667531900527042,-6.124948336216868,-1.3658987124989257,-1.7785155856668269,-0.3417155410282846,-3.380650658155961,0.0959479843177486,2.4861323835920417
-1.3991729814746612,1.4254131673967785,-7.519500833849785,-1.0567490736099077,9.461127426659584,-9.055324175015365,-18.985795322851036,-11.301746262620414,-4.129644416989136,-2.678114270262829,-1.2863731214428684,-6.210053441798551,-0.5714155055379061,0.6045110874075144
0.1317845624003819,0.0110833551280841,-3.5763082252973395,-0.2083022417547748,3.518201862762241,-11.91303446341606,-10.04471264070778,-6.637333741214991,-2.4194402185409385,-0.4397551315294007,1.1355345064312847,-2.89445374772379,2.535416662583451,-0.1806910571580766
1.493789570447592,-0.4763285017025416,0.8961113389982569,0.1960064787392721,-2.551341919876872,-14.633823501646267,1.8349182429677424,0.6434556964909387,0.7149742139502173,1.3338753573777211,1.9227736910242197,0.7605496703588311,2.8870278851374085,0.4711366168412233
0.2984856188119104,-1.3077424461113798,3.9260189060173034,-0.591849232727321,-9.14907390536963,-19.32102269255361,10.91585971366503,4.695728978283205,1.9564312840107705,1.6835238965146648,-1.6818407708435894,1.676610877060433,-1.1869771212416027,-0.4575766774729511
-1.891957751666064,-1.8622576946234752,4.178596207196471,-1.8759388978499223,-10.1755894280132,-27.249083236313677,12.911780903813446,4.07860881752524,1.3207103472897446,1.293948534343368,-5.479439307273092,0.7125097691186548,-4.707192285249643,-2.0394971832714144
-4.4244170107248735,-2.29761146575227,-0.5559793936335897,-3.377202967080405,-4.883058212842226,-37.36208421653119,4.534957695626926,-1.4909279506116746,-1.7365789433304994,-1.260802440485254,-7.932337099158764,-2.661781076743479,-7.610162050173725,-3.950046825278797
-7.783656088010196,-5.135324920136609,-5.417896785878872,-4.401205170607025,-3.4965284630595885,-46.50627596881796,-4.4442194899359,-8.258438098462898,-6.369177340749591,-4.767633645242157,-9.653208735388684,-7.548530912262717,-8.23302744508365,-8.635084491077393
-10.25654988469434,-7.931296686105132,-8.796318769582939,-4.030075547335229,-1.7927173164148624,-51.39665512770974,-10.003616451869023,-10.799411947603687,-9.14045498085206,-8.271392704005047,-8.662321822062001,-10.94701244073975,-6.29003479537264,-12.449027533617596
-9.033803317426615,-7.599808974923625,-8.323594114774842,-2.325565998576048,0.2073625143188506,-50.863939593796125,-10.107226307755518,-7.829530440703266,-7.733286414803524,-8.989633378481372,-5.524863977357131,-10.315829323197022,-3.754296385797156,-11.44332350426188
-3.792550651246491,-3.889189690700335,-2.544374603209731,0.1402815075302103,-0.4357000033856748,-46.57846741640863,-3.569148326893617,-1.596696989467957,-2.486831128688144,-4.324131891752047,-1.5215148849537,-4.756616855055341,-0.8626628163559193,-5.64878679779975
3.149156359170066,2.8104580938273176,2.857757530923841,2.7653818184179317,4.054096316783196,-41.61516779523463,3.348446574084313,4.7650176719328,3.619673493983999,2.2545228828743458,3.4019318327336987,3.240370721779525,2.6914574612503324,3.504924299498448
11.958164278331845,10.92800558762561,8.453779414981456,6.186515482489043,8.328311105991009,-38.04471193079932,9.370358306320552,9.180091819904243,8.82071020177599,10.228206863894163,9.821510333485593,11.9327956307813,8.7727832016528,14.107565167493927
14.551526032065508,12.877140526823618,9.790338731472032,6.627322451785089,5.920598328600952,-35.627727256940666,10.15122326204287,8.191729552380503,8.541136749828468,12.748967624816352,11.766747028399683,14.277693237193272,10.62305140753144,16.747410693770963
7.906320488181835,6.654972972411235,4.213300632011956,2.6461337333845814,0.7281627696216924,-32.72129288715588,3.6276084401551087,3.315605193484859,3.102838990493266,6.167116770809316,7.440072179688344,7.985083970142764,5.73616063595283,9.40402543392147
2.4440554791615647,-0.2409619009086793,0.7449112603988861,-1.1630249533150243,-5.395434640600304,-28.431027597135483,-3.12814916797859,1.167194488834204,0.910387179575871,0.1566156004479613,4.256463961492739,2.3893306016004177,1.5910194869611372,2.884606779898277
-4.596305643826738,-8.572784651475567,-4.0092220472961415,-7.600638845345839,-10.371604539242558,-23.807790019768237,-11.568195415425526,-0.4700742749746349,0.547951439349574,-6.553500549989567,-1.0461624180992422,-3.268102292950051,-5.856628404108011,-3.942358827120936
-8.157783160334022,-11.776703480874623,-6.996043459000494,-10.839095398101572,-7.9026266858784755,-20.79665529011031,-14.971245031967111,-0.909261876235088,1.7008939466386408,-9.275037922355963,-4.836310821602813,-5.769147429820246,-9.636749821130016,-6.533735365828792
-3.4275664531452805,-5.827852337932284,-3.465412858162781,-6.073898254563794,-0.4702133033159228,-19.919876382860963,-8.177403206189702,0.429082081112442,3.477359523269179,-4.307854572407774,-3.2504038512486666,-2.593146271203225,-4.58661358966109,-2.0504157872944058
-2.548483710871557,-1.5732125758359243,-2.50235601858388,-1.7322960945268655,2.2402169766306383,-19.07727485641548,-1.0688916110425333,-1.9761937228346704,-0.8030609213044453,-1.62927018347515,-4.016059532114714,-2.352109218050788,-2.872444139250859,-2.3776182779484256
-1.6904283850444917,3.197957876016478,0.0075471432751585,5.562894008524532,3.571151333469872,-14.89974090074814,8.855757514215737,-4.858899309160292,-7.440737075100426,1.3089353194507072,-4.558531630324597,-3.138481353920916,-0.0090351817409568,-4.93849505193601
0.4868707206570573,6.580490343222189,3.576181360423641,10.634122007978014,3.102755212382939,-5.649112444652632,14.725720928973027,-5.296782138867682,-10.67036578283906,3.335657705315688,-3.2171588438791976,-2.4331364477096185,3.001005956465456,-5.203803643715788
-0.3818595422424726,4.1355002037009045,2.673453152805541,6.852729931729846,0.4193363641077028,6.91445335551515,9.277815120250464,-3.9639956649193793,-8.619461212253512,1.4919814788237942,-2.023801178091042,-1.4956087827623217,1.4295739222714148,-4.068522904329429
2.3806712553696223,4.311247090926448,3.531695143518616,4.417278470091235,4.97673958700301,18.445616227816014,4.847508240013362,0.5943000711559416,-0.7451380254703419,2.9145359111076905,1.805606452932384,1.9023694417636776,4.901558508554231,2.291717387104839
6.032727134907662,5.131965717774003,3.8317637297712297,0.9312462794028792,10.254871450727084,25.01904379879774,-0.5221372343984569,6.452657931632523,8.660422816117684,4.998628943226151,7.969575489372421,6.563070367667024,9.65712368727047,11.748890038894752
5.737350176516481,3.3973996871335403,1.7906034054454745,-2.528549533553498,10.033952062174375,25.756237688889463,-4.778778980371575,8.743433292732144,12.41304363340716,4.788972438144617,10.516704405620867,7.3354345932129315,9.569175917845785,14.606411387890375
3.683294511314793,2.2132180500720264,1.095888763517454,-0.5030052876319937,6.213272409772172,23.02441590241631,-1.679773448100939,6.319330424450753,8.41279898947883,4.141904723683086,7.543301662487392,4.082344696158136,6.631056148437839,8.784750299180022
-0.7872551347330764,-1.4802093312786402,-1.0149560766493255,-1.2980973499875808,-2.997847239579997,20.28441805156177,-1.8245704323041263,0.4020374649948317,-0.5861801236475486,-0.8920552832404841,0.9499363946242908,-0.3977842578882417,-1.6852816073139745,-0.366433411079041
-6.6501285450192125,-7.154046709096926,-4.363120569216532,-3.868979131187562,-12.52616637648231,19.56325965106033,-4.229192226384471,-7.498136991774053,-10.613550372197126,-8.472816563926807,-9.617727044151316,-6.262886820709982,-12.873772885156304,-12.038778668740903
-8.452126086973976,-8.336390874553219,-5.311683754457851,-4.205869016487697,-14.594498453886033,20.607980096601658,-3.700267430599472,-10.735135127478408,-13.716674614783006,-10.90395559993656,-15.01062675643822,-8.075175517646832,-16.296991306042198,-16.680202428910047
-5.559256812578819,-5.486415558493109,-4.11565802333369,-4.335935964730337,-9.837495371313205,22.104206477804016,-2.9129194279956097,-6.464954505968326,-7.202035653879082,-7.577822674844465,-9.973725422747242,-4.3176482567573,-10.459640299103327,-9.752674597465523
-1.33381414879513,-2.3161823346522112,-1.7003531587353842,-1.7608276204021902,-3.342365116345344,23.46998693019741,0.4698715506513353,0.7840833895503284,3.6947616825160097,-0.7836715284035831,-1.816361273010304,-1.2689658533396924,-1.893338807034104,-2.1296277358127966
4.241517225149794,2.699389394835387,2.435062207995465,3.333192288402506,2.9998526550019142,25.35363445465236,6.6629158733645895,9.103599756593782,15.841316364499171,8.660762432115499,9.100989182723028,2.59537278178318,8.451969874056337,6.720888502963591
7.218711514323739,5.323348721287882,4.951413702719882,6.019959569268095,5.928956755902687,28.40497198000912,8.664895755532719,12.17656552608629,19.791935969689582,12.583875048521264,14.670553152772818,4.626571809063297,12.507305535232188,11.463424133787948
4.649368101350207,2.5921144675472974,3.5775524239811647,4.758490776743674,4.145669077232313,31.77401575695144,5.190946118893142,6.7223004877133485,10.852698586728389,7.104303768672684,8.369862344210476,1.853423178622038,6.150236282446329,6.190846964921029
1.0653404948781893,1.7492629851473669,1.3642488437517737,1.7544761389095629,1.699435575867041,33.2135484787224,1.629943167986421,0.1303882590264082,-1.0786217537133385,0.3085473389117554,0.9853261434589508,1.1128005279876567,0.4735222037752423,1.6286490542182783
-3.331567414203953,0.5450818483941989,-1.5248425883784145,-2.3073601333457505,0.0093518801322674,31.057310067026165,-2.969859201374585,-5.924969382496688,-14.106847991232756,-7.314876184249236,-6.5923836343085735,0.2856054910319168,-4.53047306042064,-2.8943916001656835
-6.365217213409481,-2.0729930204005957,-3.82019283136994,-5.21990028129352,-1.2694122855357346,26.221277805436728,-6.160421851512393,-8.559337085087828,-19.899259289415006,-11.117396318572949,-10.898775436859424,-1.6811849954631657,-7.154503071200997,-6.66006896691329
-4.217174394107396,-1.439456527067695,-2.850005465796006,-4.230671251605509,-0.5413776282581758,21.9930559811278,-5.04714857090574,-5.32337852843643,-12.142988165845118,-5.797696751127283,-6.2850356489929045,-1.1322301630913068,-2.861463344181697,-4.154804337392196
-0.1085127475096187,-1.0802966551167332,-0.5359718842765191,-1.3812276325629758,2.9185333213418483,21.38608065300477,-5.488944873437473,-2.7939511368084893,-3.4942323097693984,0.2097143477975444,-1.3776562007040192,-1.268996825842187,0.6941436092666546,-1.427182128768126
4.337430491759651,-0.9106339748698,1.7207084155206085,0.7423696437160047,5.594832321830372,24.376423896552318,-7.53175827673553,-2.001368323554217,5.021172946874176,5.884941220879501,2.600996306465392,-0.987448713610908,3.4271464401732525,0.6134861706741767
6.686912238757815,0.7882847630577857,3.3093097292351064,1.9059259196890104,5.895751421508308,27.75373653447069,-7.07015068387586,-0.9578700076283038,9.945699409022636,8.803051628521487,5.482162199332255,0.9929712921753552,5.656219913180387,2.656564246883287
4.017040990448632,1.4384446721172657,2.6453310620119908,1.4242491360712404,3.6041827993076256,27.94638691401167,-4.44358632519294,-0.5914407179539353,5.741377929676415,4.936165896807532,3.6890334987594335,1.6334162812952635,3.900449725771668,1.7213347742833849
-0.820317622529537,0.0565650411802032,-0.0701084649536184,-0.7821613062375843,-2.1860192577070894,24.254293734879468,0.4963740993253029,0.9581130618992778,1.4414219784880853,-0.0293853221293379,0.6397543770983404,0.9842701900123956,0.5571861457579205,-0.6743504530419869
-5.056905012518884,-0.8156689062421758,-2.283235419534302,-0.6112439747791216,-6.98988255858459,19.404692918029312,9.786654537605257,5.037764842438278,-1.4125971935550097,-4.6876880970271815,-1.5449650302549185,-0.1804737328637451,-3.4767332248504075,-1.8183447802816344
-5.848573308532191,-0.1416374529328987,-2.73480609255088,1.3777908578395794,-6.991700581341229,16.872011696351727,14.933177939465256,6.432510235140839,-3.268576817663904,-6.682913489810883,-2.690727417549448,-1.3706768982657334,-5.950220325850959,-1.0686868019913518
-2.271562606009114,0.9540625697469828,-1.558970909426198,2.3284353872048227,-3.70699724701481,17.537456974732457,11.161654114115771,3.904891047959999,-1.2113415150776805,-3.8497899237514894,-1.542610883396223,-1.1751353597932257,-4.363549306675424,1.2689991974521275
1.6710877562313966,2.582925418271965,0.8135257000026275,3.253499573133909,0.0389163567388125,18.899535501617848,5.6885472438093245,1.6971930778268671,1.7793783864401207,-0.6250331895211687,1.317094729930519,0.4901759445351035,-0.7266948217306831,4.178336587586769
3.800116124804769,2.440078179970155,1.520253064348552,0.7924805687335599,1.5065863955546082,17.556558783210157,-3.993683801107923,-3.138023970433623,3.0004558811457005,2.02087002219162,2.929199020755899,1.688973988396841,3.163168328665673,5.308333989447284
2.6888181762086507,-0.3762440842516058,-0.0435285908949775,-3.4664639271955124,-0.1174078070381899,12.524627048321843,-11.104885404780568,-6.552362595418259,2.791601126968761,2.82060316467591,2.33330920483218,1.362027622568149,4.333178553702221,2.9109636190645403
-1.0055264126310155,-2.89979410124329,-1.9384365452432155,-4.570582832625318,-2.4024905846654425,6.210350799251305,-7.585402863237735,-4.173088379721058,0.7588716787723242,0.2629204010480513,0.1178722082697086,-0.0655927432128012,1.2390756898064377,-1.3413135586056266
-2.3854501034563547,-2.505814545411659,-2.5756467718235108,-3.228314154134389,-1.465797150941118,2.177472617565975,-3.712762658048245,-3.030313295396651,-2.434093386042672,-1.2160096196467545,-2.227807056666047,-1.406303354018423,-1.4096260863772112,-3.1742598928167918
-1.5220497733312222,0.2394374953328212,-0.3489183715216575,0.9979712276458974,2.774458396609468,1.9109701438808584,0.8522516332103305,0.3776531978762365,-4.204661538424662,-1.3888701957573273,-2.37016259891385,-1.260568549399389,-1.864911653753598,-3.3771623500511727
0.4957006677294788,2.960148061715451,3.074135179673475,5.086706925264357,6.051539421083585,3.626923327339007,5.08589102190422,5.17735720604211,-3.383944922387587,-1.000248599366353,-0.6205147474979518,0.0635885976376254,-0.6100485981655899,-1.872195710542014
2.801821259760423,3.1781079102153136,4.585950764229314,4.658086009806032,5.828112080818314,4.103497240439037,2.566985533512248,4.705381548557857,-0.6808781591651215,1.3169014270416175,1.2005014159735876,0.9935170890155904,2.082974824620595,0.8519804593549564
1.8013312810541846,-0.8006280755215056,3.223505532273086,1.082755160377527,2.4416499968442427,1.6263833657840987,-0.4129518703216683,3.4018324325037708,2.302640618543287,2.866043144607401,1.3597736835335477,0.3641174369605348,2.317806564662109,-0.5022616442017097
-0.0697850710305471,-5.750692023797502,-0.1743327705724336,-3.2387159093106828,-2.7199165189709293,-2.7569473280876258,-1.0422496142447872,0.4888664642450638,4.625155415578787,3.768867889157855,-0.6406126932946798,-1.672225526976223,-0.3492252351013493,-2.067784484458297
-0.99231482338273,-7.239035055557817,-3.1214115496039567,-5.352593432808708,-5.164254101648934,-6.662478003346713,-1.2390389376401485,-3.892275168112216,4.248168395761919,3.5565001635815907,-2.7791826677608467,-3.198194184061689,-2.9509893710763606,-1.914590582474992
-0.9762515187192172,-4.143652100773442,-2.8606748041636907,-3.0364294292966534,-2.546674975747238,-8.830640850559845,-0.1763002622794908,-4.72115930248946,1.2012734047065738,1.2505490972646538,-2.70524036033483,-2.4835714632158785,-3.313131441029225,-1.271725930289544
0.663870661568932,0.8142195390056138,-0.4686466359913757,0.4224547492816821,0.1228249337102517,-10.116513945330423,1.4312921656629458,-2.294626676424615,-0.9245305464821174,-1.1848717396657482,-0.7550410445479356,-0.4264434213799027,-1.395715166686326,1.8421931333495447
0.4901926673960206,4.281027334462384,1.0821867379104178,2.003780561464245,1.334791334838132,-12.141595239377253,-0.2859499901803647,0.1651311232047942,-3.2194732146390628,-4.639217889769343,1.7915695683837374,1.8802934717104272,1.259633897979739,3.261848814825508
-0.7996672802466778,4.594221738264734,1.4929942903155693,2.000370475699733,1.3334170026401988,-15.141963324249913,-3.083322716753768,1.9300622510405605,-4.067751777539484,-5.627955376100887,3.4328007441003674,3.403279596031945,3.1251530123192,2.114864550190865
-1.334360508124267,2.252769473486512,0.3997453769287263,0.6717658451794581,-0.9916176126273594,-17.325411887716715,-2.4969139681440717,2.762636909394867,-1.7582856745616866,-2.5773750056426548,2.822865794076804,3.1968207600296017,2.4784558910836623,0.6779494670189
-1.972410374569885,0.9095624583009584,-1.626037322636172,-0.1565984808349201,-2.1505964735751397,-16.49454499461183,0.0734588998870446,1.5509413891792607,-0.4720193562450739,-0.1616801789948201,1.3672416245769807,2.6002185546609327,0.3659158399602155,-1.316277786938591
0.3377660114616259,2.4600900560198307,-0.9306710715638974,1.5813472565005904,-0.9421129930521012,-12.396339409866442,6.367823324907977,2.892138324400892,1.9754558551478736,4.146203110422546,1.1265571582515834,2.853439055798709,-0.0064899348906062,-1.1088221835277057
3.2547702958131675,3.69774433505274,1.2024876178985773,2.7224283059388226,0.2267994167920855,-7.464302884585152,11.322800510217991,4.89940624899169,4.507248293692383,6.851760080935957,1.3519530441125511,2.4697258130157764,0.6195410147748722,0.6040584032634405
2.80528386828094,2.218153337783912,1.9607863044602147,1.1046365113070928,0.2617599914207504,-5.076310676520702,8.735632942476812,3.985303662305247,4.063065223539788,4.418564271871851,1.36409079188184,1.1937152252107643,0.9884938150580266,0.9297308590638264
2.0634428430333074,-0.9166423388017176,2.70274739449555,-0.4137940024183814,0.1690649032670735,-6.771138703751138,2.010874511624329,2.394494099051073,2.706576629950264,2.500581552961391,0.90667987697109,0.0840399739245364,1.2349317818342729,0.997951354286546
-0.5400474573864842,-7.03256023611765,0.974527126872912,-3.210044283839,-0.5515448125344864,-10.896868611015122,-7.928415178979333,-3.2184603571044312,-0.8641426889219248,-1.89974734343786,-1.4729420602829033,-2.329236347031077,-1.6193425312924807,-0.6650037281191902
-3.767221596544774,-9.873021421493693,-2.6457247487760034,-4.366548798948924,-1.182437223453351,-13.960308828411977,-13.804490694070218,-7.921875547462008,-4.574414610876904,-6.423674648091885,-3.4202719691894274,-3.897195033124221,-4.656716307761609,-2.859814728041091
-3.3863196638070776,-4.8317467439541,-4.015776548278206,-1.1778127173466288,0.251619127472219,-13.582016955948088,-10.502857691615644,-6.942351717197763,-5.128183298696051,-5.843323493865003,-3.338749250909009,-3.5520394133041617,-3.925640063373861,-2.414662062128172
-2.398186810134604,1.3953701544315091,-4.118760121440895,0.4936671953154272,1.879724497567434,-10.524393094122049,-5.129477055814396,-6.090114874094861,-3.931785308424897,-4.715651607719765,-3.6799741939886297,-4.9012026798397095,-1.9387975347606576,-1.1375751396190823
-1.1195558330936324,10.978127123572587,-3.1136150152965776,2.636013015035504,3.5281817318322752,-8.02115180446977,0.4845561837318354,-3.3579232238193875,-1.779002544713944,-1.796784844621082,-3.8579475821994818,-5.916549122919279,2.673694350632529,1.44359931814486
0.839746689941251,16.207369154911106,-0.4805443326910394,3.918432877525275,4.1341408273865765,-8.958317192680909,3.741980985185691,-0.0068205275623874,0.508049094659871,2.231610425024746,-3.392653851003389,-4.789947931410145,6.142242921698797,3.673686214520055
1.241639249312852,9.796668480415056,1.1862912382786248,1.4766979424080415,2.3148456545304925,-13.33382629289143,1.7229429550136268,-0.0171791427030744,0.8185625689835342,2.303185084732746,-2.972825742104776,-2.853959337878413,3.5174054745252468,2.5699041433887597
0.8539324578692702,2.35708451470265,0.8726029419518946,1.10860952385535,-0.6430697938191335,-18.199880484306146,0.438913848096679,2.0650739785243086,0.7219484503083003,2.007202362402687,0.3356758958941481,1.9700571726623533,0.8233612945678128,0.6912207335896354
1.2433985270138843,-8.910079611706294,1.369091700538661,-0.4928108456986572,-5.077608548117047,-20.136386267690504,1.9728693204939347,5.4047204739063375,2.6998755740016245,2.666019814632356,6.032612309923877,7.925681540281188,-2.5818331968238386,-1.645240407583563
1.288337066562474,-16.861145470203706,1.9520579287759752,-3.086391777597868,-7.1077209927661125,-18.100406833859637,2.869560289728553,5.358258435521028,3.4804246557519045,1.4605691321605672,8.584611778464353,8.798330575455344,-5.425672402213719,-3.0272706261429274
0.8918276413116282,-12.168432520360753,2.104754646850988,-2.586166304856897,-4.612601980797862,-14.210260071690051,3.406291212082722,3.805555473836955,2.4488816153306248,0.6560125165884456,7.003827815731975,5.457736367926829,-2.939943002125724,-1.2914789266344853
1.5431848383130875,-6.777924556193407,4.167712840314244,-2.792668480180012,-0.9700072222285128,-11.890787343784044,4.339596016781286,2.0752166432473853,1.9227475640281244,1.0193899993039903,3.491046056324524,2.4874360063590206,-0.1573671556805511,0.8244356164360814
1.317256826944066,0.9267647642966066,4.415478093371582,-0.6864229650277194,5.239149511160031,-13.106757790890205,3.26746006270504,-0.5448157501699,-1.3225447282208234,-0.8041174673607938,-1.380689483618403,-0.4329720252640957,3.153151528111123,2.6997792728288803
0.5948241687258842,8.105905276211281,2.07334348721443,3.250865375964366,9.020950084164689,-17.054152121641945,1.89683734524128,-1.1041621324399578,-3.753147464199445,-1.80244553055708,-3.474638316421037,-0.7571913988415272,6.157720967760064,3.425862326667586
0.6357593362334792,6.496376819560126,0.0429060007869418,4.056238901691031,5.705444283080034,-21.189113935765725,1.1759672766256413,0.1634693593678448,-2.130735581671701,-0.2849442439094063,-1.146321266769282,1.6715079905255734,4.933611112045918,1.909071147522728
-0.4643905590956682,3.679871652019616,-2.7998792188886177,3.093127935664383,1.3514899854816924,-23.36359891531396,-2.135424272703069,-1.232218299868634,-1.9809813731865775,-1.3045099873497417,0.1956393398407197,-0.1687983676590101,1.5002999933976306,0.4491847478539179
-0.9623453333775602,1.425774463314695,-4.4009250928816455,0.4264090449880999,-5.190736225402137,-23.101215050597595,-6.275959464657057,-3.570271951686423,-0.2364203187525161,-0.9766612777300736,-0.0721494466605408,-3.8495595868339993,-3.105745544600995,-0.5474282769257207
-0.7265182888549677,-1.4645415167778542,-2.9217113638266667,-2.5849217469731807,-9.720830912002835,-21.192040691035345,-7.457769193069645,-4.215819933945321,2.6196294532125197,0.8249370756062033,-1.1219999888201737,-5.119439171369407,-6.016724853242232,-1.4316092118375046
-1.4626372001080614,-1.4124843853843865,-1.3586406512475866,-3.0666102293709487,-6.08698662966328,-18.474523247269005,-5.268189764741214,-3.2024132667964,2.2162789794065905,0.1362646591263101,-3.603584409077421,-4.991800378991725,-4.781708806565031,-2.1583086375150096
-2.0949295125191885,0.4195499005357797,-1.505362169159382,-2.2506762245636107,-1.036187872600956,-15.201287119394426,-0.5927092388650214,-0.0117701494439665,2.181995215944544,0.9765406435721932,-4.874295180065394,-2.356808973491578,-1.9171174394489576,-3.892821408534992
-4.236361309751158,-0.9581391786714388,-2.6634670105650264,-3.3087018069869387,4.8530255094906565,-11.42626930132646,5.661846287456718,3.6498385173797576,0.3263001702749378,0.418048168167513,-4.838189349170776,0.1075089210130904,0.2362680911318319,-7.024705872874399
-5.85755243267769,-3.0100937641929293,-3.979527764495152,-4.946662048145859,8.219428433300664,-7.631958748609687,8.104054858020078,3.875083911532696,-3.6098467273022026,-2.192748280317005,-3.816598050450556,-0.3767058117205759,0.6393524846098887,-7.644229154521042
-4.081085572867039,-3.917154855712302,-3.751253371244279,-5.324965547408032,4.309760479137936,-4.67422104012989,4.857421211353311,1.0485474957424683,-4.555096996803276,-2.4551485963312394,-1.1769117351740743,-1.6187545133165626,-0.2300264131979128,-4.056202658804894
-0.8529883897242081,-3.9700833211714817,-0.1139059215244997,-2.667368915417082,-0.2089029509132868,-3.0684068850170405,0.3111094398927355,-1.6640116953287585,-3.3447787909332227,-2.446266160764852,1.0835400268051725,-0.9918437237621498,-0.7758032135621398,0.6565326176754429
5.314351231164359,1.1369738567610483,4.907633745729286,5.671274724045563,-3.7850428020348823,-2.476688894347454,-4.703085148224346,-3.780961233186953,0.18050026761475,-0.8825833752447184,4.675399987248144,3.048752401080548,1.693702572357214,7.567208507627134
9.743672117719134,6.54551679978464,7.422685416122257,12.304585163737023,-4.789057727078206,-2.016581695037836,-6.297034955172023,-2.8150731348374265,5.084804896827889,2.186964447448341,7.2681027635696465,6.995674623297148,4.719005949719167,10.89135242836452
7.922459469774454,7.369429030090323,6.5704267579846185,11.336616701778295,-1.2567354915700888,-1.0388026769034155,-2.7054565528616155,0.953410099940494,6.318228088088191,3.1994176604936118,5.863285310570143,7.026978294357396,4.427684397658025,7.160441763634788
4.861137048548099,6.362862240748212,3.7727798780664887,6.060114781255376,1.222069492688782,0.4870494342992799,0.7931993856552029,3.34613913485959,3.172599981603734,3.4209456243013,4.524177617074761,3.958274583388992,2.2218676609786243,4.587459833110846
0.0305085105967477,2.7395662254731983,0.9849868266909556,-2.718182400835839,2.1885467228416435,2.299802288243214,4.110063811687207,6.454872215411386,-0.7222161741955778,3.9395891074916234,1.099418919609239,-1.819173023338992,-2.9246200513274188,1.4688182953780071
-3.6692775936914073,-0.5550623101041209,-0.2055691156065913,-7.832651921088507,2.176793492813621,4.323076562934411,5.773003070247262,7.675896635038483,-3.5707804185820637,3.4111678763657105,-2.389271169949968,-5.248995663078665,-6.615642899899422,-0.7039947664357598
-2.1744621298734685,0.4616017555125167,0.2494461882813704,-3.760312901818939,0.5571263490882513,6.620230865623517,3.809793371461273,4.47285911062724,-3.4486380279698508,2.139597427944332,-1.6362336842235576,-2.5939038095185465,-4.147495224699148,1.253654306722379
-0.8080523327601848,0.7125762693522062,0.4635409095718243,0.8544314586565204,0.4301505907398397,8.957124914886261,1.8993537489629704,1.449190979289299,0.4702570454735824,0.2963620249965383,-1.299927587246969,0.7815317279628842,-0.5079756489892219,-0.4292214573531273
-0.7521034311486253,-1.6556975101267688,-1.7673068762592692,2.4791196071401864,0.6530546770044958,10.751352365903823,-0.9417659168387554,-5.232182113681992,1.577074509940147,-4.843198095828801,-1.2848262900770535,2.868683611990984,3.2924658789490158,-3.9688264466337775
-1.2641694654758135,-4.28267219833527,-4.327913055315077,0.5555270483566739,-0.337882168887596,11.740652301738574,-4.78581292568496,-11.209217913287004,-0.1835193424168475,-8.712899559056046,-1.198094698327834,1.9770327028773376,4.738086357992151,-5.401666800017101
-3.3645703648212097,-7.268441054455322,-5.431763433933028,-5.519732178647765,-1.3248792061008123,12.624717504500918,-6.132854258555307,-9.649931556352817,-1.1440515670333598,-6.891413687412191,-2.916810048315908,-2.8147466413428943,1.6578310048509923,-6.059757334266449
-4.770331743995298,-8.522422957614781,-6.194584505005077,-8.688405474299358,-2.560259480386206,14.646295115033748,-5.225068722405465,-6.294047986992766,-2.7156913643019456,-2.9043258567626173,-3.567246522683693,-5.76811129265075,0.0647765355174448,-4.258509844579089
-4.0589487885070366,-6.976749978153623,-4.59229150259538,-6.883635606503378,-3.3592467133981696,18.20188398136852,-2.700767987466502,1.1927559123788114,0.5820088405942807,4.826735154047546,-2.2412058432015884,-5.932071170573032,0.6873905535986053,-2.07031739304897
-1.919655230490661,-3.5457587070403944,-1.2666166215462489,-2.0977943833153847,-2.208321047749477,21.933045393611746,1.6430930374112562,8.596476862489947,5.297365420487929,10.136503978759556,-0.1801712581626131,-3.251925157670006,1.6585790509209402,-1.466694746467663
0.7171790917643243,0.5469278010411047,1.0247859613084538,2.8649667227272024,-0.1565074267429043,23.59375891387033,4.12171382135894,7.367795287078231,4.121441079208283,6.288670620431272,1.2449212870067998,1.0877357858945231,1.909306784082307,-1.01930068840002
2.2101805040821976,2.711171167739116,3.0169136324673054,3.3561260728547238,0.8763896458962088,22.15484094103388,2.797037730573382,3.8036349486368617,2.5597449181413032,1.4387219150457735,1.928910943578158,2.748343104336379,0.5441367622859781,0.4202158490919929
3.52887014478312,6.220239285523876,5.210761432337957,2.8624967873392126,2.4754015283918425,19.017043350690592,2.8033533374475885,-0.2551839055599392,-1.2682412368574902,-3.6029437442569385,2.917453930321545,4.8699624556194445,-1.4049839081544826,5.806873648597922
3.8920311268020913,8.38481115904169,5.09382984923152,2.3480255080965025,3.338030816769727,16.834831797972313,2.3422557456035427,-4.104384559521801,-4.895720664612087,-6.433206833820088,2.491049352971097,5.369259746309005,-2.651787284198398,10.041050418787467
2.7297949476689856,6.384054681824424,3.166739239536542,1.959666717967456,2.1054491091592915,16.92063754984477,0.5507581052472235,-2.834551222098375,-2.857781883707701,-2.756051463187175,1.1879494295731272,2.610826085375396,-2.305156235038256,8.049139909136297
2.8669097888818307,6.1477146980928055,2.3338622761557555,6.02704040019266,1.4233308435576075,17.897083129516645,1.6607876446887877,0.2452222468163085,-2.7010726078045075,-0.5052104370326782,0.4648961793981137,1.8318141612683423,-2.4974217523929547,3.038564908631122
1.3066168395833788,1.7720057642064726,-0.6732307909636945,7.465924852933139,-1.3562326943626095,17.16438117818481,-2.6936907304558506,-0.259867074139906,-4.461446747659908,-1.1577956232754585,-3.161302481117485,-3.3051297074188226,-5.21846494386268,-7.625160767995474
-1.3085386933274583,-4.44742272530459,-3.3918774446956275,4.3552416388212265,-4.557682470561371,13.810946164043386,-7.899866218629939,-1.7051318892804048,-4.874254741688391,-1.6994677639569469,-5.796159368452747,-8.531455016385102,-6.833409636458585,-14.903028081266388
-1.840964919505149,-5.383826868169301,-2.566748381379812,0.9851656061070652,-4.218659739456545,9.928169262184213,-5.51485205948951,-1.8267852734181165,-3.995763846436401,-1.848021715199943,-3.45021616771917,-6.261986168486602,-4.495176453107519,-10.124365627394557
-2.601175190167534,-5.801464433431512,-2.5643412068140417,-4.5886746648366366,-2.9864261413173048,8.80318022222869,-3.76531537148555,-2.499056028524304,0.1735094356037574,-0.2040615955294883,-1.9802356428425876,-3.9134389892845216,-0.5007424725850903,-2.334723440568265
-1.7010268445300838,-2.9361713652862367,-0.6018110455311758,-7.944428252957572,0.2984245789257912,11.67687206299037,4.146929942730541,1.237715123741464,6.762154025628217,3.4021236941432638,2.062267899215574,3.2730030342351832,6.289713363983105,8.598833395145025
0.6139913150412832,2.179686021512097,2.2913303377270906,-6.073025547509824,4.339916778526552,16.31218225165412,12.177003327378804,5.713921105955962,9.825575034546912,4.991966509285383,6.62720835238652,10.56883714359704,10.391253193142044,14.885719959143293
0.8390703528573374,3.1463969020096454,1.6153228908862496,-3.193291518023364,5.067702756272341,18.856397247957773,7.937664354719459,4.252693519144572,6.694815791794296,2.6450454947071025,5.187950532189031,7.933395649315641,7.0298627128936175,8.552083523653167
-0.1521849738604134,1.736632276829039,0.6632694848466061,-1.0298718997546148,4.215472564128047,17.221103501117256,2.57678829040735,2.264873635898169,2.177355421475725,0.4888200493545628,4.0126087307537945,4.028291885022592,3.9954674490130415,1.3975752681953983
-1.6627857697897623,0.2637971630260571,-0.8082540902438231,0.6039800995172848,3.1618230475162505,12.782436808747365,-6.5632521413466085,-1.8831020360467647,-1.580623059216916,-0.7867095032553679,2.0111411015414613,-1.578855334776112,1.3666889405439038,-5.047736569443979
-2.8215581892879054,-1.2209051611748434,-2.3713093060159345,0.5761807469840056,0.8826198063765895,8.954561497258723,-13.780394076063944,-5.411825345221017,-2.4277473179961917,-0.5247097184358049,-1.4448580944519218,-6.210021694650631,-0.2987790654832605,-7.83829209079905
-2.1214356440694204,-1.0001023123156854,-1.6468043639459466,-0.2191196517306021,-1.1102806555679074,8.191829301882876,-8.718486335430516,-3.380784740882979,-0.1177546879940523,1.111599335918169,-2.2564691764659672,-3.627071436635979,0.8869532770059912,-2.8134961937542946
0.2477190307615048,0.885170638916361,-0.0852239284972626,0.6727516581293491,-1.399830680794626,10.21431048687323,-2.606040498947774,-1.1449435435905349,0.7310959824456502,0.3815356679810219,-1.732745312398566,-0.4416660329737671,-0.8231026339137639,0.994724546325775
2.6781613400877635,0.5458546477349838,1.3686566994480578,2.2038914261970093,-3.3259400664593914,12.755036175334624,5.43436850591133,1.2498325675162558,-1.2554729160878295,-2.2471929849818686,-1.3155215692122326,1.5605576645248558,-5.4624406167166,3.076817032838803
3.4110970256551565,-0.7377687073338115,1.8724507672881343,2.8636964539788603,-4.003037861088343,13.69273552128692,11.878576075133168,2.826060121190048,-3.79923761024103,-4.223441189111426,-0.9817335563824672,1.9700182398793948,-7.909481798508227,3.401649582579271
2.4652637652952705,-0.9298606678451586,1.1665328340388483,2.7935764646850427,-1.86293994124376,12.505261592419371,9.237738864517407,1.897504524181933,-4.48539849231345,-3.759320644972084,-1.0987919775720565,-0.5315483989773868,-6.320918923675799,-0.215150539179669
0.7735686052338501,-1.867505069445422,0.2600764494920449,1.4879127763546791,-2.451687242325208,10.103460276020613,5.645528557789768,1.8979247516225368,-3.191737573096244,-0.4859272690117635,-2.933649113817934,-2.5616755896554637,-2.108803353527726,-3.17561738037045
-0.9600740693308076,-1.164262142053296,-0.6496591253643909,-1.3231840832448547,-1.220921929341882,7.748591429797599,0.1351451571679269,1.82516376745659,-0.7332179594471032,3.389058490399777,-4.41532940169945,-3.723941912701911,3.729484166759942,-6.624013437044689
-1.68669486258426,0.074450146010964,-1.0199235064137195,-3.4273899808053585,0.6178051842966212,6.216389401746071,-6.505124075054401,0.4957722451940908,0.939039960838972,4.608871361866681,-3.681228964310343,-3.7660807270438266,6.208988063219234,-8.233354456563038
-1.0146045060990505,-0.4740269858003151,-0.2667263292738321,-3.263611964899805,-0.5528661370326258,5.5882461658934375,-7.321560174500494,-0.393423414329059,0.7366533695742205,2.3680901807715493,-1.2141336542283272,-1.6423812860646132,3.51280189488394,-4.1582091577714175
-0.2967057730601119,0.1896780916753561,-0.1732387229788042,-1.7923104114282684,1.5316364903739763,5.293435828082735,-3.9697352021317545,-1.3871440414475336,0.3118346447153508,-1.1567288420440522,1.2972333216612817,0.1653170524928347,0.3303961803678017,0.1899419794919075
0.0956415560517595,0.7432100140780125,-0.3011001225559153,0.6886451747924038,2.019168502864196,4.175001765659843,1.519075952560061,-1.5701762348967223,1.437169367587696,-3.7214600188417775,2.872030228870822,3.0708216346769004,-1.8938606540502552,6.390034422998461
0.6133986368311428,1.0810810352817433,0.2976221529117959,2.8944158906666417,0.1587715311683668,0.9046612033142196,6.82834830652981,0.1584840565859161,2.9099110718729984,-3.183267683624853,3.024415731051333,5.806861352376321,-1.4815980601887229,10.324196596492865
0.5312349132539058,2.4244167338037994,0.2340704364753875,2.913034426327447,0.9076622054038792,-5.041027134012012,6.194134017850394,0.974401485578836,2.977086175416473,-0.0896296778351479,1.879504369495137,4.758201481706517,1.1464571603697744,6.579254714083099
-0.0853225542594768,2.1426395247496903,0.0975139252828556,1.5105683036368118,0.6483876715540842,-12.51207413717836,-1.8020740015082248,-0.8751016059196735,2.10006206101776,2.488349838784068,2.6798211899085977,2.5739214256471104,2.0228592724150576,3.4241217788068554
-0.1459681071220767,2.041895112389993,0.1777122592330486,0.7720633207194401,3.1444944558111017,-19.084961025552097,-9.915287138889406,-3.715590278743191,-0.5512625866384125,3.902237096534937,5.587888283700693,-1.320236082031199,0.9130648407051576,-0.138999594065198
-0.2133320125201169,1.838249391697184,-0.3125555841522828,0.2330715293354387,6.469732620396312,-22.990181243756265,-11.89722949645466,-5.179215141358301,-2.68752883114896,3.01124114684056,6.74333817873597,-4.8641956873700565,-0.9755798456794044,-2.9162366925596723
-0.3186563446652456,0.0716845081531069,-0.7493355401585281,-0.2611436657211921,4.54207403880145,-25.11147114996964,-5.82653811378712,-3.183556518455063,-1.6773384422902746,0.4318428181119791,4.454226726952647,-3.9695438750671976,-2.3638781647292824,-1.1319490953227995
0.4204805523972899,0.0843312891430591,-0.2112762741805649,0.2565672262170151,1.1056380953903004,-28.92555442358296,4.262630009615759,1.244302517186738,-0.8960882262267607,-1.1577119207773667,-1.1375895983519797,-1.6504734809999004,-0.8869329960722465,-1.52895193605195
0.7659965344777643,-0.7911224368387794,0.2952881357380237,-0.8346926185960126,-5.906725635827685,-37.75777594037574,10.392976762505423,5.10433184728811,-0.3089928475376808,-2.62368600385896,-9.825450319435165,0.6959403346891614,2.243479885910074,-3.489113825617712
0.5007495185925109,-2.1965029967208287,0.4498999147173267,-1.939893276600123,-10.930745529426437,-51.32670965645124,8.770066131151172,5.36575827392784,0.5320192854832065,-2.5468231361540736,-13.475062120248388,2.317059004053293,3.953716232344092,-3.953919299642439
-0.0213875273079323,-1.8642489719008892,0.7240323049900267,-1.1874767469793015,-7.524256317896428,-64.70588448411785,1.8278090041854589,1.9909201114468404,-0.0184171785125596,-0.7818602175585517,-8.109165147278542,1.3982106898802833,2.915122877620166,-3.814291667480432
-1.7306419927830976,-3.960290910228927,0.2052876779170696,-1.928050702977504,-3.1613813403748745,-71.09902903343266,-3.2871670967183637,-0.7060184391986499,0.0083186381801874,-0.8254969868575037,-1.0635161679114868,-0.268787821173452,-1.5021583511083727,-1.8258796339580308
-3.8051766688345663,-5.849232230322866,-0.314621789262049,-2.0325281549150693,3.233822741862173,-66.52808009288789,-3.1872130328634185,-1.1422403770664125,0.7663829607409118,-0.6972851296151532,7.485402102791673,-0.4170434935928828,-7.703238279981843,1.2861829136800782
-4.470787831430607,-5.139804032873571,-0.4492221719840381,-1.5567701413917805,7.369881686380742,-52.69846425100904,0.0764850097607106,0.3314276829992196,0.3843890305178877,-0.5678115497706466,10.48456806484342,-0.0224452703195312,-10.419754039671629,2.1154603662304137
-3.424362118249238,-3.1759451388087654,-0.7249673878900633,-2.020476094765089,3.7062588247124175,-35.72902729299296,2.188279020808045,1.7559310201349758,-0.9766223359944683,-1.5944925060544364,3.490423332723277,0.0839343328583044,-6.939903640766175,0.4574906925510313
-0.5598027337887909,1.4196405295013768,-0.0933462304165029,0.2253311107799267,0.8624079622345049,-21.874408834751435,0.8304183302407752,0.6768337640607853,-0.7818039653471358,0.3523463916513719,-1.0879274708335334,0.6569903899035808,0.149200537192382,-1.3481048262753954
3.386764975777096,6.879580474074391,0.7179191525985271,3.1088513117110006,-2.0977414235658465,-13.702898503978751,-3.0828183445280004,-2.551447011284955,0.1147813099159452,2.587972265618478,-4.382412283528551,-0.4635110608603451,9.22166633610122,-2.845863419861461
5.683256216588542,8.615382421194818,1.097633010169207,4.156482371702942,-4.2587741308503855,-9.451754860037695,-5.779920826470941,-5.274511577459216,0.7554851464361031,2.779560695186613,-4.82253126535343,-1.8944671705454188,13.591820775353886,-1.7968989445638512
5.443426376410879,6.094750196035312,1.1879927729174984,3.879290548704302,-1.299506307259935,-5.421964613926079,-3.91459000260528,-4.585773598543796,1.7524549919414087,2.73695786204976,1.2129211583219592,-1.0846696374394795,8.974412238161083,2.2455845068255167
4.177437968184643,2.512462518819181,0.0894388612307776,1.2086841981025431,1.234017585380131,0.9708958000545492,0.5270499145048387,-0.7267894514234825,0.6998788695383831,0.7659003693907702,3.142104712143224,0.0332627819696308,1.711046705208212,6.052319950237034
3.0117809795073707,-0.9540954374168644,-1.0056203135281694,-1.1594873016481133,4.3242700850681945,9.743278176981534,6.041127101669544,4.864666046242575,-0.7721469713569151,-0.7481297161867139,4.2755328740493646,3.3390827184824587,-5.980313409758221,10.709812237387895
1.850219967909772,-2.188662782153185,-1.1133124912263102,-1.316873272266169,6.687052499067161,18.926348996147325,8.916650731010847,8.396002200181819,-0.6258975955147092,-0.2269997138793328,5.099989849982286,6.520214195738075,-9.217179595956347,11.374663151748162
0.8473556488012426,-0.7001830532930872,-0.4288312345895863,-0.4961507800264835,4.067663555706602,26.111582853350384,6.143487997407934,6.715616067643586,0.3436695784258051,0.3131318260165181,1.5605480087043315,5.466167472963094,-4.853659826041956,5.05075974753208
-0.1200949171822507,-0.0241468373491617,0.990056385924708,1.0221922355348316,0.3486927642660495,29.792296995742447,1.0020471715469137,1.3276185483748129,1.5538457030795163,1.3628924920730363,1.2949860754243478,2.747907560304732,0.6383146474915186,-1.1470173034553806
-3.09429382852091,-1.2318487739772657,1.9332251582168647,0.4394876126637907,-5.110068247384032,30.06097873208704,-6.096912614663779,-5.641013838215719,1.3087468094447317,1.3113577585635934,-0.5119276451591118,-2.845493236650633,4.633220714968722,-10.647103737793891
-5.11016165105772,-2.7079673204390824,1.429465185569434,-1.6040715379719424,-8.562940839540365,28.63771790634925,-10.502027972365688,-9.508530488649347,-0.4286109801589431,-0.1996771773511039,-4.068626104327827,-8.361479315432364,4.84557675168549,-16.06230342367689
-4.507573095751548,-3.3526986706771287,-0.2403653992249881,-2.155347572625172,-5.309554587595856,28.110183656585747,-7.40362129000647,-7.01444168978526,-2.218400426952857,-1.5389506522679852,-3.960663276530439,-8.474211360160762,0.8155047659711262,-10.221146703163424
-5.070878316828577,-3.103981634616172,-2.3428185648321103,-2.2367207038052417,-0.9214796377650198,30.39833603893433,-0.9657754859492372,-0.966472060342494,-2.876588349555757,-3.5433534505523814,-6.1519670083695885,-5.918624457968862,-2.697745196848328,-5.421786703773713
-4.425765073989576,-1.583280338553714,-4.51479790638807,-0.6003910119765262,4.407247569079324,35.18523287214441,7.274464191882692,5.163811831956887,-1.9314485813531457,-5.544911997195922,-6.861393150546721,-1.9625516404071777,-4.669582313148581,2.571257272934885
-2.591886868427593,-0.1617767022339218,-4.8289769154846205,1.3572425099986498,7.058817448134878,39.6225601945369,11.79860269296592,7.541172015363263,0.0456348541536907,-5.05410362253161,-3.6011427170341297,2.269861492026357,-4.2121710417788325,9.111133215325047
-1.5758156675190444,0.1644640927438132,-2.7369620907252514,1.280066394872433,3.524593032994476,39.99593006023156,7.976439202217624,4.611160729272268,1.7652528916720711,-1.740757903397001,-0.4520960927385016,3.208646545568656,-0.9130150112470096,5.32294222062372
2.306249527816462,0.9394874153988964,0.2336740916609464,1.1815455448450627,0.3430939195344711,34.38120363751827,1.220967013215637,-0.3334220520321684,1.7579111275334358,2.1046763220836544,3.9229561321367368,1.8222372296535323,1.36680160991848,3.612331507852119
7.871552213861834,2.806894602295394,4.601651539151865,1.5401446065342612,-1.8995983675349943,24.178230466830456,-4.492335344535423,-2.738368526378003,1.9373636967743533,7.178235429596381,9.130056623183863,2.9596178838434613,3.991524219120196,1.4009950984084456
9.50344146348203,4.127416318500544,6.852982239531545,1.7754995930319497,-2.533446771622216,13.135676071239686,-6.2468819059318985,-1.809464123244952,1.9078122796860837,8.90294197639265,9.78958930941053,4.182675001442775,5.663870153607766,-1.9928765123179648
6.645408160931857,3.7194175446532816,4.89099402067382,1.315282907317499,-0.62994678327032,4.641862277021573,-3.767105241998008,0.2837299963997463,0.5545175102459583,4.181855540246886,5.220690665848252,3.559248469535799,3.212325446041492,-0.0818484922982453
1.4291975043556615,1.922482818726981,2.359034535794367,-0.9631416709217429,-1.2011426951180264,-0.3714358483710214,-2.517194160095188,1.4232873603285174,-0.0089172300348334,-0.4105415122707553,-0.0682388539253487,3.952900846528413,0.1605993670454931,0.2567993612855069
-6.314060978281752,-1.868583804646961,-1.4551428001717532,-5.356106086904147,-4.033656159662136,-3.1878776128329207,-6.366890367398657,-1.6586887103926755,-2.848408748275352,-6.605679385664567,-8.114814791416874,-0.7488995640810541,-5.03088752963075,-0.7541765827554825
-9.781571517825093,-4.526215814802843,-3.990390906915112,-7.76177269397116,-5.648936620562036,-5.271913609267614,-9.90294947116756,-5.227395764566436,-5.313297583359261,-9.608506971322658,-12.085624999150244,-6.043858079018733,-8.625815262142845,-0.2690103246167165
-5.322208925377851,-3.24213858368889,-2.2249577758039787,-5.449543900928539,-5.019943110015647,-6.658889872825085,-7.987003011677607,-4.384197129232189,-3.493014848400225,-4.805291706530341,-6.833107186619099,-4.501479267296768,-5.489668740651858,-0.3577262338405178
-0.4577294343615388,-0.7252544419745666,-0.7667461974233707,-0.5239947896975732,-0.7182405319826907,-6.393510471932927,-1.4749322348576333,-0.9840571646558002,-1.083728240768337,-0.7549896808928834,-0.9350908028204018,-2.960511098380601,-0.8811827759692341,0.0639186458454258
5.187046680328789,2.738220950655352,0.6949318561198017,6.42519831607654,6.12432516901298,-4.390945726117536,11.684618092763056,5.950760891074121,3.987008858078263,4.742350526672676,7.59263254240895,2.538092968158937,5.39598711218197,1.8721419879627932
7.857520908441971,4.649120052067087,2.1433323723884805,9.85860237049783,9.635030335352656,-2.50950622567575,19.63746109593102,9.710833107445016,7.108553905777469,7.871607525679477,12.146316077294363,7.899334298886664,8.883836083356062,2.896350891828092
3.0503673244447764,2.2130088482136205,0.8363198720866447,6.61173324630037,7.8128207814613475,-3.369810533687911,13.7704212312249,4.868152178770383,3.569068782067242,3.777392679578412,6.0742620198781685,4.145944739569249,5.020471800239208,1.5679469230327454
-1.3776106504138896,-1.389691500303398,-0.9921467541426604,2.264617445805732,3.6620008272052496,-7.8283169666982815,4.646922935473884,-1.5861601247701669,0.129546927419123,1.3396570921202398,0.2732540307206446,-0.8762106391392972,1.0264014181742356,-1.3754999771323542
-5.501956229703813,-5.262472535563969,-3.0557329217632048,-2.593876070231251,-1.3873317892845636,-13.602059489028022,-8.649858780517667,-10.093875639143944,-4.4523298591734894,-2.006488017019357,-6.845243945360083,-8.244571295731712,-2.9073323852203456,-6.28151009515393
-7.310937484406155,-6.760040953080453,-4.690844350349263,-5.255389658366234,-4.1229233577491815,-16.658871549313446,-16.73509622396978,-13.88181407067806,-6.791211555507889,-4.873481664049031,-10.846934125092272,-13.016375046892495,-4.934948926376992,-9.122347593489597
-3.194076934858205,-3.5911098228478653,-3.4918351316847644,-2.986192658014545,-2.4940033243954978,-14.393083331595989,-10.64576763558062,-7.794481220154926,-3.1288973477530897,-2.537065288588608,-5.388906027529075,-7.845018800053558,-2.13088000231533,-6.285602309722809
0.2469360523328234,0.4775073692646017,-0.161285052023846,-1.036662858061468,-0.5082687541237403,-7.813676273269586,-3.2851180452939395,-0.9911508817433154,-0.9347521090076788,-1.9571134155989507,-1.1287304779124476,-0.7175386709486239,-0.5350260991663038,-0.2957356354428765
3.525916966617992,4.828131419832401,4.583520414046035,0.1145227298868489,-0.1199324910644648,-0.7653397667637911,4.920044000709894,7.645635090984384,1.6095599990604184,-0.6958649092131522,3.957007488065741,8.564207529947275,0.3439318073454279,8.413597763038439
5.314659644642297,6.522855531123828,7.348498359513866,1.3179047222089595,-0.4102262456095473,3.1318634318820875,10.277203804257162,12.529545404555966,4.0386350217234925,2.327459651222673,8.117478545128213,13.804254065138863,1.5673840044096774,12.97912629612353
2.8366319469176826,3.4282190697268176,5.348407575131228,0.7121998331227151,-2.069756958201932,3.1300170851602545,6.361920093822178,8.63632120908447,3.309970078697852,2.855146534547045,5.297000596566391,9.056048564265655,1.1460432869099233,8.600932982327382
1.6652942930418595,0.4286251531665391,0.8561060383136572,-0.4626129845873227,-4.432619253669118,1.3998891485283522,2.1023667217426016,5.950146343386916,4.327531714912726,3.755593070411474,3.235401936080086,3.968286422397796,1.2487700349240582,1.6878582045710535
0.4738721972895102,-2.588070947416902,-5.003026359339301,-1.2037621261089098,-4.967629937285315,0.7180141246363902,-0.5970985635346966,2.902996833867475,4.732367834426908,3.819282971435181,0.2140450306977924,-2.279984044891909,1.2569646978552709,-6.968927070966783
-1.3242444006051843,-4.174153609962927,-8.098184362098456,-2.3767070028970707,-3.7742889859165336,2.036230498330568,-2.611837226248002,-0.4292745783537297,2.1176668351406,0.9283493400114918,-3.865677268126636,-6.763960263425467,-0.4472130089546471,-11.402360955484182
-1.4500177256021205,-2.412874077158886,-5.5306661932245165,-2.8904759341469632,-1.7335943011469124,3.982011441170116,-0.936606080187439,0.4287595535073658,-0.2586803911241636,-1.6369243343316116,-3.7057903759883897,-4.15719104369565,-2.1818358855895075,-6.788982869732341
-2.2688573179029365,-1.3343499652919792,-0.9308782669925576,-0.8928095295915224,1.5108127018568216,4.403619187118608,0.099625206191388,-1.9051402666778376,-2.776759455851289,-2.443428590016725,-2.7676013898793497,-2.315978137563813,-2.0073932356410618,-1.001641114036309
-2.867536601783549,-0.6683358692680091,3.954385963995831,1.569949591904527,4.176646545149674,2.366369548572948,-1.984276637147801,-6.565440106618874,-4.738392313939709,-2.7469462113188543,-1.5306282388780752,-0.9392252955719008,-0.6538229158689963,4.657652015130848
-1.4735137403343743,0.5492865054777164,6.23975706029151,3.3384904828694384,4.47471005382208,-1.0504701721429228,-2.9022636522138017,-6.999914342093644,-3.215868646198712,-1.3697480305515175,0.6286583329411017,1.279578727038988,1.3628185996104838,7.168381835969517
0.4536837187138742,1.3461042650833723,3.9763810118144383,3.99828711501986,3.764416354406033,-3.5397119989195005,-2.5824059306427896,-5.634503556849428,-0.9709594751008804,0.1389744203887123,0.8887257106325813,0.5812786049728891,2.6481556522635,3.2758926526568306
1.7269051629378869,2.925329658407638,0.7208132700815264,1.868801205871572,3.9021192661762383,-3.115423414035263,-2.4625083136471297,-4.0145895386077735,-2.006935016361247,-2.0355032065684906,-0.448397845041385,-0.7193042600605289,0.1802205015237792,-0.5360344831215959
3.160261493517445,5.590475357335531,-1.376292395974334,0.1735362522568177,5.1063663910164285,0.6436516181884144,0.2809354710151516,-1.081811030417024,-3.673808916230588,-4.02565496449964,-0.5220469286606059,-1.10548670403504,-3.5109941066901955,-2.8197782471390545
2.722987238280177,5.5743693780860735,-1.9716261950171463,-0.4286978556855867,5.443665934137912,6.257126094889827,2.2221789937241807,-0.5033194376433118,-4.8512474102743335,-4.300299228094359,-0.1738126116359431,-1.9140484933274944,-5.844133935076611,-3.397531262505284
0.2978529049849978,2.109218832447925,-0.7897911980210917,-1.076455781335502,3.101704833440436,10.986245702546398,0.6666912472484665,-2.1851121426458344,-4.7536078843960725,-3.617594742389467,-0.0741885829248381,-1.7479237847711342,-5.636847645149647,-1.0125680278373144
-0.9493815278150072,-1.2322804783300976,0.1016661913570877,-0.0274047981644567,-1.1123307066851784,12.177804935182962,0.6469582907058669,-0.0805715952481044,0.1591406812207639,0.496174563502186,0.4002065862229345,0.0830797464833533,-1.60378324897527,0.1731270442323902
-3.3426164224990917,-5.730348861353842,-1.2220859635856365,-1.0199737861711209,-7.2236589328903715,8.709819034971133,-0.5776592290120905,3.6775023213763793,5.651634726389412,3.6078857776149262,-1.680553712112807,1.2359691864545337,2.641091638940876,-0.5138507493309625
-3.930324289551273,-6.87904595374849,-2.064026435081148,-2.304894722735626,-9.946310858400963,1.7227758750000248,-2.025592531366609,6.045415518803243,7.70657391792372,4.111341730564802,-2.8354383097159275,2.1672610033403594,5.859574936433689,-0.3722631031316248
-0.5842597106467577,-2.569276916399886,-1.0268958073499108,-0.8705665737071155,-6.588679180265218,-5.915931477208574,0.4581143668684914,7.4837733320905215,7.317916777972373,4.754186727330859,0.3117838887180395,3.1547228660312374,7.5954749498565235,0.6905242606271427
1.1865438891058562,-0.9857433682171304,0.185582706791843,-1.026253480304267,-3.5644707425220776,-11.156896549236308,2.4176128678721764,5.794831865633309,4.436342721274737,4.645451488965207,4.158292343826097,2.508514729506385,5.958515375077827,2.756918782670976
4.4874215649063895,0.4198022392598147,3.101290737571729,0.566836819298068,0.2270014045980171,-12.318869527508925,5.913802941310844,3.2296608707058665,2.3181659737700864,6.922523027694027,10.47990422258512,2.449745190191317,5.857135003384922,6.1286453109960135
5.916034618377788,0.7750556924285368,4.139308908236837,1.958664846479996,2.721263611982407,-9.692577581936805,8.424207863495768,1.500791380960492,1.1820561850349751,7.901352343731865,12.244838950860116,1.7902137638844988,4.555470608028672,6.433130680867332
1.6556731508313098,-1.7755494636839155,1.0595085998565623,-0.1271134705393471,1.3013535507723255,-5.051416095577906,5.247447633582598,-0.0848888703881101,-0.4519901127656482,3.514527704480781,4.83818212448604,-0.542904975775353,-0.051659878712061,2.63596326426346
0.0863863234738723,0.54226118039709,-0.4515152092899824,0.6445212985804936,1.7879007532209863,-0.6592504218455133,1.0042821037602994,-0.8606439916590812,-1.1877856022254492,-0.8713720252325784,-1.1628685258397573,-0.6404697255779522,-0.6147461253910882,-0.4370102186846066
-2.7509210813294427,3.911318281589305,-2.2627103405608517,1.1655544145900114,2.8888536600362107,1.6267045382433023,-6.305566235615288,-4.325873451611549,-4.140213146958852,-8.218636605770616,-8.52793244274257,-1.5340982277135966,-4.569427768175196,-4.2866074442580775
-5.091473958399779,4.899220214582491,-2.81816206598188,0.9380869263272362,2.5552694940226783,1.0063282649063012,-11.667607038390104,-7.20552143279673,-5.420695386089894,-11.72319526042128,-12.016529242115809,-2.3980752824390508,-8.06932249153496,-6.147524903471045
-2.0969265099387986,4.564119698336991,0.0430804081852114,2.067629577294198,2.211228669359112,-1.8498395518167852,-9.32208819034942,-6.338879413162468,-3.023632023571275,-6.553838465010935,-6.667486291140618,-1.364540366482586,-5.134900917485648,-4.059093152161042
-2.434003477099267,-0.4184102698237034,-0.3189102535891788,-0.875575940974549,0.8255223575460829,-4.900738527865997,-5.943094772796482,-6.082490345941981,-3.9927859043456095,-5.076950046111655,-6.743970082207735,-3.669591130865194,-7.717536724095446,-4.826215869304578
-1.5413831310453807,-5.517005679012812,-0.787536882317178,-4.004050002585301,-1.3733209884196522,-5.722072235583937,0.4263565100431032,-1.7338706366642296,-3.2255430927409057,-2.601243792891581,-6.875385339115463,-4.939600879072756,-6.856298832540458,-5.5442388294262654
1.1902656293300926,-6.146113978859908,-0.2762137751681252,-4.089960875736648,-2.24761692816785,-3.118333956562537,6.541193917734014,3.682924841692276,-1.484313104418328,-0.005549987966535,-4.259822837399067,-3.349569875975701,-1.7804522379337426,-3.929233323807978
0.6838930459195283,-3.587224335603848,-1.1441463272833254,-2.7219283718235765,-1.7628407472794094,1.7711117687287017,5.458006618326431,3.4940911402397843,-2.422901016470303,-2.075548263214843,-3.85213686921403,-2.038872862799325,-0.6002662402270236,-2.346629244600077
2.489638689356517,1.6814242882183816,1.2954329566574243,1.981510188765714,-1.1696202356041234,5.999230178651487,3.4226761233486607,4.074111748930791,2.350737087342389,2.8272695701648294,3.0150792114067864,2.4450611726660103,5.611152501886338,2.5701036483610986
2.733739793851449,5.555606393154436,2.8215977457169736,5.575020424880736,-0.0012372077695191,6.86609469266557,0.4894051511324215,2.356949611968153,6.689413365070862,8.842305252404506,10.730333599645949,5.977148917127741,10.104741568927038,8.49988301665873
0.0588247798851048,4.683751411704098,1.075712156068957,4.296140296967293,1.3849250177382848,3.952406116452949,-3.6391436560376698,-2.285704109658444,5.778525354377685,8.670826234999739,11.058773435781957,4.725142338508283,7.503918424890342,9.040626742649444
-0.8486066590221695,1.1042014134132017,-0.3878543356628637,0.6313324143914617,1.902288199401546,-0.5921057379363219,-3.107272278981416,-2.486471040530307,4.34911058957492,6.189151523621419,8.194937753688173,2.5570252552781314,4.300824256937446,5.508234832807461
-1.9314810779303957,-2.7118998350042225,-2.6409803274872314,-3.353694605960545,1.676978652479216,-3.8128772536190354,0.6608362616182231,-0.4858793112881614,0.0040536024156127,-0.4042386240988563,3.9896575707918513,0.6111209619530769,-0.4926327303595378,1.7681577406037232
-1.054804955910162,-4.413438867487485,-2.3048042168548144,-4.815116487223493,1.0857103378569897,-4.30888038190983,4.06438893913563,2.731278482720519,-3.033490690101435,-6.641334612342635,1.0784190213802969,0.4639889212732684,-4.418045496222066,-2.3790411330150896
1.864338925456728,-2.697194331513041,1.2801859348466007,-2.2354267975081106,-0.1883787958789075,-3.240219836806432,6.270132485037361,6.4207218338027126,-1.445678023060523,-5.945586200974665,1.6613587713292302,2.507670815313673,-3.561748257112564,-3.2463638920238505
2.6297961953277853,0.3324560367914291,3.556354506974836,1.1259712338723953,-1.3246246020603114,-3.240174847893968,5.092356315600688,6.214885765645349,0.9411300422440534,-1.0108548040512408,2.7692925062824294,3.7650189823057216,-0.969888621031825,0.0007959154940385
1.5614475843551203,1.8137745140723232,2.930191286403506,2.1998401255828792,-0.2962533951271892,-6.237355104527296,-1.1656686776655014,0.230585081791083,1.5902486529278963,2.194489068329925,-0.1375730890499994,1.0562254943284164,0.5138492000787084,0.0018757734909283
-1.5738719301883657,1.7186424037710957,-0.7744262201713074,1.5492014125249431,0.8765796753184875,-11.96333328877779,-6.971931966524292,-7.478350684390679,-1.083814595299457,2.280710052089339,-7.388538345199351,-4.590287501215358,0.8559440979107193,-1.0697518184468402
-4.775739527349984,0.3783578565895849,-4.562174225654598,-0.1461734523515928,1.107167610769053,-18.185414640946988,-7.75847751651727,-10.345932288507647,-4.142138038865352,-0.1967851289472829,-11.518548691912638,-7.79341098322499,-0.2483606224837458,-1.2719571280400277
-4.254554562946495,-1.0518486002892735,-4.616619958471561,-1.0306959618360516,0.6792357081543321,-22.26320981574241,-4.5080824263904855,-6.85941069264477,-4.675246026080454,-3.3546686910078267,-9.425966976947011,-6.73167437086586,-1.9308640584541452,-2.9019231883076366
-0.7120921065633526,-0.4081456851769839,-0.9029862431424284,0.7094787181428847,-2.269597148442072,-22.747072277670213,1.7104816209677294,1.1025966667424902,-2.818100619425266,-2.891667031897041,-4.736100094554382,-2.788635149275572,-2.3891374402173304,-2.4548352297048908
4.5123839432884605,0.7549006013697506,3.731355852362184,2.0090852815515787,-5.18296144479462,-19.979025236818984,6.704184783893472,9.6631006991179,2.0618978548910047,0.1801419424999665,3.279983283974299,2.67198766587888,-1.8347107760339785,-2.0059022617669147
7.639911720414979,1.3287532489728326,5.476749384801614,1.6176720365813562,-5.150288635168441,-15.574692599095728,6.436398405447235,11.441181039674175,5.575199697028761,2.507519112453344,7.842353604197163,5.203098222806249,-0.7180088125807117,-2.684944811885768
5.4311656832928445,1.3788688150928612,2.9940762138433845,0.7291136142641683,-2.5701411692135894,-11.376951840175307,2.657832511406013,5.33443754798545,4.32316066309795,2.809914584396631,4.726210533962795,3.1521862218757,0.7355868689697961,-1.8660657221000303
0.0913563393281065,-0.4966801394492492,-1.1029428403788626,-1.4411921464589068,1.4828701729052107,-8.536968136994659,-1.5421256781155852,-1.5651226093467043,1.556981133534891,0.6069682934349452,2.002598604168678,0.6530095574320803,0.6987999906777197,-0.2373803630520289
-5.906079404259865,-2.423833166135742,-3.5599503541905384,-2.1935106993299747,5.5691342114111775,-7.048201120992388,-4.316116044387438,-7.214449913726321,-2.748805888838768,-2.0348854817994777,-0.9869063501777624,-1.1584683147384915,0.0584453428866664,3.619827533931301
-8.113092449925224,-2.526939711381833,-3.0884853626622486,-0.6961815284350733,6.611750904466685,-5.812884223182891,-4.128394389242388,-8.343622814093184,-5.833867702663487,-3.0778803404747266,-3.001468685876365,-1.9175639861062528,0.1049267288627082,6.461081093462609
-4.432878855083337,-1.2779499943456916,-0.7483848571918177,0.1680625791437962,3.8498730798166094,-3.2733206607319403,-1.9950131494409469,-3.606642456998036,-3.8130978765100902,-1.856531147269819,-0.2438884864923635,-0.3116331509179082,0.6554273981616092,5.19786460096028
0.6727304491794135,1.3209547017126784,0.9047429035130664,0.3313368972675673,0.5738645833579393,1.5100677358330188,-0.4894460354766984,-0.3973712097223552,0.2011225954312288,1.410640857712424,1.952645043856679,1.6952470393592864,2.763540127111485,3.0428819533114924
4.43443136173346,3.7385624003548577,0.3396905767563008,-0.8607826213968643,-2.9882454820126703,7.859082717486558,-0.2197780633418757,0.6475271035999682,4.822147641784442,4.384472511532718,2.6835512841306657,2.207146881113304,4.575279525094067,-1.2801776175098043
4.2647965342303085,3.6266365854054414,-1.1786249111465654,-2.596193856636008,-4.693894959618614,13.382331600227367,-0.9604805340976053,0.2620099889683224,7.126131589164982,4.974182631032763,2.1246186112265537,1.3884029368175583,3.256779131640385,-4.463067775939718
0.1976238376971613,1.326603455016944,-1.9639284344420136,-2.449576078707114,-2.609803471284692,15.227525976678406,-2.538046446249762,-2.247688016386172,3.811869639371471,2.684241516706225,-1.162343303353682,-0.7424538744195763,-0.4483583787840289,-2.7737192783669347
-2.2759144495391324,-1.1903642123849498,-1.185174437169084,-0.7334505916999361,-0.4504399606230055,12.070880073477246,-2.097234186599398,-1.5301585193371658,-0.6606865848652016,-1.186209358141164,-2.6358963879872794,-2.3591259505222952,-3.15989079784289,-1.184524536078679
-1.7811821384392723,-3.0207667097202515,1.0865364906559885,2.0566788797461277,1.58613793169308,5.369181552587314,0.4973812338940805,2.1432657644148603,-4.166217925763309,-4.6640377705338505,-1.558340994936501,-1.7120763469148594,-4.107766945408316,0.9616039887232954
0.7983996490753104,-2.5106979718351425,2.86941338220564,4.051046470343513,2.621520935017231,-1.306084465919298,3.238971129661361,5.217023295778699,-5.017641972455262,-5.361728549902767,0.7790388021443819,0.5223607388001621,-1.8911373400916531,2.806882311139694
3.583442095843752,-0.1456195779665106,3.051200259675216,3.56001533573637,0.8776348665373873,-4.576362815527951,5.746539799781867,6.931389546904263,-1.741887310523906,-2.7105629097362405,3.325849677763524,2.5817295780951564,2.2347875291476287,1.0497598463473006
2.8038712512750226,0.7446961350227175,2.392170956438568,1.867465596535686,-0.7045148316145164,-3.501576026578988,6.22054822113012,5.294440344001442,0.6849660157021882,0.539630169828813,1.650489557098091,2.0065545034829824,1.961485021677172,-0.916328679790176
0.0434139049479345,0.5931981228713781,1.4306620927882825,-0.263679986096175,-1.239919348497916,0.0067327636902092,5.574433292993236,1.7763918734720074,0.8264114705930722,3.2215934884645696,-2.201138402997853,-0.9731885362843926,-0.3059474521774179,-2.6861641852298948
-2.0650624297166944,-0.2280003987671003,0.391839926496161,-1.808949432950121,-0.8090708784478606,2.90979500309048,3.721065690425513,-1.1543988823359976,-0.1163080174506817,3.842188938061115,-4.739954023573041,-3.984091075210033,-2.562931307274648,-3.522652366868284
-2.3717332727780387,-1.3285479878728577,-0.2504733720902246,-1.7260932991744762,0.551754283010929,3.459114688990212,0.9352118545300384,-2.1496152302253515,-1.1984494689220964,2.0273378215853923,-4.400592985083749,-4.385697442830974,-3.7363487131246185,-1.527152362082732
0.2693045014109094,0.0676321794230532,-0.5203809703671332,-0.5147091062071694,1.2014559035990997,2.358526084362552,-0.7607906886284151,-0.4941072319201416,-0.3763229569135675,-0.0164773085693684,0.4708266657915074,-1.0693078185223666,0.5663918861828752,1.1818765226599843
2.007559110100661,2.065386895456875,-1.5019587358551127,0.2770623325532981,0.4751987021564404,1.8609200657968188,-4.993084861755865,0.1277873955835151,2.41934374308918,-1.9895166702882137,5.158678487220609,3.164753882080605,5.072174704477468,4.079824489671114
1.0231723204898953,2.323570365685983,-2.0939293769498817,0.2860984704089607,-1.0045234772076264,3.724248755964993,-8.013739807856805,-0.7267340945071412,4.166414846377204,-3.016334017030747,5.717910551204558,5.28765452933984,5.733931465109056,4.611215287246814
-1.0503246101519792,1.161924380436333,-1.9084568270210571,-0.2417973715714431,-1.5850755558510077,7.788000010557738,-6.926939224307806,-2.643799958340919,2.541384698703131,-2.466570046017853,2.445775122578264,3.77064630634172,2.9433201544482874,1.5024438641300273
-3.810931332903112,-1.628780271514133,-2.650439393391653,-1.6016114584891774,-0.30140748351797,12.24960633633006,-6.8248097450911365,-7.337005881791267,-1.190753837771832,-1.3091075601202564,-3.1809965874830506,-0.6755760110722073,-3.907976783843984,-1.629291848590038
-4.058287322453284,-4.028419480064261,-2.473825474027041,-1.6749851534674645,1.8086125400186663,15.230533121244775,-2.4264063080404923,-10.00333396645958,-6.297091228065695,0.5403106191165414,-6.687250834548504,-3.926991762457072,-9.199829979578055,-5.379589040989127
-1.3188213240326492,-3.500039248207174,-1.223251325486509,-0.2278002652657595,3.038567648946412,16.21968409890681,3.6358017347409097,-7.772914532442773,-8.66494305149659,2.226838744840645,-5.55878841080068,-3.971770774816169,-8.355713446246533,-6.382178019502403
1.0996504038524206,-0.9082502297978092,-0.2509507118775692,1.1539453116468823,2.265005320471157,16.231004467065134,4.592245430650906,-2.8254448437101023,-5.6793299752726405,1.9001951398903183,-1.8961668404052363,-1.6224108303762974,-3.5542133702898795,-2.5344353101406027
2.262286733387028,1.4691890798847085,1.324208410785503,1.9262232800115768,-0.259456030390252,16.674484812899806,5.155362288711134,3.715688281335393,-0.7494411137571194,0.4377865204724583,1.8298817752463317,1.5486700577631711,3.2068982314938816,0.2110894764248339
1.8039675984172936,2.939174104367684,2.296005939670437,0.9331170314269328,-2.1425126417355576,17.993476378384372,3.317209167304873,9.804322842394912,5.703417445909704,-1.52333927465138,3.9128456756685104,2.379721210964618,8.688019193629211,3.702020199671019
0.1046879813005856,2.3128277915718174,1.898172026996809,-1.125316115368228,-1.9823695967622152,19.234273899954843,-0.6998046367016528,10.631153755275635,9.595209663300276,-2.8939130007467844,3.660764215548688,1.2850768248534077,8.283283597002196,5.578523705363345
-0.4593559935569915,0.2988996674218408,1.5768130056766088,-2.195504492154846,-0.8810456216572712,18.880319866427385,-0.9499704654782666,6.993952701414323,7.801929416461433,-1.236400990804304,2.6277795745802126,0.5439132699191481,3.989215116396634,2.6989164558194854
1.174571095256161,0.0627509952200905,1.928165519832325,-1.4066408372170125,-0.4640288877285041,16.233941897149407,0.8471939832263979,4.463045065955203,4.6277348358269785,2.5085251769365366,2.321365299718948,0.1970923855022668,0.4195884266654565,1.77964957484299
3.1123644390125724,0.7472093744426543,2.537088659107349,0.5911747999258574,-2.5724677562562164,12.201838685440151,1.359869524428773,1.0242895983382714,0.3223673079311218,6.172388458077529,2.23453940712817,1.453256825511041,-2.7848393044238904,0.4219853988181676
3.624370956134261,1.4831115645995196,2.267751093065254,2.155502449683682,-5.172768325575229,8.833274061043454,0.6836671341052316,-2.0488285258619667,-3.5712789544171866,6.884193561602439,1.3291581279813778,2.29803851655089,-3.4176209464885576,-1.339964817382394
2.181896398872776,1.8883725859229248,0.638064186100291,1.6301333964618747,-4.909371390737353,7.941705409999315,-1.230502153971095,-1.9684881762847657,-3.3634807771751394,3.829589148158095,0.1641159660354011,1.0158334801044917,-0.4732090330729827,-0.2284172601300305
-1.1536327357715386,0.0082980127924495,-1.6528566945701268,-0.626178481500551,-1.869386593890956,9.833249546326044,-3.3082679003348803,-3.1740828758413686,-1.7388554550870745,-1.2211478036933805,-0.9483037972412564,0.2321741309394218,0.2948878405882482,-1.4870842336836054
-4.516821093839461,-2.622844347429548,-4.073904139473192,-2.865662157098725,4.044212570730183,13.062433052217584,-1.1434833886557771,-3.2569436095566875,-0.3649531503267484,-5.750374515808809,-2.002084523687326,-0.5683195594245067,1.5217340327362203,-2.944734854946321
-5.122224893916195,-3.9297445900411945,-4.087938051899274,-3.353214384517684,8.498800700672364,15.36489825942526,3.5051759946838112,-0.2111614249515199,1.5612362993517723,-5.797904404085975,-1.5164097225617743,-0.7719659824314554,3.356682711326008,-2.114836119185645
-3.010489721516463,-3.5074076881109666,-1.7928589636564454,-1.2153480471938451,7.563764057588687,15.084428757250407,4.831549717692578,0.9227134884641206,1.1431818704654004,-2.83617369592079,-1.02350061895572,-0.3377219249604044,1.0084349384678517,-1.4057816029219805
-0.3787364250379313,-1.2046928615737142,-0.7565498536834884,2.16432415512195,4.476811075097627,12.11812828501118,1.5306432210081002,-1.3566020391052769,-3.05282653723702,-1.786696156873827,-3.1250111000625007,-2.87544528991379,-2.686860228708499,0.6519415908592247
2.245126679559579,1.2102296590247397,0.5206348606739378,5.237374692344301,0.913724140505802,7.80396294707613,-6.448018616325976,-5.612971369169417,-6.936355680060934,-2.8832502367926827,-5.626862404903226,-6.869495464747702,-9.519353481022591,2.787160693744309
3.05755109427109,2.006271629505543,1.1660942316546252,5.506866706094944,-1.6607319140262675,3.9206545041385112,-12.686032963102129,-9.325655723810662,-8.215396373187417,-4.77732382701568,-6.137835833264721,-8.208339895112392,-14.48680673812192,2.394038068588016
1.533664871100642,1.039391629123727,-0.007643862360553,2.33802333116591,-1.5231240805962627,1.5352017779273126,-10.387256482471612,-8.32600564973399,-5.890269083750429,-5.148466748800092,-3.684800295111231,-5.522488324508698,-9.778602800128043,0.8722909418313536
0.2051133249326534,-1.0290851822839966,0.8733370152817675,-1.5618760174009638,-0.7426084422965347,0.4670921683046742,-1.3874718097409264,0.2297265841845859,1.8645712781459705,-0.3917734896351112,1.88947256427858,0.8994859922130495,-0.9368960562585326,-0.9203126124560468
-1.041345215421873,-2.1412685961856046,0.6818368992852851,-6.047458381184453,-2.315401522899388,-0.3378355739556582,9.51975256526057,11.257616156152473,10.206464479474809,7.277905992643125,8.042951184212738,9.003027246235922,11.95487665755314,-2.597210354934015
-1.5724906172581186,-1.0918250539380772,-1.0307667063318624,-7.301418388710877,-3.8214023814345257,-1.8761367225507608,14.106283083408233,15.374367162355872,12.291244784921236,10.692160944843932,9.496120131265316,11.920886873815189,19.413189531558544,-2.069283245601661
-0.4345487539236328,1.3733143054549122,-0.5668347086506238,-3.373614640673724,-3.4183958475237546,-4.322172193766214,9.381937304615452,10.554842136015717,7.984985339711184,7.917341857970726,5.54674477494698,7.550796402976143,12.76603273406257,0.1027209328896844
0.7707914995140713,4.130898788714285,0.5059967095279668,0.9064150912076576,-3.416778719864333,-6.98696646994987,2.380321808325955,0.961320210733627,0.486347206782077,2.2852092869430365,1.0589577055155286,1.9295803959569655,4.013223249805135,1.722748208324632
1.964115512492052,5.864395735052194,4.197689791435532,6.888143723975731,-0.824097113709216,-8.965331622487184,-1.6543283905102706,-8.66529123296436,-7.077684600399504,-3.796116999695416,-3.288554780934498,-3.771978317638038,-5.397191250067609,3.4208813719761264
2.3441156267995646,4.58788266581737,7.710568956934276,9.87711930342406,1.9352934686429597,-9.889971617512252,-1.4059352999992123,-10.974576707572592,-9.109917974790823,-5.658850495926723,-4.732414811539735,-5.995175885183144,-10.238053719683284,3.1904741584004896
0.70158724294745,0.991226738322047,5.746605094653217,5.656177840150145,1.2808252993104858,-10.171474110152394,1.509228418599609,-4.819295306088584,-4.757573647286275,-2.564589158451382,-2.5750337469055102,-3.043244329765864,-5.722930953618424,-0.2857598897466917
-0.4144689242868571,-1.9139058079994464,1.1807680462150496,1.0012459181225004,1.6887473658161145,-10.606718110799656,1.563401021384811,0.950853881985892,0.3469329615437801,-0.0644659591619866,-0.6544423583750602,-0.6440766795565956,-1.280542007013994,-0.9059881247139486
-0.969407680919143,-5.153767086567103,-5.519118493832474,-5.560719730155629,1.4803052917698365,-11.787243357115962,-3.564189831682973,4.420636741921229,4.847512297093954,0.3582684102869725,1.569046840234098,0.7480948826184111,0.6457802806791973,-0.8382182845088316
-1.175765279875972,-6.011544025438882,-9.306444150739896,-9.500817910304606,0.477166354947322,-13.809664159826156,-7.453168591877,5.336522021709444,6.487194985901792,-0.305341292116967,2.769308158210092,1.288160657846325,0.059615335399442,-1.3055580388358743
-0.1151264777852154,-3.078369837867873,-6.095265867884366,-5.626477614076736,1.1210785747978569,-16.37926821452034,-6.722357314328936,1.9164575217869837,3.2489863436829403,-1.2903939138820135,1.717830729076391,0.2133472638356459,-1.8235154898890087,0.5008849350472988
-0.3807761873367851,-1.5120167272612584,-2.7436779853921847,-2.243966400884953,0.4354987382704309,-19.032581428875236,-4.751879991105495,-1.5183941624208015,-1.292436909598658,-0.9411809713798364,-0.3302916382437962,-0.6290168353556853,-0.940377616794324,-0.9628365611133308
-1.8745428362794128,1.568461951553804,-0.811901294771462,1.1561201951502582,-0.6868500028244521,-21.291729786328624,-1.3361829824272238,-4.517457791810556,-6.216057291136727,1.348121644167415,-4.180675213196297,-0.9590772042404866,3.7724225744934303,-3.2918390830100783
-2.518514981851873,4.331692684082769,-0.54784048336101,3.1472792872195128,-0.6090069677348466,-22.87233441976372,0.026452358547668,-7.157875120916387,-8.914274461846743,2.618523394765701,-6.992130450649481,-1.248758656121859,7.492769049288046,-2.918705058461137
-1.4528812181086996,3.3751041604823246,-1.9347504761633416,0.5585443130934655,-0.0437796681306436,-24.03893320070448,-2.076713938821129,-6.278766705439244,-6.174197740923522,1.554885360466163,-5.215101496246871,-0.5260475228549741,6.365007552977673,-0.9877123722008236
0.5346956665836989,2.5215157557314494,-0.1504930596110514,0.2557500424078818,0.5073650866896419,-25.75671721252234,-0.2213521156002164,-1.208431029892517,-0.172489168921749,0.7692780619033407,-0.4735169961800922,0.8421232886493377,1.573825978530882,2.1150190241731077
3.327237197777815,-0.2347978133996444,5.504053030512565,2.338009410026758,-0.138189004481531,-29.089131841961134,4.923049713841231,6.350224018870449,7.566648764482407,-0.1224044411166277,7.291974116963543,2.4319350648150766,-5.624144154791509,5.009981742481246
4.72616104041919,-3.2149218617363293,9.297456891768752,3.87309319240821,-1.4640337560050602,-33.91419203355618,8.684451104090144,11.471414984053302,11.787385246492962,-0.5884867773504364,12.507828847725913,3.298681209247709,-8.959648167459267,5.411854590300061
2.25252061141945,-3.071814538303172,7.4916203864348,4.335235132698426,-2.1515161002634717,-38.03986117507123,9.490553555090331,10.15081057458833,8.392364899347202,-0.0253582038130399,9.075414381771346,1.6977446473779798,-5.791458241169395,1.926764406415479
-1.040767321893002,-2.4854354285276705,2.0543137874355533,1.14579907239901,-1.0257491683218878,-37.96896771012908,5.401591391341195,3.432431737478937,1.4252821550002448,-1.2287000171657458,1.1500032024596292,-1.2944976839520337,-1.9770996778829515,-2.3210513224861
-4.49320708006343,-1.2541003798504748,-5.925801979564812,-4.8272265951068745,2.921485193475766,-31.28602899792181,-0.6292256297221204,-4.379906094491357,-6.532233755662318,-3.3442133020073013,-9.4023983568309,-4.638479029148309,0.9079331589525568,-6.244507873400471
-5.6606044186862885,0.260375752921953,-9.746214346858215,-7.996153633151333,6.168502817800526,-18.911790705617943,-3.264285001748008,-7.599970349226677,-9.999630632286449,-3.6079368747821614,-14.773622737636128,-5.391782799474159,1.5914446265593245,-7.024387492482705
-2.7282326790906097,-0.2139531183799773,-5.587800863271719,-5.938183312330486,4.9409129272612144,-5.117815936285979,-1.4744801403218482,-4.124933581563772,-5.595315447661037,-1.8152379990815484,-8.56625213000751,-2.189584794644097,0.1658914731378724,-3.05782976488622
0.5142303676554729,0.0813132556865538,0.1611908143039757,-0.2834976079968997,1.6003765790760838,5.096998069927068,1.7445237309464865,2.455654936504948,0.9838651694124092,1.405545383463204,1.1805965181570894,1.7528064339723124,0.1431827553722992,1.4778659212621803
3.3805847768439232,1.4963721910735668,5.501978517042439,6.389718177936446,-3.314909108526153,9.31064711530641,1.569594887988685,6.233497155861675,6.4070514253379,5.012601891306578,11.240844193277868,5.505828537721739,2.148972308472063,6.114696202608748
3.649027097943621,1.5259075449706134,6.394857508680632,8.274406950533722,-6.984302420833411,8.96824752094777,-2.736367424690692,3.6828476161536847,6.833033463851766,4.929010366984139,13.974563271575157,5.225398206142232,3.701508888001786,6.687183366701394
1.162393647893305,1.5269459640290657,1.326566467814026,3.900341020915344,-5.381428884770492,7.667791735964485,-8.078518950958136,-3.452736578273101,1.1091445011146543,0.8186650835892808,4.82342167424771,0.472505696669424,3.1597930066159785,2.115247228120835
0.6741331691404472,1.961858089021488,-2.3977940395866137,-1.51197473355254,-2.427531601861012,8.053728591211637,-11.48001540717635,-10.367498674193888,-4.463886309761065,-2.4029179678447763,-4.780624643675203,-2.311978760689758,1.8883627134840364,-0.8430085592300136
1.2661771776121364,2.1897481406201704,-4.030074989278129,-5.5533058323727165,-0.6115559794263421,10.013989687017627,-10.089932433356186,-13.37824094388359,-7.608743530188542,-4.9619013555847005,-12.633401800516344,-4.190241675698527,-0.0380232001830805,-3.861551728708995
1.8239094710261607,2.7889291273253343,-2.922940269692868,-5.360999948509307,0.4629109551524298,11.50974024916954,-3.5788227738584943,-8.751310699751684,-5.963324288359047,-4.148133806946231,-12.926856516700273,-3.1554314147208244,-1.001671645414257,-4.564972909275354
1.877138913162588,2.5968066902439704,0.861641807027092,-1.0452990663559043,0.2264018636462837,10.949116293328911,3.166230230951072,0.7834166233177997,0.3669465445203718,0.7578374079551615,-2.9158030848378145,1.3769887266919625,0.0092496231296113,-1.0617317697151876
-0.6550262752902979,0.1831172723236108,1.549106502276161,1.5119045699382605,-0.3125254503037783,8.808088577023995,5.036001642551925,5.704116744149227,3.0333539213282257,1.187463406690636,3.2617208748731046,1.2438322480148003,0.1971711288279802,-0.4200413765839854
-3.525081375754918,-3.2342285201499306,0.8605650265371376,2.1577607113155217,2.0510418232824126,7.156843146801201,5.502953340495354,8.677263119778713,3.2689386806353,0.2083017435424042,7.373798200401674,0.4473333049257347,-0.0834823297419383,0.8371001253064694
-3.7535848603361495,-4.9714590148254425,0.0683882917844223,1.5812072487078233,4.693111706421774,7.768713822193931,3.727948372178384,7.440280759423509,2.16404364138199,-0.1472477006465094,7.708266481536734,0.0974076683016353,-0.5887739522457963,2.5856248652439024
-1.6117146828528066,-4.010327104267869,-1.1729622902637669,-0.0019467832667339,4.321695693925061,10.638677228088548,1.116812646634082,1.4509556975055324,-0.8438859791530742,-1.488646176250038,1.450659506334978,-1.773484223477718,-1.8244923873822927,1.4557603090585678
0.9729006891423976,-1.808343272978828,0.6302308700789655,0.7451608158786791,3.406698879782898,14.126562537690448,6.0803129278812165,3.4087814479240985,1.290001811788306,2.517613066570417,1.5577969747362854,1.2353265746043514,-2.533005350280365,2.400279341037802
2.278536464254085,-0.1394462270233704,1.948359064229152,2.1524647596152726,-0.3708291276589543,16.362602916073918,9.89518687723986,5.129133823012167,4.208424084200509,6.908343942253647,2.001192747644434,3.2831700095229825,-3.8846102548752377,1.929628671622072
1.277705312378472,0.0382891660880725,1.1672726936111175,2.081023112053204,-4.377504343203656,16.55159910449369,8.53156203880474,3.8117413525362114,3.901718491239935,6.289730471870959,0.2216440588228864,1.8448299701204944,-4.470005571895177,-0.6264732728871122
-0.2988466439644894,-0.3115463100184252,0.4363401336960766,1.4074553533774554,-3.74627601906661,15.16527252716363,4.800692026630731,3.371052043728291,2.0765290527919635,2.738791735646666,0.904231393656398,0.7599986078543184,-2.432376814563105,-0.8293542992969078
-0.6130306961447001,-0.0641591133922319,-1.972220697838778,-0.6877157139056732,-2.32821676144817,13.164080340891624,-5.811932128695641,-4.165143090628788,-2.7929544362795973,-3.244338862851335,-3.2038907281378664,-3.158997582945343,0.3170246864493786,-2.034301482106697
0.3495191956824067,2.4379585302726774,-2.833972524868948,-2.867411584236359,0.5969801968518106,11.161238638997569,-15.45817539552274,-10.351455839773704,-6.4029877163559945,-7.867114961534191,-5.5397878385661325,-4.7479063359529805,5.179264979819838,-2.2377643721450813
1.5064321526396176,4.6782606794336825,-0.9751882671942812,-3.2158249656089715,3.7854597373613625,9.231954883755208,-15.240913081279684,-9.41549081037068,-5.367076770167036,-7.045667183796571,-2.722984105021761,-2.034271810613062,7.862522635160307,-0.2324018792121391
0.7266879236342833,3.253665292832871,0.3404661163752501,-2.757607901369296,2.8533396803163726,7.29030400203581,-8.073654959823138,-5.725750550068183,-1.840912763541636,-2.4734134059825514,-0.7007450713922467,0.2380569651443602,4.775449326441792,-0.0141724452065376
-1.8379543266949765,0.4608799066642717,1.5471853259538946,-2.0210205405582764,0.1711093584096453,5.46693418054598,1.698855675139161,1.6659260527255402,1.8419586034932356,1.3992590873819293,2.3866778097651253,2.85399754467469,1.519768678931319,-0.225444896006368
-4.639856442461993,-4.029697583971164,1.6795656808946506,-0.970275290273214,-3.206173132298817,4.106227115585874,11.214920674711395,7.532827707370356,3.8589334946369753,4.002291086953901,3.334503640805372,3.5593688357805155,-3.0560362989560885,-0.6112115874147631
-5.060049331432689,-6.355511314021492,0.4312616579088675,-0.0120673745808305,-5.762631003000102,3.4999818299170933,12.754017981411572,7.308011558591005,2.8177746435387445,4.010266369463187,0.8386426651667613,1.2609255209079515,-5.442912816211549,-1.5279813204505888
-2.3564269028205023,-3.3519596241093623,-0.1343671279541683,0.552249986875117,-4.693065155899132,3.697325949684245,5.765260791306725,3.765722698278146,0.0619650774333782,1.3536910469537615,-0.8198750818413354,-0.8557376605497996,-2.1234531377669685,-1.4174431025370442
0.7392820101785997,-0.5046516728259134,-0.6005616418610706,0.3221812183742173,-0.6235722484043027,4.527747540353099,-0.6975034618457963,-1.0923190436417778,-1.1824943371991377,0.2300212968601675,-1.3993368108118425,-2.381750531926087,-0.39155639431775,-0.5300045464882746
3.212210512586645,2.109775547253524,-1.671865484201203,-0.4205135376936703,4.046550763811889,5.701342918626967,-7.189801849978667,-4.502256565757783,-1.4199214476427904,-0.9795232840399672,-0.7738210169391442,-3.6797010372950902,0.9525921511813852,-0.0582654078756775
3.603950760589965,3.2695902276199327,-1.9996823094289733,-0.7857719707804232,6.295412212458768,6.845989886118978,-9.314675477299158,-4.17241652408421,-0.6799054771973592,-2.3002740844570035,0.5541542969685771,-2.6709127607897103,1.821399765892846,0.2828629315934947
2.4860150613506606,1.7280073621427268,-1.046986799820122,0.4935548361071636,4.959590951742587,7.53312640723821,-3.3860762161214653,-1.496369916385512,1.07049062386733,-1.4800418677423663,1.0792275447616384,0.5244283134533614,0.0782461645471688,1.4301099809108764
3.3931444274608795,2.3906394952558307,0.9882413389110566,4.0818834714673375,1.426831910309351,7.413086354503499,1.524595197793236,1.462836080509712,1.2124237197989638,-0.9108707718735156,0.7361086408843416,3.353121167690305,0.7377215507528596,3.142876720715147
5.167999095905735,3.890174228032683,4.529532535181853,8.262226150857522,-1.745338393758317,6.413325259199972,6.015832214292075,2.5806768445894788,0.9527034318488964,0.0907659070872102,-0.5476352010608336,7.017726195783128,1.740179886073894,5.7266499140385685
4.7515781772930135,3.1037950275293213,5.935989500197817,8.527779678042306,-2.9255527207675205,4.793641615137922,7.255631273553746,1.384001086616698,0.4867508660026391,1.2291690751664563,-2.147751387866857,7.141243962576136,0.9723472721815845,5.878251545920698
1.619341748319138,0.6827746245401227,2.859664558265465,3.4720028244101453,-1.9077231963523853,2.9534728216110797,1.6818220169071336,-0.4373491415470794,-0.5752811936612495,0.6713610315103504,-2.622470704251417,1.7675599880791732,0.3140185888524311,1.7267988515951918
-2.381789899865663,-2.4162378314022344,-0.5596785184748361,-2.6547423245494413,-0.1784005974597479,1.1530204261970145,-1.4787484288772157,-1.5438767764237886,-0.1154965462699614,-0.071944550500603,-1.695497592208001,-1.7036635705058032,-0.9829326686373192,-2.028418009298954
-6.111762934765236,-4.951929617398141,-4.242663428033451,-8.983490827507339,0.0970833629384559,-0.584001203507384,-2.6588024468478038,-0.3059713733700319,0.6238209460143443,0.2910716776046665,1.28585932306315,-5.461935725298634,-0.6841947551947611,-6.124649615351801
-5.971082314455746,-3.816154278723472,-5.466550355056423,-10.269544499960952,0.2186100820383776,-2.3135594652037703,-1.647733225198014,2.125993711431564,1.2206984423517215,1.746146461846517,5.207053615236413,-5.936313334498743,1.2653094017212108,-6.746556841545308
-2.1268653537860365,-0.1145020415012153,-2.179036646279915,-4.696304391777146,0.5205738354147231,-3.953920792722253,2.381284171883839,2.825375402335962,1.3823301880227687,2.875437855127261,6.347096592951931,-0.736987451660208,1.5356685148048357,-1.890875836723588
-1.4277518254120103,0.7656853285394396,-0.8024471844124629,-1.282319283460733,-0.5372363393683133,-5.238382776084473,0.7556940769362576,1.3068496883413092,-1.1273475341774486,1.702326090229629,3.3100165268736186,-0.6749362608994676,-0.5523901025905803,-0.3990319019985718
-2.0231026927647493,0.826887775808475,-0.5808113625224645,2.023650025044074,-0.3611462177643352,-5.861618031513972,-3.785787701557597,-2.425502869456004,-4.370122508234076,-2.245742455085698,-2.2137198609933924,-0.9610444825775708,-5.356865061170406,0.9897343629983184
-2.3777423208740323,0.5059004819980762,-0.3852121298667192,3.8060364474247694,-0.1717235046328294,-5.661831703647415,-6.517772147824954,-5.3160672254830175,-5.52738882887631,-5.825209303236639,-6.716604393720509,-0.3446745555005246,-8.318844333730626,2.017210182031464
-2.222506086879017,-0.397283987542301,-0.9486906791414104,1.2698433008440766,-1.354983107360067,-4.713923863859222,-6.3615240828245705,-4.275712598808741,-3.749014120787393,-5.353646882274782,-6.22977000702617,-1.593471855558754,-5.304185554744721,0.3694047637656564
1.8474178916378805,1.8266143073660377,1.0219192606521914,1.7881732522089575,0.359918456294482,-3.3440830464636946,0.6034740809711188,-0.3478950446995027,1.1932835826215578,-0.4734518272854369,-0.0280194580541044,2.8690286636932454,0.226021916331782,2.2789774142755514
5.845492394000451,2.5433547885348853,3.402828509688799,1.7383875420335724,1.2462873317062872,-2.104301987970985,8.579565610871219,4.495237592139286,6.673003107591431,6.164502072259488,6.223000386556311,6.137299888750838,6.8181684514716165,2.875573788630653
5.654380335590553,-0.0462779641191778,3.0651846886533765,-0.3028322934339633,0.1288442973249879,-1.65640151564482,9.914749792873048,5.858458936260368,7.655831876323523,8.393515246782902,7.062563167277821,3.460320699025771,8.936695189506345,0.5610172644133699
2.3263428334813447,-2.471960486574226,0.8629014041477996,-0.4772203350081507,-0.0051770972551608,-2.5011963036610787,4.629510577021807,2.171371029010558,3.444453548682028,3.73916249778709,2.0587147594934763,-0.7123630999936541,3.899982010792439,-1.2860766309375014
-1.5035712173983626,-4.586684411724994,-1.5355187569730582,-1.408112185689562,-1.94869406103536,-4.6414930007920105,-4.101234824284991,-2.421182096938554,-1.976695976867786,-3.370692324728497,-5.933199448411925,-6.6622567602370495,-0.208210175729107,-4.420078088168364
-3.0854982387686496,-3.5975866896209103,-2.2978256542561577,-0.7632737083450832,-2.1788531574360244,-7.425824236573757,-10.494654674443414,-5.792162401614445,-6.787197512410531,-9.391065613660302,-11.01407307926176,-9.081023982097172,-2.913360648917425,-4.963920210104224
-1.2058891276907002,0.4933710773130729,-0.3083849659807854,1.8030075756968384,0.1336556615649321,-9.76120824835158,-9.106507643787523,-5.021394472028715,-6.953397458878651,-9.068025909979612,-8.722528819692183,-4.304992949888835,-3.1612061797106485,-1.5655574801830856
1.421709757063861,2.9813689214335106,2.134913347987084,2.2714869660069525,1.227413768784873,-10.620158059314791,-2.2665857641238154,-0.4474034968609266,-2.1641914760944942,-2.4725304712448457,-1.8270626732292516,1.6434224743785018,-0.2087641425457516,1.048755990135839
1.3237886567547352,2.061457246234349,1.7143236431499278,1.0613485959332265,1.0808855456860988,-9.541125553694972,2.7745876044717885,1.6939085848927091,1.4309302384510632,2.849751095666862,3.874025627587826,4.168046657111295,-0.7197236270757195,2.6331081710091104
-0.9628231047121198,-0.1568690601154618,-0.8014137188566901,-1.5762772084812111,-1.687686743968008,-6.8232569523395945,4.02380518524947,1.671854659542738,4.2511937943263005,6.4574442678309145,7.341827760034384,3.529201306050809,-2.835001234084483,2.466730194927172
-3.0722535772321726,-1.5027395051677352,-3.3280730703586765,-3.665795722222001,-3.738919108515134,-3.314295654685406,1.8991337710107783,0.6986551032224959,4.701295221544627,6.117747293424965,6.700529605425701,0.0460880376521541,-2.7262203107370198,-0.2175046273375369
-2.677304170107448,-0.423845217611396,-3.5847849149205566,-2.5597349961358384,-1.6630470365557244,0.0760497214677471,-0.4895152346655331,-0.2327111525385925,1.879414616661843,1.945657111490798,3.219152050641571,-1.7849065080506017,-0.5973069724349893,-1.266501631968011
0.4912678549158004,3.147092728418829,-0.2521176612287287,0.0900080627361508,2.3545665794169133,2.842986488057157,2.3688495943761385,3.1019280489474985,1.2874858298744296,1.3546965132303566,2.663444929814964,2.7939065885442727,4.323933098229816,1.0050166855886955
3.74405527815092,4.84948093340921,3.3361732386533034,2.7855734525442872,8.452947329312801,5.018428780567987,8.729368614984589,7.86413748414757,0.6297086035695576,1.0386234216294623,1.7891445880204495,8.264950533593467,9.998112241025195,3.9075392146184447
4.163205208277065,2.788451425633336,4.257118766272273,3.470547503783049,10.365644304122815,6.842477349709544,11.673284171875252,8.689787490812817,-0.4508521042828107,0.2552313976486371,0.0611990107269267,9.525980689309405,10.39217240489924,5.510364603227609
1.5828992982083667,-0.7233675935137538,2.4415288156150847,1.2153874754349905,4.490134906641984,8.222312907381728,8.05349627175737,5.115719395000334,0.3108020717734269,1.4298720305134518,-0.0207814599234033,5.956722893477448,5.112671897807367,4.197197158205228
-1.0456651628038118,-2.852712747354941,-1.114071533191333,-0.6933920673777092,-1.1501157103017163,8.512298837568563,-0.7633558511645533,-1.2572927548936763,-0.3725883174034957,-0.7241733280839562,-1.6795728718047276,-2.4391939630853834,-0.4211508324557588,-0.7013156910171492
-1.9016713411252717,-2.211467365693778,-2.9642655288415627,-1.5698057699133652,-8.140867549525609,6.975721528945892,-12.760023663516916,-7.868345623712726,-0.3055553662248536,-2.3471535407867563,-2.5962409496305767,-9.986464364074145,-6.891984132283076,-5.611347178958948
-0.9671418027421054,0.039583651929955,-1.8944886924554825,-1.3337069212513784,-11.298782006069397,3.6505891287981065,-18.050086974180225,-9.577686430714374,0.5580029711071014,-1.624746243340916,-1.7317020509914127,-10.63792790196247,-10.16655664434358,-6.750002205506124
0.3936437845856515,1.311111276878785,0.0753654370830737,0.2200614410420759,-5.512638568339898,-0.1938323166291535,-12.0140375663654,-6.282523469825189,-0.8316148383553754,-2.476190062772963,-2.139332397800916,-6.006050048222463,-7.66796247827618,-4.342183410026163
-0.3365847064649249,-0.4685484080416404,1.5315825714991715,0.4930853876528187,-1.6767205476128932,-2.6161109386505625,-3.0391217003371738,-4.002346098856497,-2.609122913758136,-2.317880395794383,-2.7639845016599613,-1.178696669461507,-6.640042536675039,-0.623200957239856
-3.067089564318004,-3.175310056276586,0.8006959421681342,-0.2374053031387257,3.5071813188736485,-2.2708743653609584,8.193616391118292,-3.367148202342264,-6.168256712577739,-3.3064481466287177,-3.3305016554800093,1.5364660834295625,-4.72485786897002,2.0113167225644872
-4.581435859107736,-3.651168684145464,-1.1156411239347286,-0.8672565338282526,7.49815949239315,0.6660184270459819,14.201281745182136,-3.358346499228388,-8.255991178083947,-4.400665129928943,-2.987028118172669,1.143090943326192,-0.7069585697288152,2.081460860278661
-2.8584677714150444,-1.179663209047877,-1.7414483749404388,-1.2116215505059351,3.9482125241571415,4.723435880650784,8.637152722162499,-3.312260513693275,-4.861969056198879,-2.161696197573863,-0.6626265725986259,-0.612543673495825,1.6981011522172729,0.7697452025811413
0.6076368753414723,2.4908585787819715,-0.7374476809201398,-0.1385003832775874,2.651072869032653,8.25103289649952,1.8966143416072776,0.2818800156311983,-0.1701530414036036,0.331606901886333,1.7976740740382344,0.1481766862169745,4.366994471251278,0.0130219266566182
5.472292415944921,5.774219697870171,1.9723936803056603,2.051779057215113,0.8787649183588407,10.359744916053437,-4.873627017844016,7.686546677017919,7.56115139055538,5.0604760350285165,5.027920513095801,3.871043104910153,7.9153124825922685,1.4245517402349113
7.811444905962153,5.764288596081466,3.7253433927413697,3.5985730716297906,-1.9786525615854984,10.932401562741273,-8.671725510345125,12.00777107202989,12.593828100292278,7.934791533975527,6.238852345443236,6.272341529246874,7.453349589000769,3.1488955756213555
4.633176302848034,1.6043173123826595,2.2970075759437,3.040418164558343,-1.0630909369927122,10.01469306693209,-4.194066589527651,10.06652185393707,8.872777333653746,5.124463613866417,3.75006179834641,4.929463817320827,3.4403370795945447,2.6219546471797868
0.2250244360373798,-2.882530736407793,-0.7484882647788461,-0.0464426656555652,-2.7382115899356507,7.531768901508944,0.9032470680884034,5.176241939780574,3.957737806739706,2.749582700474207,1.450361890820742,1.4363440713571691,1.00981012622114,0.7141971641721059
-5.6162201326511685,-8.590810151324945,-5.013327372255226,-5.088513993759897,-6.185965771591151,3.766531341243698,3.728257444482209,-3.340272419689084,-3.992839968247731,-2.433030847347095,-3.720803668601162,-4.78459221155541,-4.827755187103643,-3.5970398425115078
-8.864212840142041,-10.904884222072932,-6.851841412010576,-8.080616437485189,-6.704097775433155,-0.0309441244312831,4.207859074717503,-9.239158889503354,-10.105656196024336,-6.882112766600442,-7.952954297155248,-8.301162942241731,-8.812833113616433,-6.299225757334084
-5.624784625962092,-6.18883000385304,-3.811862543930316,-5.740327252872882,-4.530486978445565,-1.91651221002028,1.3000917827282783,-6.765959663783592,-7.050714860530225,-4.763208862503066,-5.834381731349681,-5.2942653137917,-5.359867122872784,-3.96509272892819
-0.5697691203539081,-0.2354616423612508,0.132408675265443,-0.1257991491449908,0.46049433735991,-0.5866865183420784,-1.506287945199098,-2.6126687750666,-2.6799245087825434,-2.984698204367131,-2.615619665392819,-1.1934825906429856,-3.026585886269588,-0.2002499183091642
6.00942546142439,8.62597120835941,4.900235227481818,7.064477599597307,8.323602827756002,3.2899492426518666,-1.04225723799778,2.5495671359886174,3.15009510484094,1.036336923514818,4.114402962866796,4.355708892847648,3.5020021910980708,5.07713384350587
8.964959759939049,13.243466531191205,7.226657199075383,10.308605773554758,11.884015284368576,7.134701915396155,1.3543708216920929,6.652579876281624,7.841649560401639,5.639927865965217,9.884954250267883,7.48455146773192,9.583621910042613,6.909216430649943
4.541351260745729,7.747787376759527,4.247407920641894,5.95434004445274,7.186123577997908,8.220734051821132,2.408584582606943,4.26306239108317,5.337435601139577,4.408440088062482,7.158639367536479,4.17853076731116,6.217232868114484,2.399098998202097
-0.7120068590705251,2.2078442182324243,1.2669724274032277,-0.4670304778935589,0.3411283206977898,5.858147206662255,0.8347171266073021,-0.7233547625922583,1.0084112517174408,2.3004370379980537,2.0312640530714026,0.726077044002124,2.7400436370878096,-1.6124807464635813
-5.987083892431208,-4.48656830849843,-1.983724113009956,-6.417728792533827,-8.060008293043637,2.130325451303909,-4.265090932489007,-4.980524881875651,-2.9806056511518286,-0.4723103482773652,-4.7681741177123165,-2.5091328741098096,-3.0078089074664955,-5.449092798063736
-7.155472507385941,-7.676126998900614,-4.04567100323232,-7.776800565003646,-11.627894282524334,0.366943774667769,-8.538589766678886,-6.962594557669517,-5.214015884510212,-3.356147261448257,-8.963889728672338,-4.012051933802676,-7.5840098386446,-5.772578075264548
-1.428539328716267,-2.217476153767151,-2.275920781508173,-2.919907475398297,-6.065193574213505,2.428534216988088,-7.402661384664256,-4.3963430503494845,-2.7666557946758847,-2.5103062335192825,-4.965353881095799,-1.1754389864960963,-3.676768495061864,-0.3968279644111278
1.6890053743229911,0.0587275352203102,-0.8720705643158759,1.6896856058572045,-0.0732078673620397,6.9645554192224814,-1.417892976922235,1.7638414395855593,1.5083520274319957,-0.489015195617984,0.3894156745607323,0.4992416285881381,-0.2581350379781904,1.2140869606306652
2.694224945377591,0.5617209257870024,0.321930483852453,4.428944715504583,5.608647908271302,10.10607317492591,7.643133429674195,6.934077995220402,4.527868344448431,0.78368036073651,4.766009953612037,0.7385867206014636,2.8820839847256834,1.5439504177886585
2.1932640036660853,0.7332269291711657,1.477481761381331,3.653421192707562,7.80308294134319,8.110146805152329,12.08013727984904,6.820966036778523,4.210473846705306,1.423232141808536,5.716867250279452,0.4363660772959097,4.442185820820384,1.5558903248774496
-1.425381420933394,-2.2060896193571726,0.7513467347958007,-0.2794781524072634,4.0573112334866295,-0.0611196311265018,8.072462483033538,1.9970232755634405,0.1865041567776817,0.5869335101999936,1.0482814832410172,-1.3614092444872352,0.609761049158843,-0.9346296060473166
-0.5370216942059346,-0.8955600528443604,-0.0363062035799562,-1.7569400690519583,2.1212649647733848,-12.08724730988894,0.7984686546745219,-4.328080971953487,-4.785573819072403,-1.3724186859556209,-2.935916402763726,-1.5250537818725125,-1.4292868121590798,1.4855013559018415
2.269187494911985,1.9589294275641185,-0.4588373391512836,-1.700331094292729,1.3975395318514037,-23.80873149790077,-7.308351647360402,-9.433143182771683,-9.074217469730144,-2.9030487218608947,-5.12357712869208,-0.5940114768655648,-2.774493711777799,4.421475669927863
3.1557812977553312,2.3611215402705086,-0.8782921999566423,-0.6433066421163915,0.5086669077525316,-31.557138428419417,-10.162419049394522,-8.793655119553096,-8.949441289323369,-3.5507205755639344,-4.76320442193539,-0.0239304345553932,-3.3923025458661957,3.918582333278189
