AF3,F7,F3,FC5,T7,P7,O1,O2,P8,T8,FC6,F4,F8,AF4
5.1891380433102965,1.0323210084202108,1.125435376952124,-1.5256704976669655,-3.692949211148168,0.3029203371110737,-0.0882420362585034,2.9772871201448927,7.516901863271371,-1.943291379417316,-0.4890573031746785,-4.35316947570643,-5.3667512462807645,-4.272012890944351
1.4423791396449324,2.151346113697169,3.0670715738651007,0.746788459652144,-4.41086290056094,0.7492760060716686,1.972497674671726,2.6371662497848734,6.75971054943922,-1.817395819654477,1.4500837142898606,1.1473459736160665,-5.808011581164526,-3.35862088052662
-3.4970725493344283,2.6868907706706207,4.325473112400801,5.844843698550016,-4.240763078759642,0.6783156086571822,3.624450705320297,2.5136045473979154,6.996320515875095,-2.0555256501740846,3.550816897365533,4.716217456557068,-6.449890829250966,-1.8864120902022292
-6.630389135842264,3.4111373642973914,4.389256648607717,8.409109812119338,-3.229075529263047,0.4817588805317601,2.530480629186803,2.2766937887367624,7.837670903417584,-2.3545951253950297,5.045494062296249,5.803501334791704,-5.904633707346856,-0.6965412008057131
-3.972873159305325,3.785419799385825,3.2685225860505094,4.6769090628624,-2.923729831079276,-0.2680269632081616,-1.6479618841549506,1.7133554570520235,8.030278244036664,-1.7903692848445336,5.927238554554826,5.555396571988585,-3.2557895753381496,-1.4495346080297544
-0.4008418546402343,5.316405311082479,1.6967515363826855,0.0161738270077766,-1.5667240702362937,-2.073469040650467,-6.751226869358089,1.012546178754831,6.746106880672583,-0.4106919606697385,6.310978141732353,5.51934957147903,1.7956009336851708,1.872386700537934
3.126091173555146,8.099117159215165,0.8038380015440669,-6.3839817038335305,-0.1376837775194393,-3.961071047009795,-9.68847892256148,0.6822822360914538,4.321577951202629,2.302336733311736,6.476516084647263,6.323388280037473,9.688952412726865,6.008863180740126
4.799122607608869,7.833774506294534,1.3337259791524194,-9.65951836980307,0.8187541798861786,-5.289463871039106,-8.755966133149133,1.1396333407910353,1.7649432080746763,4.196914372179591,5.197738539656074,7.372237024500138,12.710558573427486,5.808740041467709
2.2821426987572284,4.5301856185915925,2.972351802527482,-5.599696431554409,1.4668260997032116,-5.7378791804440565,-4.84118529929282,2.2259972268829693,-0.3039546107060928,4.259423380421041,1.714993757652975,7.560357890742381,8.412504032684897,3.62901641829378
-0.135990563887685,1.8245993229895556,4.387608875848747,-2.2640699466827985,1.6217548431191713,-4.781468183601227,-0.6891858748740094,2.9815795755148238,-2.112389367439871,4.432447808135231,-3.2714175193385207,6.128737369630481,4.435354496024071,0.2522048216648279
-1.0486953681097582,-1.10583569877124,4.038135636685482,2.28498271751168,1.9378040919508357,-3.3157484567814337,1.0124800053135683,1.9625979876782635,-4.209645977382108,4.341859392745293,-10.070335805742408,2.897905025729642,-1.0499600236730753,-2.478390328240863
-0.3939855548597621,-1.80986314432781,1.1852317994103774,5.987812668914839,2.200590536333092,-2.552207918361708,-0.7552925918004132,-1.868455310094621,-6.677084228224373,3.5790313899831063,-15.36088609217658,-2.0328002079222536,-3.376490886693084,-1.1099147810308403
2.081727162869786,0.5168042978003167,-3.5836726890248416,3.997357576590965,2.693624780303975,-3.382895471243158,-4.992277281996563,-8.118323662913358,-8.975648472593665,2.925083063261059,-18.6517812343965,-8.424407590872379,0.9770121021016802,2.3376894615260744
2.5244773065342554,-0.5330288004377954,-8.605418276556826,2.390797674448982,3.4535586082162024,-5.4390982151037335,-9.49912205633952,-14.622007206137075,-10.518575083859456,-0.1589252267304058,-22.490846410548805,-15.52258132505323,0.1694375584935915,1.6853062292766297
0.742883142566199,-4.509849729953942,-11.96454750716,-0.1678418930954034,3.678913876063121,-7.283535727225383,-12.1545653447923,-18.390285377968347,-11.256006792743172,-5.621934449622099,-25.135592704524065,-21.68001397570123,-2.9004211948362038,-2.02177956714472
-1.93237250455481,-7.211766295143295,-12.467459556483892,-3.3389561378876498,2.7168442989564325,-7.570771598451113,-11.965939379950694,-17.515678538646405,-11.636463037126983,-8.395653074471918,-26.962778822581267,-24.80949442978064,-5.112922849992609,-5.472306900650794
-4.954283564926311,-9.711629107680391,-10.34429788950494,-2.897611859767058,0.064609799730083,-5.53237168446234,-9.498469208248489,-12.71094582952806,-12.057410121701304,-7.954451653880501,-26.51745540526481,-23.733783873687926,-9.031983513393378,-7.255876206094076
-5.56295175516691,-8.871630946944379,-7.298155961185582,-1.9360121366441827,-3.612160986122399,-2.296821202804633,-6.525436535296979,-7.111593800224851,-12.429928466927809,-6.350864027120149,-23.253488831821645,-19.37594526470048,-7.671091926893006,-4.087188938739066
-5.6126014008793605,-3.780377048705793,-5.6771124008705165,-1.524978612747717,-8.270647055706323,0.2476163047096156,-4.996900117330636,-4.206738357016841,-12.2674846614774,-3.1516356557882625,-19.173045852502568,-14.511604056222328,-4.711526564488812,1.1367011552355124
-4.098433928353173,-2.007536190380735,-6.995677223590478,-0.8042833705637744,-9.541053980569416,0.8138633576001019,-5.803274619544434,-5.343696984290772,-11.119421952048633,-0.5631212607201634,-13.33526963977268,-11.920412392153498,-2.5639340007400246,4.124056778942182
-0.3564512140865388,-2.98092467663899,-10.637622507756827,-0.7910579059058871,-5.567648217296775,0.2551950669766651,-8.080421932297803,-8.735151377214653,-8.884055589464843,-0.3345786367857589,-7.627075772922488,-12.267796093478486,0.6173552091304058,3.9924241295177865
1.2296878103498112,-5.404191036282697,-13.788216487891468,-0.8713618443371068,-0.664650861737637,-0.6577045058517723,-9.592960974786829,-10.746869250152816,-5.76484787986149,1.0976657524682671,-1.4483738377609163,-13.477835527229171,0.3923570953900402,-0.0330873214353286
4.669536361963189,-10.900714711422332,-13.02563201584011,1.391364192312407,7.219350559632125,-0.5251666508267975,-8.065669221088612,-8.436118879363953,-2.030376372301089,4.036337145488325,7.997892686896299,-12.229995156764382,2.4700332307425583,-4.233243173050501
6.608569245457223,-10.241044632829558,-6.787375989301812,4.211530951599783,12.069647341110658,1.3358868320572794,-2.6846936763448555,-1.436486491656636,2.114376111914784,5.1742876392572565,14.218025121060489,-6.478325167693907,5.667027113224814,-5.075225611412342
4.071164290620034,-3.0107942094487807,2.993408034447614,4.9670181332942605,10.361080997582928,2.0170764374801653,5.156785611531111,8.00683216553021,6.422419824822796,5.617339868037679,17.30881729383035,2.944193044576677,6.537891555893814,-1.5906509744945845
5.201805210280972,5.842468990999779,11.54167905430288,4.66760403353776,9.784839829410204,3.2137311099405186,12.379747702697536,16.548350740946795,10.418728338361078,6.902549091117641,21.50653212129261,12.816640474272823,11.72918862098,6.673976436622788
4.31974728357293,18.56218122959466,14.148980172713134,2.4226852822920746,6.9568154382670935,4.261959347525752,15.823168280311624,21.54528220597434,13.387747078756863,7.022692129629619,21.687978546476582,19.633446392006427,14.053061698210769,15.425978364046292
1.2982636920889958,21.941270192492222,9.500794962780594,-0.5285883808620851,4.348311048884127,3.386453119790101,14.103268426687464,22.074816338480964,14.634615207883622,5.436579658138505,20.416668697553465,21.66224526262794,9.567322521920694,16.64238506152638
0.7325570227668381,14.529922242568952,0.916450871297558,-1.2236332903143616,5.274140259640208,4.215628193120226,8.596612315020593,18.89548231075353,13.845562681565257,1.9457999322866728,18.065904674373577,19.517933358081955,2.753035726226707,8.060088484755202
-3.57216658398613,7.246173986646506,-5.728973336943078,-0.4196679133119612,3.619116938934481,4.509026979208237,2.744231282405316,13.719251500067676,11.237125401285786,-3.048340038939054,10.419403085062786,15.123547679401032,-6.370431953135488,-3.571266998825981
-6.388220214943836,-3.2175363561563466,-6.110882330918586,0.1457908365900976,1.9466505293914933,4.126406413803099,-0.1093057736107301,8.312936843849329,7.35259267238389,-8.34316095997441,1.3118901827914902,10.161684430728146,-13.883686673765244,-15.295718499844034
-4.331384309018142,-6.562202114686928,-0.5011858817849619,-0.3883361055861493,0.820744038290021,5.128977680493641,1.04671514954352,3.821912553366736,2.7231749521387965,-9.213588931010785,-4.9109704154944485,5.290524498284803,-12.91118516303459,-18.28112806143958
-2.453018880941779,-0.6157545297370599,6.7071150894516975,-2.6377719207408843,-1.6471056660795562,4.76280110719634,4.285880728916025,0.5425652144095512,-2.2208950569826147,-5.007894683030491,-7.917579955005485,0.5039039480881422,-6.446827331177249,-9.31918496039739
-0.6184365904458383,1.9744611293875969,10.657725374642,-6.351646039378858,-2.8277216050293394,3.679616680196277,6.389333524159598,-1.8257999773510711,-6.8704700206408,-2.739714313509018,-9.64459611779422,-4.022455453008403,-4.159697736455054,-2.4322318142676056
-1.1513099063184469,3.884585278721981,9.85472016191681,-9.497306922114502,-4.287892286515653,2.581143756666615,5.523781042185721,-3.662421248722098,-10.156997240430073,-0.8370851230661795,-10.295481483605784,-7.52471766846707,-3.9948372380608337,2.614219998367455
-4.008397614074634,5.699432655723482,7.002795573149013,-8.693288015921897,-4.825329925317019,1.381458123367468,2.761612722263218,-5.003382667300783,-10.793113639812104,0.159329578060925,-9.997746363277088,-9.017830257091198,-4.444863025861305,4.193806168671835
-4.805828126599219,5.554847559865697,6.32566857159186,-4.206383326460803,-2.1398862767749454,1.6178576702746696,1.1467268898972005,-5.485518038262057,-8.104598119277124,-0.0733992907918586,-7.970375748975923,-8.011193238874739,-3.795314929619261,0.0191506500347404
-1.6012536226021066,9.422940060116456,9.838723346249886,1.850847588439,0.635281491444524,2.382203728656448,3.0923408338766576,-4.656563176580727,-2.854514563032411,2.6948616801230454,-3.5719596085075294,-4.926926623446926,3.165015965226897,0.7483774926597562
4.751574658460321,17.142519793221144,15.760752527017782,9.748688527239182,5.024746284638227,3.1156126737326577,8.314013627214223,-2.429701819866752,2.7292868918640827,6.067572538927668,3.240951539670564,-0.935239181167266,11.9301105542991,4.079135691578939
8.837568384099768,18.527623614381508,20.15585267950188,12.656927388335086,8.133539893941856,3.586003648709327,13.982803600223994,0.5997653485981149,5.962772136382064,6.443561079185527,7.685047375565031,2.609425000635871,13.969103491831504,5.375136897195469
7.698679041710106,14.02869463372197,20.082657230985863,8.459128739562424,5.686629271134038,2.7790120397766414,16.847290231875014,3.2094613676971084,5.176873426769414,2.69244921903279,6.518612001534776,4.760994344853177,7.702750997524795,5.193181221025496
3.917109248536301,6.692144796663867,15.532621663207898,4.622110615855483,3.182121974443332,2.2437086030692037,15.497048541108615,4.0712904219561725,0.7112449940120746,-3.170902953301758,5.146468583714563,5.3114071751561145,-0.8896847576129364,1.1258769414112006
-0.6437679222600637,-5.778527257372814,8.87177203203608,-1.2389768090256243,-0.2359804269703487,2.225948335009674,11.024773717208127,2.5561091782604906,-5.184083630131616,-9.537320952436811,2.411746293531404,4.723620367378048,-9.141837890654124,-4.489706162277401
-2.777416333842716,-10.470856713872276,2.7425766805946576,-5.147568540427853,-3.801653307585719,1.769097066064566,5.83491583857397,-0.6966146164644611,-9.48289797859768,-10.99156314125546,0.3732953866373225,3.711758373748526,-10.597001030463884,-6.826033800040622
-0.7407567713344868,-6.489558611321258,-1.610004479074191,-2.2346056372975087,-3.217826672121104,1.72002227183137,1.8106212956247811,-3.9985194904911,-9.949655406671685,-6.232044708563524,3.264515027291959,2.738618978127108,-4.46118310736278,-5.45972796297923
-0.5641401151724121,-2.5481838258887155,-4.44046056324561,-2.5318122082338337,-2.9696847540815647,1.6654296976990886,-0.6869426367114675,-5.65085865469049,-6.3253047076742055,-0.4631183379466909,5.652621985114535,1.828613417102563,-0.4339074483012434,-2.1446795516922887
-3.631545383618469,4.486326659216155,-6.441083003425514,-3.980109082110962,-3.5558669276675268,1.2515603456848634,-2.4548107580811243,-5.065890609433584,-0.4506648234321337,5.810269398897535,7.5877991078875935,0.8911479072245911,1.7834528385848132,0.8446059306858941
-5.036735204245525,7.274857873353237,-7.759612187690111,-2.7583018438819744,-3.953542537640274,1.0219312935542852,-4.341370922558969,-3.016957723442592,4.854168418694687,7.824695329616079,10.35714208587523,0.263680212542281,1.96658478965038,2.435392580613587
-4.565415980694022,4.443851328077901,-7.936446477140166,-2.7858058114517283,-6.363498304215471,0.503575813158301,-6.436902023694809,-0.7862113178687617,7.562794957824565,5.299762384831895,11.859844961326749,0.8613802077963202,0.4670331782787269,2.989444815966426
-2.1776449172051766,3.91398146779913,-6.592044001594063,-0.5042983262785886,-9.005059948610334,-0.9948785284526848,-8.114550779137279,0.9569404673447286,7.676170325754447,5.701563369886507,13.165129401718708,3.5819082775516486,3.520488240950156,3.0859867577652
3.753112168822695,3.800920722399346,-4.060376342351531,4.119427209900007,-11.27320713697673,-2.9285899199840366,-8.684224887952876,2.4316463878937,6.922036463331401,7.829795078323912,15.415673158677128,8.314320431743528,8.837421988398507,5.883022726414497
6.546419824693002,3.553477479698329,-1.358648898329414,5.082048069786066,-11.480071764388176,-4.078879912025878,-8.016277634706785,3.951583319894404,7.0513809143673685,8.274171456708224,15.066029168099494,13.397787207198071,10.002595814322165,7.260533816138333
2.921905107534286,4.200652826720529,0.4316032688935474,2.323101901987208,-8.009602700747433,-4.109636977639419,-6.678005446353248,5.017124112300009,8.110328175992814,6.0360038170145724,9.501196189670614,16.15655843359978,6.011366643857511,3.9661297622459695
0.4619819883594758,3.045315446316101,0.8030994648684961,0.0134742252814037,-3.5585321387543427,-3.118903841338195,-5.583183491913209,4.422059679539352,8.255137850800766,-1.3853692407017988,2.716205837771293,14.349696210783437,-1.4836328059989228,0.2411063480772455
-2.844656255456715,0.1553005852756699,0.0046621762388623,-3.188139355528471,2.949393553828947,-1.4956270988753713,-5.446143939800855,1.411527803457442,5.424605493317606,-12.436663985389524,-6.35899779137185,7.652890529059873,-10.75685540944092,-8.146340896157291
-4.7780978816598045,-0.9379656869170933,-1.2388519323666074,-4.627499851031796,7.452687242075651,-0.4673426049646888,-6.337810529054201,-3.283247226456129,-0.5183410693488439,-16.369411070394595,-12.94160482030855,-1.8105896079849304,-13.200171104213211,-13.0612955371082
-0.4859267517233502,-0.5421459595428253,-2.133732858108869,-1.382007223565339,6.93337102053166,-0.6644537810999851,-7.536589280491073,-7.706813549090586,-7.137744007454813,-10.442664329088675,-10.641796858352304,-10.312321803581444,-6.969779498131949,-7.334318581755104
2.2040197598956976,-0.0940782594186318,-2.0842409956313905,1.098823156534456,7.019503659497913,-1.315266819616407,-7.791782581496466,-10.131129846944098,-11.01704414478206,-2.984399947389962,-7.43278701372556,-14.331356456572438,-1.2991980656797897,-1.5503307413271128
4.969845719604725,1.0773883033110796,-0.8332823832040317,4.025103188085914,5.73459851739544,-1.81258779870554,-6.003244204927983,-10.350699152331256,-10.356503631057167,6.176505509412691,-2.924453204115561,-12.34283550589553,4.671726620719786,8.94030212633191
6.81161991096895,1.2071592831596534,1.4028809176964416,5.901525638497066,4.540865690848095,-2.238011267371306,-2.0447924110441926,-9.59275834311438,-6.385282656616532,10.019977322852366,1.0754528354470383,-5.58031038573886,7.127456428041064,16.108553237411158
3.4796475169667285,0.0788065044701768,3.849248995869557,3.255442525319787,6.758611677726979,-2.122302314705482,2.8284055477100987,-9.185130111485162,-2.372788046456491,4.888228896858514,-1.2377210059242814,2.645553234170011,3.325848799322303,9.881042604669204
1.0486944592772434,0.2837201968161607,5.337986094308283,0.6649868057768202,7.865340030677291,-0.9934914632658902,6.470868256702486,-9.340096095889423,-1.0762851690580844,2.075142721353457,-3.20889411841754,8.654517853494676,2.286975001639926,4.524413608252476
-2.102011169627704,1.5005483198783471,4.813218251911842,-2.7313001652905,8.511187893538706,-0.2575369271782758,7.11890266555601,-9.22223070440468,-2.755507977352339,0.4177860698911066,-4.238401359682748,10.158539534694691,1.8017019496769155,-3.62904942332543
-4.885525388556802,1.0562832414667718,1.9497822850468207,-5.249795850518072,7.772101008128899,-0.705808482760107,4.6022501619174125,-8.096351615298547,-5.316296628015092,-1.236955841723662,-4.880375967944032,7.168168746254072,-0.2152690755959,-11.553780837789256
-4.326247541013774,-0.7899499892701294,-2.5241242440365657,-3.9611350739092814,3.836260024015068,-1.9195639631382264,0.5028396306210503,-6.25258482759571,-6.281865877750419,-0.5838107182867462,-2.8150672525323106,1.7064904565660384,-1.2749624939096162,-9.75941040827738
-6.005652312475977,-4.81495690782693,-7.059056414106415,-3.3827954687362314,-0.8933446106245704,-4.702684571145323,-2.994239317719867,-4.708861769781393,-4.81185223369532,-3.0347735160495333,-0.4500609848577988,-3.359272312087026,-4.457088946633697,-9.792311529540608
-8.298842885909323,-11.71609790328242,-9.966939672613217,-2.966551690264876,-7.389176090426711,-7.56354942187737,-4.704503734554471,-4.039691277273679,-2.1117397401885394,-8.07130223070715,2.062333047805517,-5.69628709377177,-8.858480444919563,-10.79267540954597
-7.389047920826096,-13.783159244273282,-10.17209870699546,-1.723006625261101,-9.788780566508112,-7.937380702464114,-5.157078320704283,-3.616017707235113,-0.0614727128266858,-9.163324742710028,4.650245777162255,-4.431867762119929,-8.72864755248537,-7.244899142400004
-4.04447556225685,-10.826401868602728,-7.634678363314229,-1.0623204139128146,-7.043657020118669,-6.794227881686036,-5.762269600749063,-2.086971948027668,0.6139570889200847,-5.925528668968165,8.02520499904125,-0.2504741123805907,-4.4924297346443,-3.317894708925792
2.516220570958596,-6.637813806587905,-3.2731922860648868,1.1126227167003957,-4.840313536253022,-5.192925168317227,-7.15002627597106,1.376884950546696,1.0271310378375058,-0.1837676136664471,12.567819963532962,5.260863578523392,0.8540577607810399,2.806263359882553
11.90511210691854,0.6329560302366963,1.4938828761448386,4.941452727743962,1.7264985666788093,-3.4409003826407947,-8.238647747814987,6.303862939645176,3.1000079931458693,8.512022790044668,16.889976484213594,10.508904719561237,8.94209842050991,13.774829040603851
15.204310579507204,2.8735970486493545,5.283139969758972,6.517935204856522,4.506522497045884,-2.5775937761445102,-7.045369689814235,11.264933423247903,7.694670376030588,12.661659228684847,18.3411698242136,14.406525616015646,12.731183536603616,17.953313815546323
9.757996010589796,-0.7514041080169421,7.107341981457056,5.0516031828834285,0.0579746287256048,-2.189398304145673,-2.6660470277815507,14.842627961584364,13.45458148087023,9.640766550703392,14.511344620120234,16.27271027901596,9.08554403162366,12.064856161165766
3.244820792353171,-3.44514196612478,6.540410818024517,2.9270815002861794,-0.792311415475206,-0.9916778434263042,3.3669283000138623,16.270527328112877,17.368968039748026,6.903798354579359,7.854860922935167,15.51357895695354,5.821819112454257,6.844633543535906
-5.86917977415046,-7.176818527815759,3.8285771686152894,-0.6027608710819039,-5.299998526832786,0.4171788553971962,7.783039045987927,15.415528671823868,16.75558829758277,3.469600568055336,-1.1881250986787748,11.69705735700843,-0.2480058701886573,-2.459895026219159
-10.532430429144124,-8.827403979641621,-0.0182488094869737,-2.668380623693298,-8.3608510566383,0.7475752683654964,7.998157573309662,12.583848327242986,11.247797282808024,0.7518608576175061,-7.705978322501927,5.133601072837513,-5.4579557328894,-8.39179786855292
-5.132194326196331,-7.329254226625272,-3.380112610743896,-1.0880078347344837,-1.8796443563709488,1.2391523202106416,4.289473051353523,8.606172825359842,3.295872974387132,1.6282843091319887,-9.302181988815432,-2.66275335180572,-3.605702637251511,-3.0767068923779584
-1.0188153558905713,-7.174405818099562,-4.673934969105565,0.1001469424531633,1.8673159454308783,2.233978049960946,-0.2135697974236725,4.9289815281610645,-3.275793972272551,-0.1880700759386168,-11.6229392857237,-9.375004993838662,-2.324602498854403,-2.213730718258561
3.979314774406867,-7.431279389544038,-3.3275674321923727,1.4047456094158468,7.264511191839946,3.769510982305511,-1.8468816464983469,3.094570803439682,-5.712670092341057,-4.4337371501550695,-12.697234239560634,-13.12516270518198,0.1789806448309114,-1.3314082521876864
7.091941570162704,-8.473254043172163,-0.3983658432887438,1.6156250621364483,12.76853654705852,5.895706254053426,0.8356797561423863,3.6476901912722814,-4.086062253014557,-7.153210121355709,-14.54518298649786,-13.638162878120417,3.160039848876454,0.8271111640970064
1.6319165392565589,-11.019413943112776,1.83937076678545,-1.5426081876796522,7.573544218528653,5.598547746550746,6.112575259855067,5.444161983338536,-1.13753220771315,-9.548618130034466,-18.523275668707456,-12.333493670131286,0.0401311218591468,-3.473247515209384
-3.5288722249275226,-13.80233749534969,1.2963059574987916,-4.825529775057252,2.2028154171522494,3.6118688281558167,10.600740989812426,6.304841116880127,-0.3179292114422065,-11.486281772301908,-20.092989266595723,-11.228313231384284,-5.348881498258417,-4.920697233468739
-9.748174430894748,-17.163652529073293,-2.4509891300135638,-8.548431791266484,-3.000646133332652,1.0943940763396929,11.808326866251493,4.737269047063672,-3.357036557788636,-12.55727235072428,-21.986700319582376,-11.509254632594669,-11.932426745851776,-6.547589910241476
-13.142722373524904,-17.011401415193248,-7.70428200847107,-9.074593057603977,-9.62672222155028,-0.921897179403039,9.63811893485816,1.2643464118013688,-8.998594608351887,-10.60657771589335,-20.2361451107285,-12.803403078179471,-14.66161210118229,-8.55205527603321
-7.216679741509837,-12.796502272728754,-11.607321177572814,-3.658200946864599,-8.94823428751846,0.5827022886104672,5.894278597484695,-1.901561777538677,-13.74313626655668,-4.689059408539741,-12.063722610490244,-13.529328262927669,-8.142339446852752,-4.77413006547472
-0.2117913308803374,-7.551975318583144,-11.888415511365002,1.805876412261027,-7.425803604161305,3.074245092535956,2.603211985975097,-2.6084785683060137,-14.12199879418522,2.3624777502136416,-3.268116120516896,-11.952336021566296,1.517933102679602,0.1054470366624903
9.013315475250792,-0.1438117106256873,-8.220788109536397,9.126930564522054,-8.279374176374098,4.521286286829853,0.7065884115946579,-0.4111782964422055,-9.017396600868242,12.5363355515497,10.079752048877738,-7.283088287371458,13.033162131183191,8.81379882483072
14.299877184459543,2.843053323794711,-2.36813212818475,12.152928663104248,-7.332946861890405,4.667552833620979,-0.0276833769115025,3.2317950496882712,-0.4845666335385701,17.493108522919677,18.170847116813054,-0.3027583907980995,17.93643766164077,14.676217868678206
9.342706865385043,0.551366807018749,2.885848766590475,6.152657990262851,-8.482811123236813,2.439858849829268,-0.263099114607451,6.162959277297023,7.49732981256173,13.434005745795304,14.169209144251148,6.767366790104525,11.335690079364058,10.987550899653211
5.001999410830105,-0.9577357372987306,5.30062939832044,1.7959581217333018,-10.82864537578712,-0.33178000503088,-0.4483638434869772,6.935112259151653,11.504684102532917,12.10717916738125,10.77651858907292,11.186387752059694,5.39464451788675,6.537986376190389
-0.4172679212860716,-3.345752444164739,4.293444807928735,-4.5700091954502735,-10.409531260660438,-1.8777543344279344,-0.7547018084745463,5.34923730943423,10.658306749879769,8.569700663790496,2.4597320440625308,11.069233288799929,-0.6400307535651419,-2.0570766801958484
-4.781502731711816,-3.4792019954160307,1.0051957777382372,-8.648884618528465,-8.988019497040206,-1.771822193212801,-1.34801732699554,2.0728391222217404,6.767444054041547,3.1265830574800804,-5.2241990006619,6.471055209732679,-4.237867516974965,-8.990650506463894
-2.638457420483733,-0.3210158450238092,-2.611379653697103,-4.11802435004555,-6.070941809257965,-0.559916493131047,-2.497676175318873,-1.9656229251261124,2.6804233588234547,0.9987839591032496,-3.975730914897142,-0.5858082871166825,-1.3566622713040009,-5.892250223120213
-2.942445482884013,1.480884696858625,-5.007168450283232,-2.7218435801587053,-0.5102053472894552,0.3093351587499973,-4.360102570734881,-5.878782988232307,0.2321261697997449,-5.979972751430983,-6.575980638266175,-7.288228718098759,-2.153993596302567,-3.353117895575818
-4.836240329284524,2.8428067581969128,-5.742796774167871,-0.8613671536403747,5.672384633416291,0.5522606471219247,-6.697939898874616,-8.89978965545669,-0.6563478201670279,-14.875371616941436,-9.733062716584252,-11.657744239549045,-5.359307469759091,0.812893249647991
-3.915566093938417,5.298347855367302,-5.309227225916752,2.1209031919506907,9.86856464394243,0.4786704065534436,-8.857785867848584,-10.546184533814955,-1.264607228745227,-15.886704465509874,-8.969221845045244,-13.465445685444568,-5.816553185379545,5.504142968055196
-2.498381566699776,8.270832645611927,-4.372528264812185,1.2275347113124848,12.575660364151643,0.4683453079543187,-10.063509202256633,-10.848026530160666,-2.622624351242818,-10.616221500389685,-8.818974843454365,-13.795962628574776,-5.028154714449001,2.700518671541089
0.6951305069483018,12.683606499050413,-3.141859841383507,4.207637349400475,15.07011209118171,1.6924965798751277,-9.816599679262788,-10.315857625617744,-4.613451625382464,-4.492108145688658,-6.505705768507531,-13.701675981191102,-2.001692532216797,-1.5651571538823623
6.834102090235678,18.77549915411625,-1.358906653282987,8.679072980461422,16.293134451333138,3.4264610916948577,-8.156906652736245,-9.53025166383748,-6.210401212902942,4.36719257428286,-0.8020358917354714,-13.132403995910591,3.142734226434132,-6.263858030263574
9.02609881544995,20.511703421532363,1.1626733442990125,8.371371028806013,16.602329902438075,3.878090291557935,-5.665522389733951,-8.710825766826186,-6.40085391797256,8.511285131911132,1.7050032268459905,-11.091663302099429,4.983371943731479,-9.09075816212584
5.047294723493608,17.63994875402263,3.968341498900948,4.464303611225061,14.978223150480536,3.6893972921143967,-3.224785704796729,-7.714574495480932,-4.928244021305481,4.590917436439184,0.2164121866153062,-6.901666846881069,2.53588450388184,-4.797116802796545
0.7629931216059502,13.806326845934072,5.896565049581749,-2.1411341797571084,10.872728432672409,3.372631026981315,-1.6324515732577618,-6.436476619366581,-2.3547846807310044,3.1394058347661926,-0.3781856765124093,-1.4237757730662215,0.7996975991091223,1.977066383632608
-6.059341307209524,7.559059054214427,5.676838462823774,-10.44901137039278,5.33099887866631,3.222756264609013,-1.2318757185205254,-5.097498438990604,0.4091898489575563,0.9684470352770762,-2.653421624262106,3.0116082230227263,-0.9296632264507724,8.755530388386397
-10.176659198713883,5.318614515525121,2.865522738588158,-12.750588171526854,1.2825872026887222,3.907563034891711,-1.75580593060364,-4.036268114727358,2.626241423633555,-1.683783760541031,-3.5569628311248924,4.160864445033849,-1.987408541129054,10.249208921771809
-6.321287788151547,7.929847113966645,-1.5274646127599354,-7.024947753396507,0.481098270659231,4.31125885434611,-2.500799096064036,-3.265488072994371,3.934847964278706,-0.0027723853496346,0.1605886670819898,1.7229239322462258,-0.7241025397463735,3.912403485784676
-2.796502129433782,9.299579366440978,-5.302440576944271,-1.6106134739163205,-0.2616455522224771,3.2961395770284594,-2.7436868668326184,-2.4131495173010347,4.214774674418883,0.3769172903846332,3.3514703459706765,-2.1564109004947376,-0.6703750515737262,-2.072290926735981
2.142599298774302,11.01815076732595,-6.279944436833619,3.9552295368794814,-0.46071610315855,1.4486170267212004,-2.1336280143632878,-1.2315601421743878,3.3860442576273906,0.3910615906732597,7.343989949947661,-4.35230782804396,-1.209077405017207,-7.261044413210258
6.055081298110785,11.016583077860506,-3.768767628433306,5.939765449663346,-0.1843724763693933,-0.0974603075726638,-0.8229309595011749,-0.0863929408294668,1.445656339762114,1.3867284961618125,9.987167348818238,-3.091254425201665,-0.7072478473344905,-7.834876818451977
3.421502233392013,8.317228843245971,0.7929221339223744,1.748256977340409,-1.3301211345577042,-0.8581211046048808,0.6772317363525984,0.2870060612673044,-1.221688336000908,0.1734374062203337,8.942172398078602,0.8049011283001435,-0.4160207422782522,-2.2097350447658144
1.0090950658388422,6.452488935362876,4.676971580296467,-0.2570052946329342,-1.5728403997444116,0.1884843663576652,1.7391167197603004,-0.3354273266821774,-3.5996572385715773,-1.0672937641033695,8.05756218843261,4.7845658315543895,-0.3460463447106298,0.4142056032820506
-1.773051034117552,4.720694294951298,5.735293546791775,-1.5965846442807088,-0.4846352433284546,1.7236690826923078,1.819272887923443,-1.1172258480787427,-4.320058314946463,-1.7130665731207897,5.687614367847746,6.690345413753908,-0.4222308779144436,2.5729796739812176
-3.9330886493664345,4.263276281945443,3.9380412295740825,-1.5526228098524617,-0.6757783608223156,1.6267372577649406,0.6564981029975225,-0.7431385459669428,-2.5198585471572787,-1.636609620252086,4.822150367970585,6.250248236074841,-0.2390542203758006,3.701235410582103
-1.2618979769048138,5.744237358229018,1.3506182519479282,2.102109606612045,-1.440704266942554,0.6774428968223021,-1.4572404098459142,1.2609131275706584,1.3167118633218404,0.3283100261157555,6.214854553299189,4.805400280869541,1.196442805199058,1.6271780464195953
1.9503514698476188,7.584331442749428,0.5118778271178179,3.7770923347824,-1.5017892363985963,-2.71232440710348,-3.482683497685265,3.810687078731728,5.349967261099909,1.7100370820073734,5.981667863299721,3.8481462412128256,3.8343358528828073,3.13153194167409
5.472741706465947,10.28787028143431,2.461791673834819,5.818994384012924,-2.6654564488895005,-6.731991045119595,-3.882799393205421,5.03480711260519,7.440092165120369,2.4755568076691907,7.423559971787455,3.8688667079501062,7.0390066110425416,3.858542764207179
7.107754292582845,9.67432212928865,5.949461066016141,6.318000785792297,-3.4520189666058507,-7.58386073968333,-1.4993366901345233,3.914612037677268,6.534454811677785,2.0227111293314346,6.102768174906659,4.379191829127881,6.992380638323015,1.4195650436793823
3.781525611848709,5.188198093816631,8.39355242228302,2.0645408006691,-2.586257576189428,-7.093353221919536,3.3701276658289974,1.207905238091172,3.267886241705037,0.408113815707722,0.763471485045848,4.681599844835148,2.886768777280196,-0.2475852472226358
-0.6048948446008735,0.201838202735327,7.785368848634696,-0.5808468396699348,-2.458473237736179,-4.464979745859607,8.608881328700592,-1.2548454571304148,-0.6822034388039171,-0.0781234929381037,-3.3788324387484368,4.410605563916889,-1.427067842208438,-3.4861656981184392
-5.872699987709313,-6.40487624125539,4.058308190346223,-4.872936072328374,-2.068391124221816,-1.3568526301324433,11.26923724150057,-2.1696474104049277,-3.833892483698508,-0.7552604547300585,-10.893540332033792,3.4627481406108025,-6.105261543524862,-4.567525359560081
-8.063852627549716,-9.028221061552,-1.0219095627091228,-7.569613582095052,-0.8964370430450816,-1.155944674067055,9.511230809310833,-1.6544745398592635,-5.620010014096572,-0.981597649010196,-14.276012129198316,1.7538223189312545,-6.820901087849216,-0.578070237649313
-4.4443692180227625,-6.809054410636772,-5.181155209742984,-3.995859813883489,-0.8482756045251331,-1.289263056480164,4.120889044968306,-0.6614541456388672,-6.113794825078841,-0.7832426606200341,-10.001774648606707,-0.6710592897414607,-3.012205913527934,2.741439981950047
-1.220078776915508,-5.343613125944181,-7.036190828951329,-3.2346011007174016,-0.7917586166908146,-1.812045609451834,-1.6906698709389545,0.2961339340299922,-5.329792312866527,-2.542323573354527,-6.844950335104662,-3.2568406985538942,-2.858694245870651,2.2590190050568664
1.973100586961689,-3.1962908442266675,-6.558115036278991,-1.6928493957415756,0.0136881282898608,-1.564794603914046,-4.26552045555442,1.6833085992000931,-3.01738898111868,-3.9986444668291328,1.015830084028566,-4.827330348068451,-3.9396166132131154,-1.9004612693985676
2.972408380169788,-1.8704575932135412,-4.510946008536951,0.2401704226754156,-0.4634999624153249,0.2137395278513655,-1.8785267861294892,4.251049325124023,0.7979602441574531,-3.865030346572013,6.673976764675582,-4.0711829313214265,-4.690565240565484,-7.674241902817763
-0.216898458909939,-2.233625242282633,-1.644262830282447,-1.5194849427581758,-1.866153661737035,0.7215820776573938,4.2236408302322,7.969594030561552,5.192757228344275,-2.9591091072865825,5.411122976790967,-0.3752035142378505,-5.281771034357049,-9.132426605756764
-0.5183564733547132,-0.6412515073751875,1.5375321421330952,1.5244347449452422,-3.108286802443196,1.329054498629903,10.814812086174376,11.744740188901552,8.482191757525175,0.7004882370579755,7.664466191548541,5.562388745392061,0.7053898658669704,-2.542302960783372
1.3091566916419108,2.4310199221409943,4.377679459221758,6.152908213779883,-5.6470606913302905,1.4440571764920676,14.839791634135151,14.130560911094516,9.19700513958696,5.09896272518333,7.637615323508356,11.764740089239153,9.28198702642124,7.492692407681206
3.1907125571568558,2.848983288194102,5.776790452256488,7.292890509063411,-7.427487456560916,0.2886928120834783,15.102818246901553,14.237538850744867,7.104060844309731,6.1817850711273366,6.582792068569464,15.74738702271856,12.304134957636087,13.79674522558324
4.9243685818037966,0.8990699237087658,4.69900921156362,6.04814602713207,-7.233252553414053,-0.4742373536776445,12.464091941638989,12.051367532798023,3.3805704092815514,4.656792550531991,8.135763446092719,15.78220670987016,9.049838524757844,11.922504500851964
1.975696032574345,-1.5844922886470407,1.2447407054631947,-0.461809365087872,-7.354816132068139,-1.933228980804102,8.756861410180008,8.179382956933763,-0.1956889784174706,1.799153354178444,6.051957582416503,12.056347035850218,0.9820113128207022,2.020914161988032
-3.7803515218750814,-5.432040045714868,-2.807775891527086,-9.03084067423408,-6.8290667677926775,-4.105292702767525,5.442430855498247,3.533894034150951,-2.360963036253774,-1.5226902338635804,3.740003316322858,6.875121245328444,-8.134331466577162,-8.82189649955534
-7.276541747715138,-7.674882753752555,-4.890379588935829,-11.647747623864122,-5.523018585775661,-4.889998172347757,2.901876904097913,-0.8627815484769503,-2.981597043101112,-2.681568896361978,2.941530786246393,3.3698862936652514,-10.822739556587068,-13.368953429182426
-6.426030885192518,-7.952908435675769,-3.562976261580411,-6.798314400243708,-3.879584297132729,-4.221805641349755,0.6086106558303617,-4.227544155955327,-2.90479677907902,-1.3261302245695712,1.8771868804642515,3.255499153180624,-5.945460235794525,-9.487667234757929
-0.5114935514142274,-10.09413990229573,0.1471381115067651,1.0714274837250215,-1.2544216034541222,-3.4416338102869672,-2.1237291586523965,-6.548465086531864,-3.323465341455152,-0.2018351587890658,1.985962193251244,5.323072352000168,0.2059073667966172,0.4733646938574216
6.370192159998603,-13.491996399312583,3.383845362807646,8.46272013852989,2.14555440819776,-2.559191218351913,-5.336818123182743,-8.651565952028077,-5.044736533453946,0.0215250691453812,1.9831103763279097,6.251571201690035,4.363176751268844,8.542953985392566
8.680189660691086,-15.192519505109818,3.7925490198479546,9.797559951109184,4.273871885177719,-2.2710332142074274,-8.078008806252694,-11.209679560551589,-7.903298164299464,-0.1008503705572811,1.2797060842449697,3.524271898505087,4.458148904351646,10.07801187026294
5.160790059172893,-15.603797369604209,1.5770499047004352,3.99779424573276,3.5245241395602496,-2.7110768258348497,-8.845013878847833,-13.311579597571846,-10.56010852540163,-0.872934633150341,0.7896797792644836,-1.91882536504649,1.02758019677844,5.789543256804418
-1.4313195450711735,-13.82328659868374,-0.6482029086781456,-1.001034085264859,1.9970999601699964,-2.0464005163401247,-6.70844882344874,-12.313045745910031,-11.025686219820283,-1.440868844379707,-0.2033647264859018,-5.948188016852013,-0.5492077447526515,-2.164450817743659
-5.945947159934984,-9.133649594917452,-0.213217101110251,-2.645210516174244,-0.2381611704428564,0.1133845256280161,-2.367945665840491,-5.975392832536079,-7.970391235750258,-0.4013430000247119,-0.9445453662651232,-4.709564865662424,2.361900286278248,-6.234669948172648
-5.130735054187298,-6.673772079509796,3.144191500042435,-0.9779048231609292,-2.184334453432468,2.07951255018567,1.8485151502532096,4.52083161529648,-2.1027243364902635,1.1848089193483424,-0.987029680129297,1.5895760103667165,5.981252268347694,-4.798109139726762
-0.5904829039853717,-6.328882085231494,7.008439255044426,2.440923810843641,-2.0047132488272497,2.5574992050989915,3.3876392454177875,13.803895621379846,3.66301410435487,2.258390389113164,-1.8746461982393,8.242168848153204,6.57014802859926,-1.3512342044408665
3.676746528274376,-6.788780114702093,8.498603964664204,2.216266895914548,-1.940141207961376,1.231436897156465,1.3902725653359589,15.535612669024124,5.923448192372749,2.582909456857009,-2.431381895867584,9.832189744935356,2.727610050209571,3.351027051378541
4.499886183909078,-9.26281689947162,6.880317743120964,-1.4851396453310968,-2.3225810769370283,-1.5615189206420896,-2.4695892219534734,7.606434305968447,3.4054477079731478,1.393228597544624,-2.368334989118707,5.069275445922711,-6.134514341217908,3.683964908493316
1.262633872155712,-10.603234472966433,4.091141636717172,-4.842419894999922,-3.2434758915070367,-3.659197447212685,-5.135021369715128,-5.310494052831807,-1.714424560412203,-0.8894970580222166,-4.053682428444613,-1.8846140732607424,-12.209776284566903,0.1354207256269919
-3.016886825514816,-10.802663077071758,2.7125828932359326,-5.276082725873492,-5.21679377248175,-3.5537955650617032,-4.540805855673362,-14.760267676593632,-5.270984310054764,-2.6841368148744995,-5.358006502657938,-5.1238377779781175,-9.85988314526375,-2.374861171069715
-5.027293148762215,-11.360034675305222,3.417799205486432,-2.412708600639213,-7.168478314170732,-1.5689825171008251,-1.2694609587336938,-15.027700682473034,-4.430492116259865,-3.120799064591623,-5.939106580061796,-2.4657395697479494,-3.606947933810825,-4.590931570458956
-5.624676228496772,-11.597376375855887,4.433391652563602,0.6554830869732811,-9.551040209215522,0.3185047859430662,1.9506859974606316,-7.57777220259976,-0.037940939169669,-3.7709298266620537,-8.509911944428723,2.5132487704587305,4.424075823529254,-3.552621582546645
-4.170598918180903,-10.913141097558556,3.5433326869742,1.3517562623920711,-9.483919569797605,0.7422935350283981,2.5164487303786736,0.6165919411165959,4.207105300863152,-3.478489085405841,-7.610790257494879,3.954340504328293,8.309954709391267,-0.0337145304640245
-1.1065640297655497,-9.279204724756989,0.6145682713628116,-0.0718412757396347,-5.893690751532798,0.0687996981641835,0.072436424417237,3.3567057608912734,5.094961295216503,-1.7204991753328571,-3.20712958241577,-0.5185798488393942,4.325488906331769,1.5927564013782598
0.081508707144603,-5.555795299109939,-1.9349016300207251,-1.527993901264161,-2.029582276318265,-1.7921277014772787,-3.286647226442547,0.3602798481829588,2.715938319966348,-0.5634589203439115,0.0534056890186759,-7.293489920668371,-0.4728626059150146,1.6836508916618254
3.344347834006633,0.590508115135988,-1.303546812618258,0.696429115747032,4.418407854787295,-2.332069578355585,-4.8322942137936025,-3.2938000833524725,0.1428350855217068,3.482593389846316,7.256844107860523,-10.00415979288973,-2.6138701458995297,-0.176062866988366
6.691212799750156,5.0734681014676255,2.911785563905553,4.751553245606831,9.15410377023889,-0.2341885334001826,-3.438695022824604,-2.504775914741362,0.3675155735342663,6.99010051915266,12.249996310569363,-5.44882597681201,-1.634483114124739,-2.115565337947486
5.972787756842339,7.983911221152876,7.990846769402889,6.150001983629039,8.608611667325071,2.5287665875707264,-0.3779842976096788,3.018446060270485,3.46909415909387,5.645234783711369,10.64306864186134,3.420842993787339,1.785515631886601,-1.0215484642363626
5.557157754584009,9.34983180440537,10.18067935337669,4.430358530400433,9.20390182944785,5.454749708148102,1.8753079376145187,8.852986036962179,6.667484434346402,3.612626550006074,11.35173567126499,10.15219530449495,3.0176318357180745,2.5540689965014174
2.0205273482830792,8.094098464378085,7.744684565849408,-1.50233425312087,8.568767244275076,7.62725028481729,1.699865827770623,10.310599954947076,7.046238697573738,-2.1394437393131582,9.791082212213563,10.385646851143854,0.0945631607858979,7.673433081871597
-3.036600778810859,7.883876481147364,2.279455877408548,-7.096727056849913,6.621039288334546,7.588223163841303,-0.504089942433783,6.644858450010382,4.217323776854865,-7.762022348393242,5.673493630542445,5.129568342552773,-3.742150032498482,9.32684673605255
-3.738389039282581,8.494346107619785,-2.7402843131756214,-6.758905563049694,7.534976846924439,6.715113317524927,-2.895867698041286,1.1607654617060987,0.4655010266394903,-6.839582468707639,5.375355194732235,-0.9463345780005596,-5.632453991364768,4.308404016703206
-3.2229739373944017,9.67360074012882,-4.7510189543736665,-2.2409245903028703,7.106082986469349,7.014661858827588,-3.8512394141892834,-2.304721991392313,-1.4991456888164407,-3.869247379802845,2.633248095219189,-3.9992996592065673,-3.0196469412262323,-2.0981963603951304
-1.5774418526705711,12.24744425606034,-3.793911702177432,3.819280521467878,4.899008900231123,7.39117820720973,-3.193571320944301,-2.712110038132039,-0.8410618094245663,1.3245855067594487,-2.954036049249795,-3.854470057899512,2.541884028216347,-9.673506674551584
0.844689713808704,12.80810771704724,-1.9142583428261448,7.00940211877618,4.64755793616286,7.204842502197232,-2.032028918196797,-1.9037859974744364,1.1175061298611872,6.125005095471931,-4.7057389247916905,-3.0108042398661503,5.997479850484356,-12.394077041036931
0.7377192841072009,11.394746744225394,-1.165023962349565,4.366085715134606,4.6132206668656375,6.604117086409888,-1.5590937359848596,-1.9968851791307287,2.5100530370766414,5.60401470424894,-6.384159107960532,-3.5728992778932813,5.845687362959314,-5.9067208266335065
-1.182823467478939,9.259322633159726,-2.094935325689331,-1.1436073946615322,3.805455883366928,4.356142392274866,-2.023519126505974,-3.1629728529274743,2.5878370667505948,3.0469024412076298,-9.66717790181392,-5.436334174526472,2.5206086751151875,-0.2119553611387267
-2.3331149760107928,5.634338904861811,-3.795052101973479,-5.622620879212854,4.656076673736547,1.5125824909221663,-2.7560942209570136,-3.9506759398767457,1.9234903060218933,1.2167719297102135,-9.447065988204022,-7.105282535564573,-0.5820855625498169,5.853614491699225
-2.4296440124848937,3.9926716643498334,-5.043510422325696,-6.4025655131402015,4.868135935378847,0.3457760203532619,-3.023769323375074,-3.339936656230828,1.3785893843911374,-0.189251967580841,-10.037615967113652,-7.631622197535607,-1.0990391231130174,8.33423007227896
-1.1265094418241814,4.607331727098591,-5.332517550193462,-2.89526900248433,3.359968781791672,0.2847253789411622,-2.745014147683092,-2.009940413952373,1.1921535801492755,0.0223924581249803,-12.189989678639355,-7.426411412266301,0.8580323418220874,3.1593476886679808
1.3854756004504454,4.620078298202531,-5.042204404620637,1.2725516031054558,2.884579945952129,0.7089947652016042,-2.3923860710186826,-1.464978487237552,1.0506327421733577,0.6416232307935903,-10.951909082272811,-7.428726450407467,2.306232175065232,0.0026725771793982
3.121196063101244,4.83206996906522,-4.948841153386793,3.752933008875326,1.9714950920842864,1.599992585288756,-2.3206160523593957,-2.149606508958451,0.7254507342066994,-2.0854527037376327,-10.413257854342024,-7.976005110112309,0.6647259355050483,-3.1101632868967086
3.4181361435350293,4.672574931516656,-5.652195847262679,4.254583795652355,0.8684501282809526,1.7545302266803413,-2.301997502479613,-2.7392571739351936,0.3471074722124498,-4.144066365964999,-10.164307371067482,-8.672936059789013,-1.4478001943879115,-3.754692819765007
2.2100510850254054,3.749923110143628,-7.2426049388964975,2.346989015250345,1.4280237274654155,1.272831413459302,-1.7308518351110989,-1.4273237490870887,0.070625121899436,-3.048082503264357,-6.430780278128847,-9.06076445864558,-3.363535795158745,0.897630271847828
-0.254953303693945,3.255683214220984,-9.19721773220419,-0.0014539029382356,1.9282347085423035,0.0017051346018142,-0.2312264192740638,2.123552686636737,-0.2488650871370712,-2.227534361008996,-2.8140175611914704,-8.993140060019993,-5.314249457006068,2.215212431570844
-3.0868259130318325,2.9657515488647985,-10.512618161803424,-1.377491776281499,2.429790191610756,-1.6379293056585962,1.9339295377397967,6.152539194183632,-0.82193108394641,1.5278821527016808,1.2721914232188862,-8.32087178641866,-5.6395855287571655,3.732702173224405
-4.54599778964113,3.485804477009766,-10.198286357765708,-1.9837172416947837,2.894286699442024,-2.5379668337501977,3.949196016731184,8.095056302731125,-1.4410340434853066,4.502110956890506,4.558644743440278,-6.654256408620704,-4.270486320891957,4.389269022146604
-3.611637038560903,5.066870144989423,-8.02702231945234,-1.5455508914752745,2.3929400899565936,-2.942312304429994,4.851473774538981,6.555841812408957,-1.524927175854264,2.4251550746645383,2.854352506119992,-3.93195707254597,-1.777628397397655,0.6814900913655728
-0.6205414104941571,6.752568433100513,-4.978942817062943,0.0702520452794124,1.9985830296912184,-1.848977604627352,3.962069831549437,2.253930558970149,-0.8511048736471309,2.2366160988515125,0.0012302145026712,-1.2600098096857284,2.982312203765443,1.0468389139264356
3.0585838269479457,8.747353373508675,-2.773643914327973,0.6678012254770029,1.4732255653304531,-0.6829903837433133,1.251210347151586,-2.621678294763077,-0.1402616813031656,1.5120625859598764,-3.730420258788081,-0.6819265710387068,9.543921372927976,0.070300565456117
4.683099999520994,8.603702969300855,-2.596189279352684,0.0854104933731296,0.9647053819348748,-1.329383480686893,-2.394754195130293,-5.821036352762537,-0.5862604142231653,-0.8648755420930685,-6.909025266225799,-3.489541886699021,10.649741791211072,-3.65093335929876
3.400670674643308,5.92935454577389,-4.020669860402963,-0.1546485414418691,1.171041744187943,-2.5902560767585467,-5.247100273848686,-6.080724215735266,-2.563597699988371,-1.386653163813753,-6.527866712694313,-8.523300699420187,4.901524890852951,-4.609972507245458
0.8742662634027538,4.559439250445486,-5.21222212788917,-0.3469929658765465,0.7508787354174912,-4.346227384696453,-5.468510839731973,-3.4205559750970167,-4.864441251122063,-4.148926792949153,-6.590037669220572,-12.453097207164516,-1.956580997526642,-8.169650913650473
-0.8573980003265215,3.987291230143695,-4.444003885296574,1.8168396062292496,0.3498445825795274,-5.349343729575206,-2.359665431340897,1.0029120610027429,-5.519365892867889,-7.688521920253178,-6.862117496110465,-12.308011767982103,-11.925960171461083,-9.566222176943436
-0.7782946730339217,3.9664950229900993,-1.6958709922054496,4.621991306682935,0.903034375739988,-4.421704784844166,2.745718265273659,5.228909518151095,-3.643918080169385,-6.803734727221297,-5.016324367035879,-8.111411846743394,-15.621003227721658,-4.914366768922026
0.5362335941553253,5.241331588434215,1.127047684044598,4.388694103739878,0.3857148099601851,-3.255652864265475,6.928671225879292,7.155712905417687,-0.4912678400765387,-2.6854158519082545,-2.2231890964885985,-3.000343597448349,-7.719983312372347,0.1083739270687871
1.3284331909649465,4.849438723617327,1.6701227651076422,2.3066213615017457,0.0684504399092336,-3.1515245352438805,7.536134734117809,5.612713938842099,1.530139188165819,1.6609906092097506,1.835839627439226,-0.4487557629256287,-0.9837073155291862,4.137215043581726
0.1082694076120363,2.817899828219696,-0.9000940981882835,-2.233345026433768,0.8253677520594177,-3.977468873617525,4.164280421315532,1.298944389336711,1.115691058478859,6.705492186732925,8.329347470307244,-1.0821404161174542,8.603119956055734,6.437939866297807
-1.7218554113147415,1.1559607023826055,-5.103014566851897,-6.182267374968044,-1.551865850171303,-4.9637951222159575,-0.9214869223715496,-3.320639580088653,-0.5664192225677525,7.859163560846272,12.005901810327453,-2.1374653092096096,14.48451464073379,4.544910606502902
-2.579186143598064,-0.711520505432862,-8.203454303256791,-5.835049487199651,-4.62034154812584,-5.071453947815241,-4.491618273692808,-5.468522278052831,-0.8414158071906286,3.913186326711981,11.606530195278294,-0.1624537985971414,8.160270716485115,2.0800031155337213
-2.7461974921253702,-3.4144118146443896,-8.236046973069065,-4.170900127095418,-7.062887662644824,-3.061550913261988,-4.887340833414179,-3.965473186479862,1.9633013108431785,2.2822463246968185,11.979610412095507,5.57654752236283,4.090583006567004,5.069821194238221
-1.9382345369092409,-6.780256495345017,-5.351404495091515,-2.587156636960631,-13.06899466763376,-0.2929418992543536,-3.2190215109456872,-0.0922065089727084,6.800907600350925,0.4283357145921187,10.03276423997074,12.218082538388202,-1.4950651275953133,9.894675199108072
-0.573266294624088,-8.51313243937875,-1.4733959768803402,-0.9137679125114276,-13.850306167826586,0.943820647927912,-2.128409023980652,3.3831742047097464,10.61130920152494,-1.3835552124939268,8.645294224101704,15.784582341240665,-6.706850400367936,11.40861761852179
0.406336468531053,-8.481642070043304,1.3418690591213078,-0.0714544804555873,-9.244123051393718,1.0136421839580538,-3.1859011076073926,4.282350800362394,10.816334780118176,-0.7239967972903296,11.335351947684371,14.671726728267302,-3.69690433971641,7.382490130051448
1.5672014544094603,-6.7481288966606,2.4599404704343755,0.8927492463981528,-6.242543443850136,-0.5083855894044259,-5.296480335954627,2.5387895894489603,7.349593762028086,-2.57991618535941,12.104599917467954,10.928186369458686,-2.589452603889517,-2.4164995637803672
3.4448410238220792,-2.5915899263931164,2.907395706890483,4.222416162763827,2.563604336842914,-1.9901731714652309,-5.635615781129303,0.003035834625507,2.501281674214482,-4.425804673579082,12.9050149371585,8.269568192095775,-1.9011279046047236,-13.891095656966714
3.456438990957584,-1.4049082356871858,4.176352677699342,5.867280737629964,7.114826204350692,-1.2599524923383263,-2.333417494553771,-1.1726381501768373,-1.0798440449570137,-3.188334484100502,13.938684204474756,8.790299915432712,0.0620372105439261,-17.680514585303783
1.0819566582197675,-3.343427241175665,6.649092400126492,3.7849361518155114,3.6496787122887193,-0.0305285047594478,3.5297893496048616,-0.1739591914507698,-2.321343539673805,-0.7237285694693698,10.990610934886128,11.367255543374014,-0.2719820936748639,-11.202685695395523
-0.9469560590424748,-4.967635745136594,9.028155379788188,2.555815039508538,3.9071057399870543,2.0478102980375383,8.488997744215979,2.060702572385324,-2.006147971787655,2.699583833797644,7.673635010534685,12.998648550437892,1.7027729094676225,-3.033040224970341
-3.956515883913513,-7.492904423756104,9.358948113665164,-0.1512235321345184,-0.5191625980222623,3.762457188771199,9.39624135714881,3.764722891033344,-1.501650140486504,6.457328619941213,4.444410650364938,11.62114831488995,5.893490016839384,5.096859854070174
-4.710723098890733,-8.413615507308897,6.874413187817154,-1.8168519661898344,-3.6386169379104754,3.379120149824633,5.905799346571982,3.662223530329058,-1.4029733755110954,6.481178762425623,-0.0319291150782121,7.801765392713719,7.591819243450241,8.528812454981763
-1.4909489426276337,-7.206581129803419,3.060765619299616,0.1923853018903726,-0.0861181486452711,3.1316566139159927,0.6077612584506653,1.6129543489377056,-1.3672016793051824,2.9320076580231937,-3.35695883582715,3.957425809336371,6.4884174281010125,4.855883764797259
0.0429216282905595,-7.761606493034521,0.8322483164812127,-0.6810484385529987,-1.0145158573789843,2.631434886753002,-3.199702970592824,-1.717624263123696,-1.0492642377983543,-0.3689110804864613,-6.727782840680634,2.037137300568673,1.862759439486256,1.7702372636644812
2.559033925518443,-9.533175192885336,2.2671006253751216,-1.748397937805787,0.197460837523293,2.2500193230136745,-4.0589939939029165,-5.590809250801897,-0.9367417726612216,-4.543962836179239,-11.473795611863364,1.8288520389047849,-5.350734309328913,0.0148512939100179
4.263012412276747,-9.96269210563006,6.730005859416622,-1.7010689737456854,1.7066523901454107,3.064474634834824,-3.0566324289771245,-9.549145550642535,-2.0855168029977165,-6.103847424376843,-14.326633067110444,1.2983548113548693,-9.211672000192143,-1.274752754527387
2.028571803924561,-9.54361072550313,11.090387377233824,-2.6972548239312664,-1.660552771765767,3.2939581437131618,-2.3146189891180318,-13.166107152554623,-4.979086717317728,-3.6967327650444295,-14.986060122920886,-1.4812031085758122,-8.551050873226332,-1.2504480706435546
1.5753488204531882,-7.705049620248173,12.05467660396144,-1.2761415508526683,-2.279761027368636,3.257453596530228,-2.866888745285678,-15.670622626290111,-8.704940566662287,-3.2613297759243847,-15.283364508640355,-6.537544101855048,-6.561954403818559,-1.371123752379293
-0.5502895895668289,-3.926297777673668,8.755062419332944,-0.6051290730007692,-4.069159995756691,3.1524219676652936,-3.8711541216221543,-16.063811316726216,-11.37935337913818,-2.818252840208068,-13.494605999956123,-11.809859782235163,-4.889601853923256,-3.0293244532794867
-3.4820958509983733,-3.0175775437292085,3.4003349246852963,-1.6541048282496733,-6.710562713211736,2.47049417550983,-3.67557703574802,-13.785137502405108,-11.523356430082146,-1.926492408687302,-11.21712409000786,-14.61239050870372,-3.1663652342874085,-3.3067060884227657
-2.492257920521606,-5.039465848420716,-0.5792049621847397,-1.4287206771250285,-5.6362546132128175,2.124712192032015,-1.51582808180126,-9.303097963600507,-9.135408063119748,-2.1466745902870072,-9.11017265786796,-13.500385034746351,-1.2093378301947022,-1.6558671179298292
-2.2454986888069493,-6.508619115210294,-1.2750858139935204,-1.296370064631362,-5.84334227412204,1.5121864881404263,1.8138014919486096,-3.95029005444006,-5.492041595413653,0.6122857070274762,-4.957143806675384,-9.11042676072848,1.2742631423278912,-1.6224915630389876
-0.4679246880057945,-8.427487769475075,0.4383680751599357,1.4611452577702466,-5.846308654079735,0.3570752262483906,4.83679971876024,0.984629421539978,-1.954258172117136,4.438875737781285,0.0225019421650501,-3.495538471062716,6.623767050648129,-1.2038423587639189
2.289584588675908,-8.182691046259857,2.1008673081243643,4.775746631079315,-4.80041444657092,-0.8509223195727036,6.830752555559577,5.126109198040595,1.0169419511510824,5.591630327698319,3.1411242635191594,1.3289295321124823,8.760225666679402,-0.4691904870255117
1.4553417466467673,-5.101848864269697,2.0558075732359526,4.32939719773016,-6.040465135457227,-2.435595797529321,8.383798049940282,9.017203970931943,3.757000138616732,4.958656299418751,3.5945654843298858,4.442614235083191,5.778932714587922,0.640958267408962
0.7508719886681998,-3.32695129840598,0.7700437767803194,2.9949221179547822,-7.078480285973589,-3.353585066863117,10.562949584838831,13.22631684909161,6.510203140215708,3.2853337402062617,2.8875784992190634,6.020770087824786,5.6743219675432535,6.582115210894398
0.2283521247876577,-2.2133032238833303,-0.0378550772194614,-0.4091109280062073,-7.4117507088152275,-3.6919281207472032,13.534178856433954,17.389021922934603,8.815665429762834,2.0670081029819527,0.904598727270854,6.579271154716075,4.382543474307846,15.370435240920552
-0.2679537227397333,-1.3277079152711369,0.5618614344818944,-3.5304859077246613,-7.151730502648806,-3.72837661516861,15.981356462337253,20.114614062497296,9.793580444257865,2.077662924540607,-0.4711068372949235,6.31807873872885,2.692737753318843,18.31225147038483
0.8838349591738459,-1.3897587621834435,1.6131162106066412,-2.449030786372148,-5.000997317446419,-3.2435597011564394,15.925999498174743,19.91502715420369,8.917564123485825,1.836787015281703,-0.3696991214817886,5.144706327500426,2.9360931483953703,11.67921512356102
0.5026879474132748,-1.2397587956661504,1.2571051010678571,-1.5890748030573207,-1.8654767271982544,-4.384989735111236,12.294669863573208,16.402149449169325,6.413926151777602,0.131765453573046,-1.0540617295206929,3.20020631930635,-2.674747072400269,-1.3204777785875716
-2.341030946999122,-1.0174768109071484,-1.147612711210657,-1.2410042930118454,2.104624157958781,-6.059670748134288,5.931187254297028,10.759190832426768,2.990036503870962,-4.533493835632811,-2.0702070608334995,1.2026362535467356,-9.422557135545574,-19.45139816426159
-4.631637896119861,0.2734690988379821,-3.893996241883455,-0.3433712701317559,4.672321676147541,-6.28969721062115,-0.7797001372284447,5.083713976508328,-0.6234228472479306,-8.162999348261259,-2.5386185956345235,0.1342073071317973,-10.718367936735593,-27.747334842407817
-3.8934302696869048,2.948389925001644,-4.068057482952096,-0.3073667693536123,6.126802864755464,-5.381188731048469,-5.390372996112439,1.0837364431789158,-3.794021530667892,-7.102362676983316,-1.5316479724821783,0.5047447569186385,-7.938448766772755,-18.04904166838928
1.1156467695922925,7.743432209828608,-0.1314365733290934,1.002700054827984,8.272080554431923,-1.7584514578206072,-6.86373208122461,-0.9087727225480418,-5.89081000571567,-4.113468856577888,0.3820830939073822,1.907873752681169,-1.6119842335245829,-4.874781029423541
9.879678539313678,15.1874912026883,6.319261402023923,4.61668180308098,9.003668620471803,2.956227670399773,-6.015106156832619,-1.8892635552638417,-6.460327391591061,1.7978378939730884,2.600363901539588,3.342873775952068,4.87955255312248,11.11111466133851
14.766146344677884,17.84605809807991,11.306670250034678,6.24838600793517,9.42483716139103,4.680170605394721,-4.710416265641356,-3.1575896367774305,-5.706888255481367,6.346154247311437,4.59714516452423,4.024331850773983,6.0848736944587305,18.928402702702737
10.43863971298918,15.47670102023951,11.314518611457515,3.896593313460951,9.014995623796777,3.826313064288097,-4.482808620793776,-5.136820359258408,-4.630191089100755,4.787620360791847,4.484038431117392,3.914352882717772,2.544130303608795,9.46772616656212
1.151891059619019,10.484860706023063,5.977452162162926,0.479962824936633,6.29072915902106,1.1415937741464135,-5.546401830813679,-7.004765071037497,-4.300437570685503,1.9767211553770547,3.692061757518957,3.5125973102478696,-0.5140758102248707,1.0251558057386467
-10.86549151694842,0.9170649758663774,-1.5646090502922974,-5.332141137774864,3.354498966593856,-2.138009494749169,-6.824602188709683,-7.467269043880634,-4.74552090906726,-1.3517765765443102,3.45056433838492,3.22167111532157,-1.4759128366175331,-5.498718335121213
-17.335125393474584,-2.7391211578752825,-6.959342947200469,-9.29315336946798,1.5415805753674978,-3.2710090981575206,-6.892774067791294,-6.016722938353624,-4.659175538982893,-3.664080608903132,3.014523931713404,3.0110878882857435,-0.5993745897809004,-8.136936770363357
-12.714485226369446,0.1458139287980979,-7.786319249383069,-6.827042860638772,1.2963848353330216,-2.881049977920968,-5.146928777233825,-3.5442175184382734,-2.5586195030923307,-1.8864206432702464,3.0200634960779618,2.6739141573385155,1.6018741501273062,-1.1166969877705326
-5.598476634397355,3.8069336807628233,-5.133088293246431,-3.247767440865576,1.397683952088981,-1.2582672459619155,-2.386497561388936,-1.7145708937429447,1.4929628805034127,0.7133601496413289,3.4243188533095066,2.214522916965919,2.801609640568781,2.937355459330705
1.140802387559325,10.864247129716324,-2.4761807413010644,2.335796142183956,1.7631437744123215,0.3635355133583431,-0.3814349942358603,-1.6392190203530674,5.348261585215028,1.9893233767099492,3.161793932656031,1.7598121381384717,2.431852627118574,3.207180510430006
5.18182426070462,13.44724594168262,-2.841579900147764,7.103485950224677,1.6753150783349815,0.6971952680936393,-0.6693701596331465,-3.031960928589044,6.283922107442891,1.9585849434507705,2.784293660011393,1.0724238457975162,1.8397964150183368,2.3023450725136554
3.497612809067384,10.650620137419711,-6.47250657374488,5.769424511441124,-0.7346779959968245,0.4009434866088135,-3.389881815088586,-4.564265161394957,3.4459634394881675,0.1884728607355595,3.092585854226673,-0.5630065562914695,1.3660645279724966,-1.0980033499302904
0.8447288800576653,7.124542484772183,-10.736093366902368,1.9897673785483607,-2.7842829831776164,-1.9946013891887853,-7.024436646902231,-5.018365435441098,-1.0138195802458654,-1.8361714088092325,3.20080820963226,-3.5854035217057856,-0.1819887351376956,-2.128394939959854
1.0788263217829437,0.7423240830643767,-12.238301243223717,-3.416014670854552,-4.465762635986998,-4.681095599745064,-9.333204210873788,-4.1792839745399135,-3.403628081955958,-2.359318488606624,3.305185771725051,-7.139900618229376,-2.4069679720726525,-1.3765709971742195
2.152352069115575,-1.3795400514308973,-9.455196917523466,-7.073249761500003,-5.92574573527007,-5.058018671572758,-8.892371893281052,-2.779138127031615,-1.5241724316027785,-1.134173376528701,4.343035850016746,-9.065130517824628,-3.5619822120639317,0.1689202436609331
3.408335874434864,1.5423646332743597,-3.854276050673036,-4.3611652283848095,-3.0565139941366093,-3.251318609850845,-6.091622697168162,-1.7230910245887117,3.343236692504832,1.093702626629316,5.330881645580594,-7.394189799951874,-3.269829489912617,2.1402536466041
6.413039036504689,5.387144985173465,1.310284256520788,2.060842305451503,1.2807437536520017,0.6142034401719073,-2.772111828128999,-1.3555173772801936,7.363528278447546,2.9581894502696278,6.65112058581898,-2.262751067731017,-1.719339557298037,1.747803096237977
6.3061917305416255,12.077462973079475,3.5231763845470425,9.36775653514753,5.27760440549663,4.5403157375746765,-0.7414052312589945,-1.3044917305041397,7.330623786428447,4.0868402148799925,8.96364176797758,3.6385040737458496,0.2339204732679895,1.8853157426582683
2.8322295491244267,13.230040183164286,2.821236602264236,11.982725655352803,8.978994212639792,5.633944569513174,-0.374146004564011,-0.8831439115764397,3.3744424972483955,3.0849741220625524,8.527371544112794,6.818418305893204,0.8600951122072014,1.7351032077264328
-0.927155258088796,7.957687223752495,1.4617292444514476,6.505823143335964,8.19764088871074,3.608805629128054,-0.5060575774223253,0.3191235917886388,-1.2055461535917402,0.4125024524959252,6.051805159422043,5.628864729164945,-0.0721767102763005,-0.4282016070125655
-5.070444205490808,3.374424112703359,1.7925432420677794,-1.623939383673944,5.4992818040179134,1.4642504887066214,0.2685198581251313,2.035261944432847,-2.8463030262516327,-1.1815474363930372,3.377495206722268,1.4919419435910584,-0.1894428891651797,0.7610181390826626
-6.734734321202653,-2.5585265908489347,4.1679705897896895,-9.335728992893625,3.6021184094933085,0.7760082044907796,2.0762454879652807,3.3581171653611364,-0.7710373819631116,-2.7938801877308426,-2.2024180682284986,-2.411304913377137,1.5733291603929822,0.7422224837944444
-4.173548887851784,-4.808329989270366,6.6837555180000265,-11.49471991223498,2.3806502434383634,1.8807906701031103,3.482453375284109,3.2743026041922576,2.5249234800089084,-2.8499221481536514,-3.764605035963099,-3.814372323333714,3.0411269479510006,-1.6468004645840604
-0.5068085906369741,-2.0633841649057403,6.907091319473977,-6.192746430915294,3.326802984133964,4.477747281411696,2.815114872244294,1.4435309546014423,3.70307937105747,-1.104990361856555,-1.2133820389507737,-3.0061822710225954,2.8586383365607464,-2.172545160063436
0.2594806342332213,-2.6766880293133304,4.055408826156054,-1.5775429313870002,5.37122811020949,5.470427313968264,-0.0677705543731974,-1.3261547838452827,1.6398458367945636,-1.962217167810896,-0.2912180372340412,-2.0590388058852795,0.8478071430161719,-5.161313417512651
-0.449091941177711,-5.440867182207545,-0.2540067408194773,1.069331684352338,6.984551086803554,4.134129183480744,-3.252869169869541,-3.3946984914033465,-1.646012534155716,-2.862296404213352,4.862493176602424,-2.530836549191548,-3.5487504146515114,-6.833637215330857
-1.765363365202809,-7.0847342035837055,-3.2570268406879848,1.43722977927896,6.559972249851104,2.297942058377681,-4.131073940828287,-3.3281228020980222,-2.9135777468937363,-2.7477899231347758,6.858803662259481,-3.88781131846892,-6.12353653741576,-4.022705909095679
-2.194433615653985,-8.867624494722191,-3.165352532111541,-0.8678373781732673,5.191779478812578,1.3029707891479434,-1.574476148026207,-0.9437731730830592,-0.6121293847425875,-2.61235179887319,3.523665092493149,-4.11834172029603,-3.9955776292258514,-0.6498287133601908
0.852465348873039,-7.486034387784789,-0.4135418171371725,-0.5636420150307211,3.410920391438116,2.753353444431024,2.9403015780722512,2.4569595218721645,3.811973315770473,0.8419377715573726,3.636198753208866,-1.885515849285696,-1.0717813973150694,2.4703722875204903
3.588997863195543,-2.344292266323282,2.844398975353215,2.063545710687688,-0.1104649075603576,5.988804670194459,6.285274134315529,4.896950282685282,7.216269626419802,4.510376928593431,0.1322055028240734,1.889735115198704,2.600816643303881,4.502361150940724
4.0897888706194285,-0.4791124753772937,4.427285610962713,4.014257100579397,-1.4943547134171324,8.207559454996515,5.996593570473038,5.013153645291595,7.37200973268213,5.060519313097879,-2.759979108339293,4.583580730939133,5.090707508734663,3.810071492186795
2.947753601451574,-1.405582303733502,3.666861070218516,4.759546746739912,-2.6854303164974214,7.546187381306474,2.1330898803912817,2.936799844011432,4.6317411181833,3.9995150868339824,-0.8835468510807551,4.1329991883975765,3.6174125035743216,2.083269622031527
0.2518420754734702,-2.31921527175603,1.759895016315113,3.9891593470743794,-5.460349817703055,3.9372273754946736,-2.728938458268616,0.1914900753706945,1.4114948081473102,1.633289608864138,-2.5208261167488875,0.9704789087920744,2.4526060842127726,2.7464763414591524
-0.8247334470381926,-4.602833862234994,0.8077269561483718,2.556696862462194,-5.870638409270976,-0.5834810223030164,-5.293673281113854,-1.3152885696003551,0.1096267104367143,0.3235905560392572,-2.637312208482685,-2.1647966729313453,2.435776455029108,4.296457871826743
-0.1701882885936012,-5.362924812490653,2.239104348950036,1.253569472549155,-6.622417491877243,-2.847157807677824,-3.767573919988365,-0.5732044075000431,1.220265413477577,1.0610985096093295,-1.6146206532521217,-2.4665985417531715,2.0384198404400933,4.300749955756372
0.0111934674720309,-4.280698984532928,5.65157550066057,-0.0499525802557507,-5.512322042213017,-1.2922283019110936,1.047420736213212,1.816281482851096,3.075392176194427,1.9757851443592995,-3.760340421933967,0.5389540725451809,1.792733333715843,2.420531327425259
0.7112572749286996,-4.934654774133636,8.892636283110669,-0.9560990230881754,-0.9944705116337452,2.148952922751576,6.444272353957018,4.05286905769529,3.3091404899751,1.3025590651503287,-3.913063994621728,4.497582154915001,0.3618391549050642,-2.298752466841337
-0.1780333220818333,-6.762614626999217,9.478209002576795,-3.4637310265751333,2.326247421848558,4.809726321562711,9.703250914294678,4.514071234833079,0.8396304130668781,-2.380890252998217,-4.0342386735013305,6.082686829061238,-4.061873133203148,-8.829700921735938
-2.121835793615966,-8.381486018501157,6.478188146270316,-5.537893116341683,4.631006298230836,4.717595211542018,9.853348936640558,3.123054019426629,-3.1952438573679256,-5.860123508687501,-6.123154906501852,3.668179474052888,-7.659291133095436,-10.778807308189052
-2.258729864450384,-10.318223776486482,1.4373944638588512,-4.562887306179552,3.983706869541695,1.3992402345980637,8.114820525700537,1.529300621321088,-6.292227810920486,-6.331540477664126,-7.079183715876301,-1.3788298761037456,-7.316306690995795,-6.266706394880611
-2.589503792364263,-10.42161361981414,-2.60150532252392,-3.285655503898824,0.2730370717735557,-2.15504800140807,6.75104622040989,1.73967052061532,-6.554997711978778,-4.7073311042697465,-8.833757962368063,-5.8070788871212216,-4.740780261054378,0.1632258470295834
-1.5397545050182757,-8.35662426941036,-3.445400978322752,1.1100071720548486,-2.742800978746642,-3.6336337372111136,7.18132267137868,4.20428564868655,-4.1805913064582185,-0.3509487924375547,-11.776105981569224,-7.0320381524973214,1.3870847204540433,9.68302659019151
1.0303739816277762,-7.351505985948813,-1.631401404220199,6.009131420444789,-5.155791640443653,-2.929012803221246,8.785082286911532,7.062233753697271,-1.2151226660877796,3.7375453218222834,-11.764380943723827,-5.039865493762207,6.922545498722981,14.407957328721745
2.5260591016096914,-6.967785862231806,-0.1423664544195872,6.349983046089432,-7.596298726244935,-1.3082192658898917,9.369445899945616,7.451104664082891,0.2214118066567039,3.907675646182305,-10.550369095293703,-2.1613926602937994,6.298693557148058,8.488624291542433
2.325825305598933,-9.097450837005162,-1.9779480519746075,4.040648063395224,-8.831121415913442,-0.6177900326143362,7.005733054516071,3.980693679362531,-0.2787227788169559,2.221937566270558,-9.291847078918554,-1.017686181296483,2.1950385089684703,1.0974210509996931
0.2743849001059505,-14.576043168277389,-7.516038066243027,-1.632381989444027,-10.97921162198302,-1.935471270925838,1.788378219465642,-1.7419370229183926,-1.1475744834260695,-0.149120314282812,-5.250013151758865,-2.4004974842323463,-3.755524610383203,-9.768037365759364
-2.242881789939594,-15.64789006842414,-13.93852705978952,-7.05898639297187,-13.621246706821402,-4.200554603570765,-3.971354284192074,-6.03719141861302,-0.304350390412992,-2.574908933105509,-3.422152827129935,-4.809878965358166,-7.266095987280056,-16.498227142200555
-3.198979221640536,-12.50220390776251,-17.31172699814809,-6.997023902936324,-11.70110640086621,-4.415295822368698,-7.376176534055531,-5.97134315185366,2.9360005480779705,-2.3134101623610004,-2.99801579245302,-5.915819603002149,-3.681455250906143,-10.00080882172093
-1.1282200734557133,-6.216824149671512,-15.631738796579498,-2.863834840180832,-9.253698131836122,-3.414800266024113,-7.115582257841368,-1.7780257656756362,7.1169775401731386,0.7827661344684382,-0.2391864942708114,-4.601243903724026,3.6821101206796296,-1.4317499641100864
2.072708011721544,5.128248729615453,-10.308370870041015,2.462709977103373,-7.209527624826835,-1.5206640712688486,-4.38387568448195,3.2168951876014376,9.632373170364986,3.2216751333830462,0.1453924264039301,-1.8400442899774705,10.47687946198775,9.848009045095496
3.4954554764423653,9.729227120693606,-4.931316197289789,5.597567939858616,-2.8119798308519446,0.554297666755637,-1.7885144998115263,5.201497052962907,8.6137308233682,3.767749736479342,0.3154897025346899,0.242261507069486,11.167750812184044,16.61170473053913
1.777258699871855,7.154877144347681,-2.489026455419605,3.502064757952623,-3.300273550914829,-0.6067638514689022,-1.2217796350030312,2.858024479075993,4.25224092283662,1.7783530887182808,0.4538005681685978,0.1946534487372559,3.8977919808148527,9.685799706885875
-1.8430980618546111,4.304940011024907,-3.396899193353022,-1.195163947199775,-5.445292736457767,-2.525594842758728,-2.5312872693242525,-1.8005910081492402,-1.359575509998706,-2.660460079538036,-2.83534734272015,-1.6555313976733714,-3.913072311065066,0.537955426195738
-4.512086527577755,-1.5817519220987766,-5.755553343777535,-3.775531290047179,-3.885229859230965,-3.844236573421748,-4.032536074420818,-5.39501209650507,-5.651868098249906,-5.638701418363747,-5.632441365548465,-3.667139157133192,-9.27726484512661,-9.836439908001887
-3.931335866927788,-1.8941714661899347,-7.204945118166052,-3.2827936613635798,-4.032426778563705,-4.798087595603223,-4.211554717302192,-6.128769347976117,-7.200389513979303,-4.66266500583278,-5.887319968055253,-4.340594873708255,-8.669326071371234,-14.889723969883091
0.1207586788348993,4.5964073341405705,-6.540136643222581,0.0965513572475271,-0.874175613859552,-3.272580509608789,-2.9732119311735232,-5.063422606006725,-6.431200785024657,-0.559253552676185,-4.764746179530101,-3.4129137778992344,-2.128696162467504,-7.618722398172256
4.5107002849408095,9.233473808308306,-3.911641674541442,4.421261129292937,6.444176719592596,-1.1302594348682768,-1.4070724499867993,-4.6611334177544,-4.989975889273069,4.318647826727472,-2.1140710069826727,-1.7458748054401667,0.5323345127886236,0.2941074539623465
7.622583030240257,14.11718991757976,-0.0496985803340521,5.730504619878814,10.463215765289869,0.0567590316232088,-0.5596112577807162,-6.118309160202671,-4.334778165572061,7.984486068617839,1.908050581850934,-0.3470294066250972,0.7164458125937936,8.100157885910798
6.882289045123556,15.369026538738112,4.243892020080125,3.567730408730904,12.594548131594768,0.4977429692034953,-0.5625779772053647,-8.130004901261032,-4.696689132937991,7.232276249322953,2.785894613114118,0.4256430271344698,-0.0289100939584031,11.522366560954993
2.096626275386384,11.413884700219702,7.857589715017184,0.217318403821847,11.41762970631419,-0.3464143748820184,-0.874131516424427,-8.281887469683625,-5.241931221483355,2.786340471099568,0.672082485952668,0.799590770566283,-1.713671622219854,4.970713903488529
-1.640767927630823,8.449755995304425,9.183173776294892,-2.923861106157262,5.915574652612673,-1.410556991285245,-1.1037577357718646,-5.651289170154882,-5.208975980499872,-1.3735027833507782,-0.4852954085936283,0.9613729852010238,1.0546231940254611,-0.4459582329599306
-5.9366135076143465,5.224045094091244,6.928681975093582,-4.844501985825897,0.1400186688508968,-1.8378524824812268,-1.3648191205893454,-1.978513099869588,-4.851933321082811,-6.162737142669793,-3.993184170632601,0.7199590512514078,3.957263985266044,-5.920124668191521
-7.887452546146162,3.986454486033872,1.5912488197883476,-3.9603205833371673,-1.2761670368187883,-1.7364212324832258,-1.829307007440093,-0.168936664916373,-5.154529058236562,-7.781593862437975,-5.509740828808503,-0.1067973641874004,3.619280208852039,-9.791695598940723
-4.619644534193308,5.921694166550386,-4.004562017697936,-1.460001751277538,2.1316736083409955,-0.9608339736497076,-2.1995983394294853,-1.5297955303879007,-6.52554474418389,-4.79934007178797,-1.5048448365712073,-1.064951665206081,1.7874924693132692,-5.629435291942566
-2.361111410684912,8.21104582848378,-6.249345682484773,0.318922171861381,6.598003159619683,-0.2881289450439935,-1.8950171028066047,-4.428962489520131,-7.873525229274378,-2.853051050574062,0.9691180647784428,-1.0871405837833663,-1.4488148262349505,-0.889856262908548
2.3483129206444957,11.814005499495751,-3.511129226228661,3.329532370253152,13.562445601713454,0.0428451827262529,-0.795305091017326,-5.719308771845135,-7.272613065410724,0.9367680160240346,5.104786336445557,0.5687072995262952,-2.528469706452622,6.036965190454146
6.935663385881329,12.665312948914735,2.292592326637702,5.237650653157683,15.745640315480731,0.253054946936757,0.4178162695049536,-3.6229196268895976,-3.839336396289468,4.4040190028660415,9.143506457322784,3.2832676948115136,-0.5003575302904135,11.912290054150285
5.682998640910945,10.156939773605536,6.986412992585201,3.669990569149228,10.189839260971729,-0.11527465270845,0.8840870634534213,0.6186325320981041,1.0069563771982075,3.233806880090341,6.335909107590359,5.144213387584159,1.2161276727337924,8.964488386202458
3.582575205572209,5.376939463966941,7.403482242935752,1.8312868925637316,5.533019015320213,-0.6003536671197234,0.5297843440014276,3.85669270870153,4.393880636418089,2.687057602042374,3.8903015623967785,4.415457201426534,1.6216033117414652,2.032743321451705
-0.8498739498200053,-3.006597379535759,3.8073388298469126,-2.450866404089538,-2.732408336971861,-0.9260031570646908,0.1934646345681585,3.8719107487203246,4.434793516622221,0.841862678091192,1.7406372885148955,1.2515639056375676,-0.1207313927155172,-8.213609063916946
-5.283997706278445,-6.912307462371731,-0.6567754535951735,-6.443119376435263,-8.532754487703034,-1.1925040048926627,0.5885544212979994,1.338518434610933,1.9945870798940175,-2.2782041117035123,-1.6167940705969426,-2.026948348834253,-2.607700761853256,-14.628959641168198
-4.552355168306146,-5.990510093842006,-2.8714303748686234,-5.337164676482581,-5.888271849507492,-1.0802753506879,1.1781734782514377,-0.8456805688646227,-0.0533292143387598,-1.8211553130957017,0.104826924671607,-2.659527727302475,-2.716647814969318,-9.793174802605105
-2.5806303886258237,-3.902027648229968,-2.2773557935754525,-2.739064448359346,-5.353258225315417,-0.7807472652370662,0.3621674939990953,-0.2315091321005411,0.4614200405337669,-0.2765897724776769,2.73547968508216,0.139487842262497,-1.0265717085502537,-0.5766529918713796
-0.984153215280873,1.3832175439682906,-0.8115094725707195,1.3431371929806202,-2.901725000388856,-0.7679792001453507,-2.90879767432898,2.9128138988482988,2.887917540574904,1.3526711222738217,3.476512787975574,4.2308451401409,1.3960178346398264,10.302390072757683
0.2794935421795729,3.109304091673265,-0.6076882594931021,4.713466493265261,0.854580832096833,-0.9354919073144994,-7.609545368016597,5.768102461309809,4.362919770949588,2.882354520723909,5.465608949130805,6.092392549774445,2.9152558439423,15.47381790967628
-0.1812595943840236,0.7270179687316507,-1.857097850848504,3.546482949521439,-0.0952888595820668,-1.0188619538293302,-10.913786803808309,5.444247183548555,2.6822228366431773,2.016309529526432,5.794395206735292,3.7088573919926375,2.124081575834305,9.292635423350198
-0.5094269299358812,-0.653258059339599,-2.821382904857842,0.5871796952661478,1.1239527070494704,-1.1205280330243446,-10.349017768402405,1.6166984587428033,-1.2913324069252212,-0.2081523968595356,4.652582144886319,-1.595934978494597,0.1151989134431457,0.4827258317645966
1.944073595584161,-2.6219823726592706,-1.7354947174350173,-2.037616759033596,3.846387646782592,-0.8062836379485538,-6.013312843697463,-3.009047015175156,-4.088055607020351,-1.2692339530063,5.483877001984363,-5.97180990650952,-1.6312541148573598,-8.135455980970214
3.8911931805915674,-2.7427622896472776,1.4284784462864764,-3.0088901114822546,4.070340939955385,-0.0187632759314778,-0.7717617604529323,-4.881541722127565,-2.69167678991613,-1.1665897513571253,5.941960648475352,-5.9090101467973,-1.9725966342450123,-12.173661609838527
2.9163764020140235,-0.262505491751297,4.997570158375538,-1.3607964737697391,4.496794723651501,0.6067188023371695,1.9048984670579896,-2.608416407212246,2.560767021216975,-0.8416907208211246,5.528982595487321,-0.8994442690852793,-0.9108251486804142,-7.6830287036487555
1.0946360180229289,1.938038471142849,7.184727294151799,1.0630056958363188,5.09005306278568,1.0054363936198707,0.6566092707936377,1.8158583898502343,7.947063562933067,-0.992912862432918,6.445628037607861,6.167741233815946,0.4593532711364998,-1.987843942907717
-3.314796639959801,4.602683684862151,7.547564762695856,1.830431829043708,3.713551247479644,1.1016805547353847,-2.8155729611099787,4.668963315368046,9.340043159975664,-3.364883532572237,6.475453970800133,11.128622243670009,0.9774659868818034,2.62385684262712
-6.3298618371812525,5.153723778307687,7.004575684955512,0.7079948164047325,2.1116215601708563,0.613650624826149,-5.305649666739157,3.6498757838166966,5.633147943998381,-5.269840768496617,5.844025162849029,11.518412320529478,0.3416741755218192,5.380594260502267
-4.257014642950686,2.975967130263651,6.654363444789226,-1.2032331750246092,1.3071496275824888,0.1824692632639992,-4.721887353351519,-0.2152298112663402,-0.3574645865601837,-3.820934678743793,6.916088917899808,8.162565209201716,-0.8617963585787733,3.6110818961213833
-1.8887188896836435,0.0811288093306676,6.726181832592431,-2.2823327760763195,-1.1177801214979302,0.5816584456117638,-1.533414454788158,-3.5726018917173974,-4.250959251780813,-0.5849998885539295,7.50342119220635,4.287791991353004,-0.9977472982209096,0.984915035958468
1.2758432365171246,-4.36402444631478,6.629316103797493,-1.6474439584074445,-4.397259746133197,1.2920437503359177,1.98247731886741,-3.730062559942013,-3.635388254334657,5.021434113889142,7.637969520518514,2.964170124324255,0.2832211177586171,-0.0454482813937817
3.877758827754509,-6.486408304563095,5.840272952527869,0.3102669044226236,-5.082686629149197,1.6059146825271695,3.759191303879021,-0.951304999853818,0.2282308108943311,8.327116968848893,8.829913279030361,4.896806949229926,1.5815735381760825,-1.4593897555835091
3.6028655316453526,-5.826120003621607,4.5970636894132895,2.5500643678083046,-5.303634693557812,0.8424125260611979,3.3936807291642594,1.9655388777805167,3.825404857334462,5.907618420225512,8.739169733460175,8.183610277517204,2.0884736901494056,-1.98641688831922
4.745232759194538,-4.736172200491503,3.7167262144706825,3.925293934181493,-5.934026396259147,-1.3183303259577257,2.0038311012425822,2.3497404632232985,4.489081148152209,2.872067865082906,7.789590136310625,10.017323782771,1.1926813042848328,0.1812190345221436
7.650387102121365,-2.1474830461713585,3.794598928146272,5.66078829334228,-3.905763334445781,-3.9828912625602944,0.9973053208943412,0.0822960127893139,2.4170499673012245,-1.0189788893638096,7.976459470999869,8.808126559675458,-0.5705759653673127,1.4562193199976183
8.165737165148672,-2.064357044614209,4.597641948632301,6.015836285637343,-3.467800365738108,-5.118005696371428,1.0313430545089446,-2.371252790415312,0.0097039141579386,-3.3726764890592915,6.5902682472720295,5.068614814175412,-1.4193373102588431,2.65989725810564
5.47193805714418,-4.928649049869278,5.19504937971335,3.7392432951997177,-4.351163785857074,-3.902417489938395,1.9210970704842796,-2.2075481078955725,-0.5868867574533851,-1.2348182673424095,3.516688261521164,0.6372673569089997,-0.3963137875010804,3.9887992692978607
0.2199029749457287,-8.073340693971478,4.672165775256742,1.135984792603332,-2.548918572955844,-2.048679714829895,3.197253286913324,1.3157939793072106,0.6572640894382307,-0.4144977969189317,1.2383801571792052,-2.7886210011399024,0.6380069019400628,-0.144362208003195
-8.75534025165591,-12.55088852949886,2.8229740079667174,-4.108146337119792,-2.3714838375730887,-0.3010532034660884,4.532847332034656,6.388130837380695,2.001754810017696,-0.6452759467821392,-2.901111849993672,-4.532384912909974,0.9015951705615712,-4.63046102314652
-13.993113153525917,-13.45663561134772,0.3008122275648546,-8.326387889067972,-2.522038963546679,0.6437053590528791,5.674668755565001,10.222077577190944,1.9053223430176305,-0.5898729792969154,-6.925523185836111,-4.816855613415093,0.414031716095217,-6.244801690995667
-11.284909229469283,-10.157587778882403,-1.8562174258360145,-7.746074881162454,-0.6131497122422733,0.2685471372444676,6.194701095370235,11.070097709677356,0.5490748171548319,-2.0921438929104474,-7.306556006371714,-4.229545891325898,-1.4186133030169987,-6.099111203432747
-7.380215176985945,-7.86566122629746,-2.9751138401731225,-7.157443182660241,-0.2953600487264505,0.6768742426962374,5.562647475155742,9.00417616994369,-0.5602943244734888,-2.713828536427842,-8.429911142777703,-3.4760927420663705,-2.773277769518189,-0.1934420287462703
-1.02833967177167,-5.4278108610973295,-3.229653907950066,-5.161922407793193,0.2387838834969914,2.380833053115438,3.612033248662584,5.233131342691294,-0.3646354795511115,-2.5080061918641525,-9.565047353422232,-3.418237744674116,-3.1897112097858926,5.647924502390065
4.44394516178908,-3.676728427875197,-3.4536576679684288,-1.703067437446769,1.9585859617004189,3.6798185819077256,0.9728094182580946,1.0553855496531668,0.5401071683698291,-2.150029726875553,-6.896276231286477,-4.831381501304193,-2.5592237114628085,6.67708420896892
3.913795959144446,-3.474556284552995,-4.344911353330559,0.0066003329819814,1.9045330566657117,4.471000018946594,-1.0161957696493855,-2.5096796482677206,0.6150732414651543,-0.8090070387084798,-4.04405670630871,-7.642143944894343,-1.0105876789308157,4.319431370651158
2.956350833490188,1.0317974186133432,-5.658276697397781,2.583076099565198,1.525438340157057,4.624801016427385,-1.0008798201140507,-4.470009941205831,-0.6650572765198604,0.8491343694199414,-0.7556737924463579,-10.27593253379257,0.5834559839234784,-2.3225253648360287
2.598695439203905,9.77236600773861,-6.16556456914492,7.36269232522241,1.8913210928285669,3.920721941761501,1.4841639801921076,-3.838479360185289,-1.702752805327549,3.0775280375154237,6.90830297322958,-10.11239987161801,2.813901530702477,-7.622995153622718
1.4886051201998962,13.36369297988729,-4.640292323343715,9.069777166713417,0.9191137786240084,3.597532166423524,5.501208996615958,-0.318254354070774,0.056580121696669,3.9380840426016848,9.532046257972729,-5.268868535940186,3.896813066695691,-6.8456992847023805
2.1630430247376413,12.40353260326691,-1.1703412246759513,6.6996719761980215,-0.9633170866994936,3.614686719969964,9.012567356266288,4.875031225787666,5.491400465249456,2.751479370441337,5.78957780144572,3.4409317571075064,3.484856828402027,-1.4744458535198286
4.661484425127211,6.914050599698119,2.4429106114791352,4.044791233472315,-2.3863744040929493,3.406211749320404,9.976292675238284,9.131892351992434,12.192043335883312,2.0918208586582683,4.207937900531021,12.170160897423528,3.3893240591297573,6.537389047879126
5.176972553119068,-5.39903978291881,3.857222357568048,-2.4283495003112567,-5.150977097482644,2.5679095546508406,7.677109937101875,9.898664508547624,15.731593165339008,0.6171600699159294,-2.3660221720219785,16.152112355941057,1.6743594070865535,12.75623119451852
3.470121594924577,-9.509642943023714,2.163538194517969,-7.570411212512147,-7.499234164469151,1.390463893010598,3.41669593664102,6.554757233995588,13.115128268131173,-0.7856159593873637,-7.714520683621417,13.055261583388386,-0.892282945473513,11.402859879043111
0.3639159776036071,-5.145888467229634,-1.0917481226598795,-5.8360157748819255,-6.608455205508353,0.972748613072557,-0.0929390698856877,1.149472639122905,5.503962406031832,-0.6227074751382535,-4.598218701464774,4.988337181353955,-1.9510777032119828,3.445132715429136
-3.8277381795429095,1.6224913409301898,-2.993373442091979,-3.672476802687617,-5.866437804696544,1.3796778859615189,-0.4779869817688507,-2.855883193404821,-2.354389570789806,-1.355970274963376,-4.99036358526537,-2.7281732985503027,-2.190550122238023,-3.3877204145466164
-5.975092964355715,14.438606741035294,-1.735959234731979,1.3482685289439007,-4.942568997947465,2.954601171383984,2.506053979295359,-3.0877095459565567,-5.777525657372308,-1.1701089656736805,-4.617522926927646,-5.387932799239422,-0.3016494772518764,-7.924158199320715
-4.302773191947356,18.99184282686733,1.677840017725316,6.395024224421664,-1.944443170039153,4.800358880329991,6.528469641684978,-0.0912574773366827,-3.868487973080363,0.560864224531846,-2.2480535559781725,-2.4031647699001155,2.8996468159312068,-7.393943695570068
-1.0823328577339135,14.195489749601682,4.190114651240407,4.566871001918418,-0.149343813933295,4.97499311072532,8.157744605776173,3.052667759322816,-0.0884413774782331,1.0964938734178096,-6.8267177298558375,2.380142074161796,3.140529554292217,-2.066449294520751
-0.004436888968318,8.262192694694976,3.378296871274898,0.5985781163172177,1.812750826697222,3.436117392343271,5.364393094393279,3.14976375448012,0.836321863882489,0.1702857882952542,-10.860573614331791,3.876317350459516,-1.063345426362802,-2.137587921985757
-0.664264607128321,-2.432408389803471,-0.2855096180950625,-4.6037894467322085,6.444231725292186,1.028623015731519,-0.8003368435821301,-0.5176121000674243,-3.012985256879404,-2.6973817519573995,-12.9024179398903,-0.1308873893473219,-8.237140144202659,-5.08197943689249
-2.098496583740154,-5.4338584086934745,-3.678773210380911,-8.273529726133475,7.739633274063327,-0.8171790644437391,-6.744794012893237,-5.515853465348613,-9.18459070746684,-5.600271599512492,-15.34784408407967,-7.280785420159276,-12.689430642431423,-6.104245203909684
-2.6380280216827217,0.7282979611078675,-3.6062685201885927,-5.62772169549624,6.169599568997378,-0.0769912965241054,-8.826441404145896,-8.06794969310073,-13.01391145253112,-4.889323296999882,-11.435622553273644,-12.567546186900756,-9.225211628204136,-4.263074753586702
0.5612285368054813,7.173474563647866,0.5336657698994998,-0.1275968692272334,5.691480271029022,1.9796004900772413,-5.95824270585905,-5.921044832453248,-11.49355071828876,-0.3606612375514706,-4.973292919107728,-12.175837263130148,0.598382186016077,3.483562777213656
4.678271753216484,17.15591466091766,6.2221552801374,5.351151445509087,1.61980019589542,3.6894600918619354,-0.3556192319379079,-0.0569756743389859,-5.5731225874874895,6.547654386576801,0.9287934792762712,-6.181247496503374,13.256401522051592,13.623910289299268
5.950987519506278,19.36541746175526,9.694771922586028,7.684807897154819,-0.7401802200701301,4.075964792854762,4.1071843983180685,5.961777822134962,0.787094718029735,10.17693499980014,4.717772428695739,1.685062061402192,18.84763860178535,15.992497958071008
3.932356675270061,12.068355254614938,8.507219463493712,4.969842026958483,1.139562809546482,1.1715023757429823,4.611744165766709,8.362012128551314,3.6846489312260218,6.655492875468186,1.2515342372580776,6.624729367005841,11.974917394887198,7.667834381235631
-0.3645185454779273,4.311183753267478,2.84367659790712,0.9484985175077238,0.5154078115168346,-1.7950196074035087,1.1290608965569078,5.454218985343289,1.859850703879914,-0.5302595116682876,-4.165064295636743,5.674869182631696,0.5374116155129163,-4.006507706902864
-4.577694070907521,-6.989155667349137,-5.00570747121192,-1.9961990893557344,1.6252957613717298,-3.619045962588544,-3.956596060158759,-1.59802048732665,-2.977554289022166,-9.095453908437095,-10.42292737237816,-0.8205337154420818,-12.032370857287557,-17.29086380460256
-5.396016313392989,-11.31101725807207,-12.130336766876413,-2.780495641893917,2.3650754781474053,-4.9525841447084655,-7.761430808424052,-9.708338308373158,-7.823196235959529,-12.292675784432824,-14.386509419447972,-9.654579155802296,-16.835561952640056,-20.53978493099348
-2.424685012908084,-6.8698486980172815,-16.305105184147436,-0.8465757653598844,-0.7763438803661449,-3.977669137743537,-8.758775968299716,-15.612792548376092,-10.430807439371648,-6.473908308957848,-10.678347799535617,-16.550489846153155,-8.767744173818556,-8.797539924367644
0.5315820415129818,-2.481344811157094,-16.659261179815758,0.5483550670243191,-2.234498861914723,-2.975188206435069,-7.34567623584725,-17.3584311804035,-10.29401682183213,0.956010950373804,-6.376585386894279,-18.33476757965965,1.0028630428537628,2.59930720769249
2.77748517589172,4.77684873525951,-13.840295345997774,0.0551262994248144,-4.592387206354253,-2.6984376185152312,-5.094403251554269,-14.94598607323018,-8.273384543455435,8.303643622454189,-1.4662329999567794,-14.510368418965882,10.279774236797277,15.219804363004608
3.623440597231453,6.435753400293993,-9.755700576049634,-0.4568922197033738,-6.000603908302519,-2.225616675771781,-3.567838693581216,-10.09028705510552,-5.590537372061156,10.896382151655317,2.209988270526826,-7.444862733238864,13.480478346142744,19.24075845516073
1.8363895520052695,0.8975712885700506,-6.749361253656318,-1.0282659644402272,-2.7474290831048447,-2.3479143328251557,-3.5453193487326686,-5.339532156372215,-3.079582922078174,5.5698398075444855,-0.204909698005452,-0.9593736724366692,5.896171134024709,7.650091349493492
0.1295493253126436,-4.069411386754351,-6.317064622783825,-1.6803761455908977,-0.0005910755105264,-4.128180277071186,-4.871554883077245,-2.8797511572531818,-1.0671649621287074,0.6701097071216375,-2.647337061775436,1.949132677335399,-2.1667913385432085,-0.1111186279662725
-1.2033423188018075,-10.819984054796969,-8.086053172810253,-1.1958057185135944,4.300004055823036,-6.195474050125672,-6.671326251986979,-3.447784475542249,0.3586359990383414,-3.4488990829390027,-5.230982540207806,0.81114356885913,-9.837220477141038,-9.100462827268691
-2.2185870127766365,-13.586602891344093,-9.965097465970658,-0.8238332225278614,7.366630141457584,-6.897402410229147,-7.709382513097289,-5.878159109929403,1.1427514328949009,-5.361373766435887,-6.147556812206338,-2.341651756557173,-12.834183573993254,-13.8811544927959
-1.669409116894948,-11.011285706289373,-9.621334344493071,-1.1645959987959824,4.487797704456915,-6.870068040280177,-6.899162584538608,-7.6892661046586035,1.3189255525844263,-2.3903154570090788,-1.942337857549293,-4.624416471767859,-6.276337717195228,-5.355004165699087
-0.039670310598535,-9.36314461830076,-6.283500010296766,0.4736954644868476,2.151346840942377,-4.372995993652359,-3.926928874083776,-6.595442464335324,1.1447092519977522,-0.1300666261156104,2.3057458846281773,-4.243100058142758,0.657842940665945,-1.832700973935931
1.734771230020708,-7.002133212001103,-1.4210178251741294,2.7974262226912026,-1.316735874373373,-1.1385521279302857,0.3368892978917195,-2.121055553202821,1.0300894782213323,1.863744864323592,7.79853449589781,-1.3291196623316264,8.07545852390277,3.302701591640981
2.436112830515759,-7.1505888297360505,2.333728750006573,3.4919550412968774,-4.833796056392608,-0.3184922074838826,4.077619871662486,3.837028314150574,1.2420109628128468,2.9232340043259315,11.070852299402164,2.6502920904914298,11.558094727616004,8.339233634880145
1.473315630303485,-10.902313531949927,3.202006572250509,2.837758930621224,-3.0632992522620146,-0.8798659001464628,5.486672865576725,8.12012454873972,1.68660113657808,0.2875202574877498,8.609502845321229,6.058742972088487,5.777507457511698,3.241003121856365
-0.7414920092407356,-13.803120503847069,1.589714363995295,-0.0997833963544543,-1.8547748223280989,-2.0442715371785507,3.877508345559765,8.490537838284524,2.0431496950632884,-3.0253842078950077,6.772445318086827,7.825114821374569,0.0323038529834788,2.0547621538140697
-3.2201760732532354,-16.847547063297032,-0.3198780408551549,-4.309617214090327,-1.1946519170441148,-2.669444492327075,0.1779316267176085,5.3026422685511605,2.149667269495673,-7.272613708531407,2.989491055441005,7.538069224719205,-6.161567451548873,-1.0806461335104631
-4.0373390202940005,-18.70850854327225,-0.307246257001168,-5.847385728485675,0.6372536476970274,-1.6622329680579562,-3.5836944397547583,1.2965815670858944,2.241330803384201,-9.1984155473858,1.170175214738543,5.419660895484533,-9.38076669055445,-6.192209962274811
-2.718940578143658,-18.616490476581056,2.268821156606627,-3.5866726164759823,-0.4679620582747197,0.8628521957668376,-5.447370215115967,-0.4112356943671216,2.7828177683614186,-5.537748697870427,6.4476262968324125,2.52424573427502,-4.961636638953065,-4.182130725126578
0.1450529246849349,-19.40046900846676,6.219784639902748,-0.002125315123953,-1.7689441208744316,2.322159528048012,-4.560465493514741,1.42860020397913,4.070563913223616,-0.3740627699137708,10.782292527541331,0.7616006547704117,-0.9552158812264704,-3.901324258238709
4.003235482074398,-20.585944494694253,9.643256970004453,4.025855971746454,-1.534471025713288,2.4671689242148798,-1.482032736920928,5.497392639938276,6.009759721782892,6.304920234818683,16.676347457623194,2.096330674673908,3.0127298810602063,-1.285646998394154
5.860006251924332,-18.496623836674697,11.323078453647623,5.837561986615273,-1.6639155599162905,2.661878069859212,2.296749620206718,9.20034661498461,8.234382728621178,10.21557756984119,21.52206229735296,7.060756945145407,5.469738485302896,4.514293146644302
4.238358189062461,-13.24227405476956,11.300320844026338,3.595934462504841,0.1575698370023158,1.684588068942549,5.211178967848468,10.734899116039143,10.34080513341278,8.172411817964477,18.777577895041777,13.779898905111764,3.522833933874992,6.287182029912964
0.7136896077912053,-5.42227583406952,10.403963032846889,0.7967977044081538,3.259766068642639,2.314476243160958,6.363031542161906,10.194569357950726,11.925651634330222,6.692634233383266,16.41670082019713,18.729957698421583,3.1065143379917783,7.967412600218121
-4.289666034545895,5.892964723630307,9.41459513821021,-1.552307478400249,5.730881664520321,3.867482027272916,5.816146318849178,8.957414427374417,12.443201418039957,5.720474772650747,13.417300533984209,19.060947689122216,3.829996698005505,8.008191676695986
-6.984583160195537,11.97937712100257,8.623091049502733,-2.667354316236148,7.10331549225574,3.5133164718365086,4.368112019062323,8.120166452688117,11.207238914009402,3.9653172155277727,7.198047140057498,14.702512553307344,3.488806434926041,3.81112723220619
-4.434282384897432,12.295841179161942,7.947492470591769,-1.4261388789932992,5.561026694551488,3.3963526739418546,2.954877112012582,7.432872717730106,7.760793457996712,2.85192101577146,2.815190920000269,8.3417642964517,3.226380175565446,0.2623207403419971
-0.1187168987128483,12.037791904675656,7.227466786982248,0.3051318621219972,2.822612184727091,2.7206023118704303,2.0537750508883192,5.612558064669514,2.408584767205298,-0.7818533956981243,-3.0005292100992262,3.1245839294060147,0.300663267812668,-1.389455007563867
4.862117917471062,9.024990091268176,6.333073328067414,1.3558527202663058,-0.4482487349067136,2.094245616610164,1.497642100498311,1.7004486795442944,-3.583585773309892,-7.810473035270893,-12.692474665199676,0.0653113824317301,-5.092692147789266,-3.3299166321270586
7.115511789411962,7.014508573305595,5.115502601632329,1.3059556110576855,-2.622076351586851,3.059004601928729,0.8423779367871873,-3.715198141961807,-8.445235878526432,-11.591009870879589,-17.485252854654515,-2.456480737445233,-7.708152861784107,-3.4518895771032674
3.589343484881451,6.583257282148254,3.433667998654684,0.0148544356357639,-1.0329013719404905,3.2098678430285106,-0.0473747106126865,-8.491809233933878,-10.833508038498792,-10.25786430374676,-17.522881513257705,-6.64098248164737,-6.9024770098915305,-3.4359789300317383
-1.0562051808460045,4.956879212759325,1.3104095346481444,-1.8026366729864312,0.6450647839947897,1.5260421351641615,-0.7846330953173464,-10.298971563525498,-10.64635506016836,-8.094868473309164,-18.60517351633346,-12.644480525921251,-4.81372147568993,-7.952236030296005
-5.045947951544318,3.13328871834612,-0.9766486405834344,-3.1463145448878813,2.515655492607962,-1.4679187671771152,-0.8796567596166227,-8.404011829859158,-9.125983549819908,-3.1612429263004262,-14.862343463119004,-17.964215635101034,-1.221673808964833,-12.060635189052652
-5.784997240716021,2.9082528386080906,-3.0234877501885933,-2.7236957522127194,5.0036501857384,-3.979435759035976,-0.3673770234941429,-4.435504297712882,-8.084618456954303,1.8833727909143088,-10.439242053723756,-19.47125783401521,1.6398805622457304,-10.73509787470752
-1.4858452845180774,4.283433581526696,-4.528019387426184,-0.4217904521833129,4.386476845309747,-3.719856365085063,0.1052796422325315,-1.3237103033871875,-8.668989175129944,3.391954410706942,-9.304596070050405,-16.15022240084241,2.1295794438773736,-4.3510211961293015
1.697711640206967,5.167635736367,-5.37952434926698,1.5118351633652567,3.8872197345306585,-2.0680591548617007,-0.0353837179679885,-1.0734632333688126,-10.458579747395548,4.21925337890855,-3.4729476171951243,-9.955747206741322,2.1183300597728976,5.9028016300885655
3.052476909106653,5.896596979915459,-5.560558219291522,3.0845359457174224,4.838621918722486,-0.148868828417068,-0.5091603540518719,-3.148153204562007,-11.582380195143742,4.531939224054813,3.7377883117233126,-4.086984614364255,2.574793734751449,17.306551098972903
2.374535686903549,7.094673157543582,-5.058715879836555,3.0268804978959705,2.790377242707379,0.7035602950670666,-0.2669501248087087,-4.915703447062839,-9.9227570154029,2.678785092739744,6.088956016487325,-0.4534642428992157,1.97733068687836,18.638785947431973
-1.0472850252416062,8.430616255238464,-3.9511009846714336,0.4398200019271997,0.8567729391558344,-1.6660808291246223,1.417907005488047,-3.904844511039123,-4.697433160583252,0.8965578357174968,7.603349979357532,1.315600806286028,0.952122453657998,8.231782485749639
-1.823975206311062,10.181261305589985,-2.552159897172409,-1.1665453923490434,-0.3954380424440289,-3.0561368275910112,3.8770827238343415,0.0106910360212424,2.682688779302566,2.6648785189018254,8.248772948430947,2.703274971320255,1.8847560257684512,-1.7461811079706189
-1.1219769354636089,12.37690446354189,-1.3626268055084552,-2.9771448658296,-5.3082078874587655,-2.5678135169938088,5.226402183211988,4.391162693511831,9.210067980766633,4.194230768286256,4.734124905449564,4.468264714440373,1.9099827398660876,-14.238099336491077
-0.3624649096625886,13.291214041645024,-0.7512324830698915,-3.859595145992081,-6.31068409703897,-2.25209861871899,3.871473255382917,6.163540029152138,12.085703548978785,4.249143554580036,4.67997828624835,5.993548852534048,1.3499181784042105,-19.1587551407652
0.5177699569444472,12.82625501463806,-0.6228185020883004,-2.2605300557318944,-3.690502627436585,-0.5076010118945135,0.0059250065496669,4.0483348944389945,10.567784740437808,2.074822670812117,6.68991398028599,6.187640987617989,0.6047717064095486,-9.864821613983088
-0.4914227142090501,12.94845371240745,-0.4040836961190805,-1.0948803500161084,-3.1740460395506065,-0.5055255894666315,-4.370943444494117,-0.4994106404992067,6.538656648420592,-3.509161777547447,5.200710745591561,4.754192912689639,-2.197945622559819,-2.841782365305649
-1.3700933491488407,13.321112882884298,0.5867991452509713,1.2050075694567344,1.818968325616104,-2.6417372959236336,-7.001485258256189,-4.431299647663046,3.279585876588534,-8.201330406491362,6.39815668649472,2.5573755915302385,-4.331249717042885,7.939315467308885
-1.3301481065262284,12.682003944524023,2.647170846899129,3.2527683693956244,4.204230984675079,-3.659495907264578,-7.049968542416693,-5.240532260490035,3.2127304805131587,-8.60855378795467,6.291251270219329,0.9474367676129134,-4.627175131151145,15.943738003540112
-0.058530187136948,11.256714830472294,5.407717354384577,3.257729835278952,1.3029099309035737,-3.7996548593297774,-5.410560068686181,-2.465687442089326,6.18619826170298,-3.9766116654289543,3.649949038287848,0.8384335252310819,-2.975195764022791,10.585550925205908
3.384774315885611,9.841133407674343,7.917445154886508,3.936696579639356,1.8412409203644688,-2.845468743586368,-3.556908172702773,2.2644068324310425,9.575442981723564,2.5148242974805965,3.670873930449284,2.233766653479215,0.741366581344989,7.027820032656738
6.743053913245473,8.276001430286538,9.039079696330337,3.8926145241297694,-0.8679825104387662,-1.045713732246988,-2.2342344373919296,6.329831436342492,10.179318476932709,8.317306225750547,1.4218980943353008,4.267987945504135,4.663994497762833,0.7032657246720959
7.245916804024737,6.952101371144566,7.990679226729647,2.154398728069488,-3.294447631305713,-0.0707697219014653,-1.2419562482419408,7.503727965855514,6.5327054767272905,9.448573007383112,-1.7370132630036383,5.555114956596423,6.111956701338017,-6.630905902964583
4.600428020415613,6.052637819671955,4.809789954489929,0.5028541708499346,-1.0503641344945844,-0.8424829092388313,-0.2604803359474346,4.922020272793091,-0.0869261207605944,5.375995922086927,-4.060575350816506,4.778281113686148,4.497356325280728,-4.449291841627011
-0.8670239223554971,3.3747501243082505,0.4697316388691526,-1.8460657791062545,-2.23577632862429,-1.4801280758626725,0.3902963770367762,-0.650932019805186,-6.67129052641107,-0.6155861876387889,-8.716383822456399,1.457569978859066,-0.4320717458510471,-3.714721003052293
-7.201327390718067,-1.1014372210985983,-3.535157210367011,-4.520298594463629,-2.218597033006656,-1.1410513263680098,-0.0490101479218587,-7.236395953474901,-10.629826639452029,-7.442290466568866,-13.055173893616823,-3.51650681640845,-6.702933199405292,-3.441026774188402
-9.05373549680399,-2.994577239573258,-5.992212871468427,-4.201379676533564,-0.6093101149709929,-0.0422518954660117,-1.8375231942259087,-12.485587566523744,-11.336287119730391,-9.238931697572736,-13.628373574619106,-8.150207623518305,-8.342785333512088,-0.2247816663315883
-6.103239789438082,-2.4750206610427488,-6.645227860666419,-2.0769259736450647,-2.5466294086893444,2.7978052705876397,-4.040957111468264,-14.550049711270992,-9.94475724519989,-5.373717237687726,-9.822206321253487,-10.444199010692452,-4.553712372663139,-0.4888020413057514
-2.770754541449872,-1.342830417988355,-6.207280169810989,-1.6139207765830994,-2.9282659229873063,4.570448835888024,-4.819039258373236,-12.620891989758595,-7.895300333215024,-1.4659086526423797,-3.4901991021958865,-9.54084691448712,1.5545611575517977,-1.243238846308949
0.27802498986071,1.3486387992535316,-5.671303168632647,-0.8984236307419255,-2.593188386137008,4.85082259039506,-2.5693578125034358,-7.059384292812342,-5.626720524383016,2.953185996606215,5.593812386292424,-6.002375783942324,8.579200453748832,-0.2422413469549173
1.331250501788886,1.94025679923332,-5.4949413297153615,-0.5311469911804437,-4.100085026558873,4.75613252882915,2.84186698115225,0.7054606547266449,-2.6774494753649583,4.346286451034839,10.964317380843742,-1.1212004153535624,10.186550927460967,-0.3462797355744736
0.0137445022635359,0.0821092998564068,-5.360815294691858,-0.8605261193242378,-3.246470022965849,3.5851919685570035,9.582297216736809,8.416459623911235,1.087272511091471,0.6030799686221068,9.105871181619328,3.919581842676149,4.2843068069238015,-0.2282305097097076
0.6721788010946234,-0.6625804211313948,-4.66512902071478,1.5167929002119078,-1.4474476430313608,4.553671808210083,14.517938593832088,13.54881729270586,4.551166491863375,-0.6830325126320601,7.367690574823591,8.245999711703847,-1.2637877887012527,1.7378801818932434
2.9302438349525985,-1.1103139031632792,-3.191952980409168,3.2381237734429216,-1.14127497863542,6.478217913103832,14.87049970465856,14.350786649009668,5.895298649720122,-1.342241095692955,3.463973159655209,10.994700979330016,-7.019374041439703,2.0655384413877225
3.3991622288326004,-1.5550819986627484,-1.3065735740390636,2.081710504309134,-0.466999820386464,6.382791721339548,10.03597497390882,10.979675543423316,4.299336772105013,-1.998136429844876,0.997272030912806,11.333246951692503,-9.46883795838118,0.7485860764550765
2.42830830066405,-1.5085964084099102,0.4340882359342952,0.4885587433949461,-0.4791759291942814,5.213925363332869,2.340822184031108,5.793313514141975,1.171128989577216,1.1492575938351377,4.294267857357749,9.158721982589135,-4.334248502166368,0.2796352396492552
1.4942433694158854,-1.1657276859029253,1.732078403864776,-0.8472131021181646,-2.2587051604029544,1.5812412556858946,-4.108681090727101,2.1253117012213227,-0.5076269612662134,3.654202155028941,5.737807338951355,5.735269829185224,0.3367418769991926,0.3295929527236393
0.7109350466278875,-0.3881400296242024,2.551758580887306,0.1136857491499322,-3.495394785576485,-2.641845459199721,-6.064454009091479,2.069521897140472,1.5283420133765553,7.413663634944456,7.623131830138171,3.191072540116693,6.474991443045396,3.105176121059893
1.7362715859643192,-0.7383076359000076,2.7801227569961995,3.051678091246446,-3.42299106988713,-3.484426184027172,-3.491378301506568,4.91377141141502,6.765923714732836,10.156409382052924,8.727435197717488,2.8610198340769486,11.048700217473472,6.679257104214543
3.351835067561112,-2.330406587554701,2.116523145194197,3.93475221627126,-4.20542048681663,-2.567165860122083,0.3038387372336508,7.65234876478122,11.953352709440807,6.6184894997653485,4.746414925280888,3.924781247267422,7.707890603942808,6.166537473702285
1.0668674035361816,-5.795126414726436,0.4982178820757283,1.4958616993224043,-4.723812034849071,-1.1466724975479303,1.1832739344183665,7.361603257650188,13.392354073666713,0.7264270486004097,1.4642895061090238,3.928360433890028,2.758744868502113,2.7460948330282977
-3.963951849804643,-11.69478173525324,-1.367515542922639,-3.5322614697620085,-4.1294112286170135,-0.2397992155659949,-2.4565017166606395,3.535957261674493,9.681328467590076,-8.892048092350098,-2.7435122454264733,1.0982702394815824,-5.042476671767374,-2.9128353589092817
-7.969260249284536,-14.13642863065798,-2.127057592788553,-7.28666929329858,-4.758177686461131,-1.4350503242053652,-8.217149927742355,-1.5999554549886668,2.695656654115833,-15.138307028397934,-6.798018750510334,-3.611445706043231,-11.862938672416965,-7.871610464968868
-8.149245339936737,-13.016513211245575,-0.7584649207941325,-5.844967040870081,-3.688556510600265,-2.439568298158001,-11.532556212612617,-5.0411398696307295,-3.9135031611835167,-11.504607495976671,-5.713296012515383,-6.91671694624301,-10.681552880766745,-8.263577761274053
-2.7843216230226715,-11.096337976011206,2.3552854131890406,-0.914520241791109,-0.5314742458723117,-2.7760700004975183,-9.454209501968323,-5.447585170967578,-7.366557518146216,-6.267729854269764,-4.8178455648541,-6.027583003865296,-6.821866335238709,-7.443555055547645
4.930592370607907,-6.972576013042684,5.3438535290907865,4.71606199014707,1.1314709293757876,-2.346897266178485,-3.21916112989161,-3.945518433776769,-7.408626967838284,1.4344236308265077,-3.8970122558391305,-1.3770001242515804,-1.623032869858786,-9.017206511628707
9.14861034857612,-5.597546712150905,6.079512511001369,6.963185884735765,2.993335786237844,-1.155381556932693,2.703152622827041,-2.748006309636313,-5.864647640866838,7.223214069729792,-1.501891497448511,3.465646253135823,3.503740529567177,-9.252857957275802
7.052170320515838,-7.451068038304707,3.8245570839977434,3.947930859122036,4.465052627140257,-1.2998640075856844,4.371072617426098,-3.0671818590006623,-4.805632556031718,5.048816712308986,-1.8017986103861852,4.8357200653886245,3.984608506524073,-5.83911026672196
0.4188416068454121,-8.290712568137078,-0.0976485700591602,-0.6491419792019809,3.619988258977533,-1.7926545284001931,1.6627463259440134,-4.279586773530841,-4.9989283694195095,2.429539678642916,-2.218460274774709,2.1793364217729945,1.331868624437489,-0.4317144229785463
-5.568071662423912,-9.279195345120796,-3.2503411638605044,-3.775369172828242,3.763947004363886,-1.932452968495078,-1.8575845311079249,-4.9062546169880825,-5.747801504146434,-0.0368673903982266,-0.5544161526942699,-1.6306357714242523,0.2447868791101515,11.977623215739928
-6.981317063499926,-9.289461549635895,-3.9188555806280254,-3.765031058851849,5.136009127167991,-1.8546178198910368,-2.3654839067999376,-4.181579863144833,-5.872260391308853,-2.152335542441314,0.291033476387413,-3.118111069190558,0.6090963743939538,20.850096010375225
-3.498248887332394,-7.699708424765971,-2.3383423774068213,-1.2537196458658522,4.553361364746407,-1.1126723123425846,0.7098021382868893,-2.5956465791491503,-4.742551678300757,-0.0680367908654725,1.1430011622888752,-1.337105806075492,2.516018284161328,16.661226436676962
2.1497830923104067,-6.896924364781349,-0.3481241965478467,0.5434520871451349,4.655459378901459,-0.1792987693535734,4.38074331968825,-1.057569163660613,-2.5569697620198824,3.8027410730775495,3.389103132947215,1.6900554787451014,8.112017213074052,10.335837847310394
4.606917079640224,-6.509251787976737,0.1546451039663665,0.0923797454333737,5.442262712541807,0.0639829802494427,5.212448252096252,0.1897098722949266,0.0493739155012278,7.097511530537116,4.672495789146391,3.353825881765207,11.477730340449655,-1.689928148333987
2.9878316601417167,-5.917225487692125,-1.3663404297913502,-1.1622493972071255,2.6256451345795697,-0.6041530622479812,2.740879220461672,1.6359654313346716,2.433717353593984,7.776567529174737,3.146286499271816,2.927411677100231,9.370132861391172,-11.654200017924904
0.0538964328737556,-5.486509600940761,-3.885472539783869,-1.479533982519423,0.8956259833408045,-0.9997523202196056,-0.1669434401904297,3.5349321734523524,4.024636935107377,3.5390585335918763,0.010699002195152,1.5772561600702095,4.00243572786694,-8.180281326550192
-2.841816083282892,-4.873740107891343,-5.792690929453332,-0.6731180845693894,0.0157989664015302,-0.51516631790609,-0.2982028110659378,5.094481190305281,4.248180737246479,-2.3342213559601905,-4.620561843755518,0.2556673808718095,-3.5342754322364,-4.154716344832661
-2.3086282344200346,-4.061113032428321,-6.069845292966905,1.2453620453752747,-4.907309047997208,0.4458851226798946,2.605694900060392,4.868593935434637,2.6986659927122503,-7.748410639367518,-12.098180835750156,-1.8413725888368475,-10.224420101132488,0.2317570511719355
0.7243356752539643,-3.320945796095549,-4.744119327610395,2.43497465346253,-5.5641024390825,1.2189085620278295,5.504136596633451,2.067905830946504,-0.4387261247549432,-9.336200867378048,-16.034028405500713,-6.336147467074888,-11.619404239023662,3.921490929319608
2.2389977270942643,-2.5915403773004067,-2.5437609221437523,1.9095053578605223,-4.034234363573624,0.9545342003157732,4.94070564405606,-2.5392061243791346,-4.179781556235074,-5.260445978566248,-16.05688260515648,-13.265668351762374,-8.616860907115576,-0.3987415672698471
2.37367656139283,-0.9290122131722252,-0.3630227876859724,1.8678554848118707,-5.561564379486686,-1.1145725987391724,0.2923096103053471,-7.093144013665242,-7.14975648204819,-1.797857623362043,-17.582267247461807,-20.009507010835875,-6.614436875888018,-5.9524191782835
0.4277004307238567,1.723352386261498,0.9780294797408472,2.472200023199348,-1.953524950916392,-3.3735580067583317,-5.671141273772565,-10.055410446604268,-8.415978773648336,0.6603414883847976,-15.984259301170413,-23.006713804696343,-5.065797370672918,-9.833873163839222
-2.121171898227852,3.262913066782126,0.8095971905550385,2.7108007414219637,0.1749730031779555,-3.4268230062580325,-9.243117428538763,-11.212084027670771,-8.058296481857887,1.8562357674241632,-13.345311143795138,-20.73908891505717,-2.639405476090281,-10.525893074312162
-2.4219388388483245,3.7734075841677273,-1.0827522115339416,2.0775013771182964,-0.8909032332656311,-1.9017409056789392,-8.793328467291134,-11.376314631312145,-6.963350260925679,1.1720606093177668,-11.97748616915992,-15.05172154213721,0.0163870180374697,-5.050690281114284
-0.8667208253057426,3.0719224036343835,-3.9723381818782055,0.0978903588679626,2.554354993520632,0.2358785192035052,-5.655271393033942,-11.218391454909572,-6.024184176693155,1.215816786182451,-6.609442362569138,-9.496281685031908,3.5693275105505404,2.18617495201811
1.3315021275875951,0.5997115348110338,-6.1452220207404284,-2.976488976903375,3.575233825800584,1.8688511686947809,-2.429257981038953,-10.446349583828551,-5.44971136031108,1.761024697044092,0.0135500235187354,-6.2818437346894,8.273955590088564,9.190471662296796
2.3374057383425133,0.1477990983734471,-5.77446929370653,-4.694504117007556,3.665215009090259,1.935522805837921,-0.5469384238895882,-8.10066649993776,-4.743765153223802,1.9942052721993784,3.6032516372892633,-4.664688875812581,8.792833128842814,11.560869143990407
1.3125495428033886,1.7402312093893302,-2.305817478127812,-3.835206646558813,5.7179545199877,2.0839624062073048,0.7226718777985242,-3.592121963813744,-3.282382771604333,1.4005566743308808,6.71397552210354,-2.1175469339130237,4.807097202510145,7.494684800024589
-0.6716027264528588,3.012274582572629,2.79963008730429,-2.626194249464321,5.079924897994976,3.646063729379966,3.210965115950009,2.5265776171936043,-0.930779505832258,1.099181973620449,9.479138850074673,2.991332758757579,3.8583910899980776,4.489438121405196
-2.1933409621163187,4.772810458287551,6.815142396666632,-1.5331275949719,4.974562066157197,6.735207467401562,7.901520029726706,8.707816187744763,1.8124443307301743,1.1586344864198603,10.148771966312522,9.70978678553495,1.9015013480394471,2.402616573291131
-2.0144059637014595,5.160977647498315,7.611387821302333,-0.7026095823068452,4.309686048444232,9.210261106649869,13.777616817390449,13.283305497617086,4.209899973359655,0.9628883802843772,12.4645773076613,15.216461971719887,0.0419843930606345,1.1626446146911753
-0.3705364172714117,3.783808270036892,5.214572742271171,-0.6125034230717291,1.5618217579508666,8.479506284969219,18.282253405791632,15.358640040046014,5.853945975253548,-0.1019763890291266,14.55633746582535,17.15590755135041,0.669867716307635,1.3578742237594663
0.9360827513133744,4.562337974345188,1.7877019780799288,0.4159694864511787,-0.9817528080956236,7.080649489711198,18.928365274321035,15.140336521408267,6.932588764879057,-0.9646029275403109,14.08187370416614,15.51199237839482,-3.017808866008836,-1.773291803317229
1.418534444303367,7.190841174147387,0.0207580282838226,3.144769219962316,-5.64107840417798,5.0047000938799,14.887832238332267,13.569663161067307,7.958541341932458,-1.836916644987604,14.73995485266758,12.496707323872926,-5.623658303278409,-7.903298014043702
0.9032782642320863,8.83262398459699,1.193637646657287,4.611372326342476,-7.012401898320069,2.669341323766326,7.561939039922967,11.576451283802042,9.161304446038557,-2.695912651546741,13.315463792616349,10.676535256375814,-4.098636131622403,-10.54612424317918
-0.3948133810340943,10.104033017209382,4.398238569717881,3.546499126796979,-4.5972244163378,3.3663613200555256,-0.142418139589048,9.489099969669669,10.079562670092566,-1.4972860951881042,9.732809211346346,10.953198153098263,-2.1509812131179675,-7.190564920576953
-0.8130543728236502,8.291606903467484,7.423891872554128,1.7114254555163435,-3.1690106711860637,2.131652043806149,-5.358056850055272,7.04785005152954,9.813411978762124,-0.2721514723756875,6.957289602580053,11.99167878244104,0.8468195494206969,-1.228566765235926
-0.6248071484261308,2.657143914697957,8.474882081097205,-1.8652369505024136,2.399199376144228,-1.2094234265478367,-6.744348833698139,4.013661690202378,7.840644085967279,0.897544190540384,1.1043064051772766,11.415831706161228,1.5353262888783974,7.463357744082137
-0.0393815305671029,0.5578719598899582,7.309356448108065,-4.228459642069091,5.780577954181396,-2.4226380463905195,-5.08655444242622,0.7857079991697953,4.688762473080177,2.1205309915727897,-3.296324747986813,7.701629531002077,-0.9184175171029634,11.572367730328793
0.8876445571046424,1.5966478804693756,5.0006285450112085,-2.7987975529218585,5.638104600695327,-4.093826629636241,-2.6425138303007163,-1.684073414720043,1.743719676639535,2.055363650788128,-4.155986249692789,1.2930530011457346,-2.010139460293769,6.996956294171353
0.3960373606232363,4.600890667292767,2.754990000588612,-1.5547524805668262,9.47617381313142,-4.382329464669548,-1.589929623436371,-2.736850015371634,0.2406755534452731,0.8159796940692656,-6.618279048004808,-5.759566248742964,-0.6684925886609713,1.8068252191937784
-0.7950420399668281,11.254878245850623,0.9703707875708556,-0.0828281716428973,10.670017513650912,-2.7978116149938907,-2.5639051535143214,-2.7725195480321343,0.327147048870632,-1.1992023954513495,-7.094171932984455,-11.163556536955952,3.7419364757339655,-4.047375931274354
-1.637457317954303,12.598365577202712,-0.6709788525039766,1.4351855039049088,10.143372274078557,-2.970176426298701,-4.356205293599984,-2.9994530091036697,1.0812361541578817,-2.5358001173507407,-7.534140044181734,-13.670295988901929,7.246537034340365,-7.06106483639085
-1.7380096102760705,8.322206897187838,-2.392675366192279,1.0367921340925497,10.545180022008122,-3.489449362448616,-5.099869173091199,-4.264738956698109,1.403824997691947,-2.5903664322986195,-9.850963842510817,-13.499313314679558,4.920578442331065,-4.213484791407932
0.1916290717360816,3.898924881370455,-3.8170854512487216,1.34499944039625,6.97611947316765,-3.578475563946772,-4.062271945307479,-6.183332734521109,0.8015982348821584,-1.0857162964962104,-9.985085718889843,-11.862126625469006,-0.8749518107055622,-2.9050625030337542
2.711184850791878,-2.7224829982913152,-4.354019206372023,2.9386659841101284,2.672565790482033,-3.2634051177046044,-2.4970665267539705,-7.601761909940333,-0.7004528764414921,1.714864166353929,-10.342540386015685,-10.081453356171728,-9.28415032512995,-2.9691395197278445
3.5554460741131786,-5.194815495926229,-4.002327077770056,3.329074823157435,0.8898052931872132,-2.30012335902582,-2.6501963152125345,-7.947482155042742,-3.144339099628393,3.7185182908102616,-9.38030093964491,-8.861393021067618,-13.254850938137077,-2.091248568453445
2.2973526716928685,-2.512389800413005,-3.5623064486487,2.302307881303689,-0.7904717771795463,-2.011465066581393,-5.638155332474962,-7.874977991024577,-6.671032239011164,3.507607545565012,-6.095677727781606,-8.033345701031337,-7.679349300767836,-1.1750158835109408
-0.602957257464855,-1.407765884145868,-3.904397688015848,0.2141602704726514,-2.6176280366007827,-2.2848096370770645,-10.099374679209989,-8.315731482337473,-10.677405030134402,0.7677585622215402,-3.1578723103092585,-6.830064091518657,-0.1923631448927605,1.428634321893845
