AF3,F7,F3,FC5,T7,P7,O1,O2,P8,T8,FC6,F4,F8,AF4
-14.66987707929535,-2.1550390596221742,-4.625121267697153,-5.225051780284087,-2.871323949165437,-2.0915551711158256,-11.32443924074602,-8.17183613206801,-1.8004031362014876,-12.400681974407773,-11.417778965221244,-8.997055462957992,2.317560194262565,-1.6281328381120694
-14.128048193922378,-2.390642325061817,-7.247356716032798,-6.588589207029981,-3.4741232629642136,-0.986193820662776,-10.46372166593106,-7.791202908902381,-0.2443443533358262,-11.611921921646914,-9.203014235615033,-9.761319968069936,4.08130937871258,-4.898923504725333
-14.61137333276259,-6.640132132206718,-11.757832127590202,-10.247479557384477,-6.2735127660472205,-0.6416857294633374,-8.220940687128696,-7.216617680048596,0.8180822828217673,-10.717880755939351,-6.39368930980509,-12.830687575299631,6.655129700386506,-10.019406651269932
-15.214300405647194,-13.589997126049322,-15.736689041246382,-12.25842316894267,-7.941037512467751,-1.0991681043385355,-5.22149812323861,-6.138192651478177,0.7141354309596624,-9.975190969929988,-6.176264589485543,-13.531228625817,6.755480611422396,-14.404572582853008
-17.205234043046868,-18.74980335378899,-17.23092372277442,-13.629826657078311,-9.48425363673838,-2.3160304276181054,-2.520471830314824,-3.904136832988256,-0.3951919076281434,-9.809244346818913,-9.6575762419125,-11.968610162382827,3.60752610072228,-16.144731023293076
-16.898627671989804,-18.22016403686719,-16.338644363926026,-12.604897317915867,-7.824635102447403,0.084362880652291,-1.0316322985905797,-0.4560920560509103,-1.7456894890089591,-8.874618536200712,-10.054557784776035,-8.290840850656474,-1.5604337388145515,-15.52729799832536
-14.328732912139497,-12.196734273905856,-14.76390937471012,-8.438635617980225,-2.2655494127367617,3.926558473777764,-0.9268801172654172,2.893403483680329,-2.631703305058182,-7.3296024616593405,-8.126321664835206,-1.3120102979686088,-8.69520070753627,-14.46350149065624
-11.926516354136115,-4.99404564130257,-13.959913724653594,-5.8682158684905055,-0.7804978511519249,5.532695092897156,-1.470992339143237,4.126880525384925,-2.899714195007964,-5.0500018107203575,-5.357698556437739,3.626899445391613,-10.915433086983056,-14.444815583348111
-8.985419022927331,-1.4905748153216214,-13.695083362050465,-4.509537486592674,-2.9749885824369344,4.595302511927794,-1.527027375817818,2.5087761131957578,-2.808911808726765,-1.7551707975592066,-0.4811385587579825,6.606084992491198,-6.343544447777909,-14.98320319088734
-4.537464582667482,-3.157930767399285,-12.316182121932258,-1.4609358957682088,-5.317801689095078,0.6859781345020728,-0.3770866080140642,0.0168109139269567,-2.424357283678745,0.4440337116087019,2.8175324998290496,10.207021683019171,-2.25546947890934,-13.941875353217092
1.235922036346268,-7.154098611729621,-8.36086201124293,2.499704110146813,-9.42687099266094,-3.703533325913206,1.8771285260183888,0.319875539397735,-1.2590555609453506,1.5179840686366275,4.430088757015528,13.29631242414822,3.3222739460529525,-9.400054940892684
4.197406451756964,-9.09580800492004,-2.058388212277213,3.581468328767778,-10.435682288296729,-4.962803345898364,4.6894437652770105,5.598741724360114,1.2842131656037403,2.698760160210014,5.839508213570753,15.047951101988703,6.139761539717991,-1.4303018406975785
4.121901112805765,-6.868457586190495,4.492264796324984,1.782767727825632,-7.756593805903965,-2.9356818697574143,7.712339580249853,13.937037190246484,4.968595821443986,3.516601575107587,6.16027669949151,15.45890261293526,2.283372510961,7.582966829923029
2.4328167462562886,-2.1697187341997184,8.525969785104001,-1.8387894720928304,-7.007506669604467,0.3791777363955664,10.845621658732869,20.04900563236695,8.293372486340548,6.413634356642631,6.301562529630231,13.970959907995308,1.4418606121765412,14.198970795674263
-2.021549676449608,1.243616632762978,8.29823589594659,-8.275275109480738,-7.13975041112806,2.902343049427969,13.56624016019553,19.29961835709396,9.321916678915713,11.71783592936294,6.263255900513597,10.240909319530996,0.3876688619875258,15.8286975020893
-2.7954941694965583,0.7777119979781109,4.204578171010004,-10.318648281989656,-7.464810218566539,3.0827785088573023,14.509754988613311,11.775592748133144,7.301295578130371,13.398789593846006,5.3130912517014135,7.959286245366122,-1.9119629865581536,12.200047766492734
0.5068427287651596,-3.0527781758802197,-1.2587214458179046,-7.495950899095968,-8.863837261505157,1.1344169672116795,12.309286508559598,2.717874054954132,3.603031991748829,11.68681424693344,3.590134806515503,7.153368787886527,-0.3485282518117036,5.680261222521009
4.037086206574656,-7.267137902469725,-4.690347984970877,-4.545020963187192,-7.830208519160537,-1.231958059961762,7.296878605638154,-1.3872456614523474,0.8788626628726708,9.86948081760876,2.760774753878537,6.615091983688552,-0.2784538165605407,0.2441871217303894
9.381448131404287,-8.79202169939548,-3.617412754540145,0.2941295565792505,-4.264002189882185,-2.459599868392901,2.259243963754461,2.0654910198191736,0.9406625348707668,6.738677629928007,2.8702710130292304,7.2559417329150815,0.2337557335271859,-0.5906235602702248
11.603847779950206,-6.621156211966054,1.9711311220785888,3.0529954525102267,-1.4153472917346812,-2.062498061288663,0.837172602332799,9.758142536765256,3.242333500250673,6.3994945596441735,3.832081454532935,8.09060544073367,2.381305044023226,4.124905575887944
10.038710337834967,-2.3118795808367136,9.398765606072288,3.018548875438744,1.3821045856997909,-0.6786390079076834,4.419157248238759,15.196191161086738,5.461121320361041,9.518981045896432,6.137322675771595,9.199622028856338,1.9132186541132603,11.992596773927058
8.490318807592812,1.296970778726414,14.771298077116072,2.615384234179416,3.01008254127129,1.0821378195850966,10.319993526701802,13.881322296496766,5.712718596496494,7.4376245686783475,7.334830792307315,9.44946446725764,0.7452883324597277,18.6260402669356
5.657887527685356,2.112247075068724,15.35558757265778,0.6532648991989414,2.8256917708483336,2.137536325646385,13.387917344708828,6.595430015162447,4.26434723374031,0.7413998918290337,7.430190371869433,8.53470741147914,-1.107551240337361,20.43513351812084
4.048536893321254,0.1560699849893243,11.242097251364587,-0.8446285448981217,2.4107001931642986,1.6691143635610104,10.13736023390911,-1.7323670461772744,3.021920345617493,-3.378135627820292,6.454591073421029,6.895388198403493,-2.614232228846039,16.84420591024034
4.215828134823704,-2.6197649400574416,5.064049113881993,-1.7010080831722916,1.2779712403882064,0.5183313101098398,1.8723282329729736,-6.276775418757099,3.2979324684801026,-6.246891302560864,3.74889119508143,4.088089966807258,-1.5585775309607537,10.26781706164506
2.670823090100317,-3.899398325300918,0.0463443410953883,-1.593761828903,0.4441099985238841,-0.4817615271468464,-6.199097997316279,-5.917897582781905,4.199576670496701,-4.654952032748834,-0.8071685879453064,1.1067076561358138,-0.3470710586769936,4.027324776854178
0.0141156771628126,-2.775066254424463,-2.030541918831525,0.1246063673373843,0.1504121819566618,-1.1307696673291463,-9.336691295301788,-3.3410839007223467,3.4348170760025987,3.017753630471035,-7.592884061781415,-2.089866428485504,0.3898573004763334,0.1106781378278674
-1.2420923590179056,-0.3617067728540477,-1.4590627937225775,0.5977407675106378,0.600271895378369,-0.8047276578726731,-7.285828016032514,-2.0344099851143094,-0.1511597516318694,5.334069303641848,-10.903739552800506,-4.646989626869533,0.4157605393437388,-1.4290971238545227
-1.4506825667793182,1.2304424501981417,0.3009285270012718,-0.0004956742062932,2.2152324468240936,0.3746599773046798,-4.232972441753705,-3.171254800921613,-4.912298308766431,2.880876631373817,-10.432967318150611,-6.24151305862332,-0.1451798183654938,-1.419770683129859
-0.0144273429831503,0.7072708881602865,1.9316450826503615,-1.038271503698786,3.1951667098183987,0.5364783132804931,-4.670391333746101,-5.087975935819891,-7.502632598896028,1.5227504475353055,-6.175786356644227,-6.2041192701837895,0.2811117623026751,-0.4061861640957822
3.6597782966689874,-1.3474588517490318,2.8572006761763347,-3.123486996617049,3.6634045339242407,0.6237931871804768,-9.01920384711692,-5.439876946176203,-5.910299186161391,-0.9382335889382734,3.62726728748915,-4.04357443273687,1.7390416359708387,1.3334711191245718
4.529417609747375,-3.0593709025751266,3.0426187409936105,-2.720818599027332,3.6586105763110233,0.917176656008724,-13.205837694331358,-3.697784447420436,-1.5739638557230364,-1.5118538378461457,7.615690441858826,-2.847960345190564,2.573175579195437,2.954986600682908
2.565154555489236,-2.94533926855856,2.665791322735237,0.3722994167294836,2.769135278076417,0.069041755803666,-12.69602468237241,-1.5965754370868854,1.52923046826761,0.5295195417414897,5.639063491700273,-2.452204993565088,1.2621368599091825,2.8566201250877734
0.4451156068335675,-1.1483809061789123,2.08942375634422,2.5287862894042235,2.787987277773856,-0.7970506389437444,-7.158159362355272,-1.2833031180591663,0.1405076358254395,-3.052692505062381,0.565925791136851,-3.453179170969512,-1.50561862006697,-0.1452110407083662
-2.960097285246913,0.9036867911713014,1.858004505136278,4.455358266683295,3.681474025306007,-2.83363927121366,-1.1533622598582394,-3.089842997114509,-5.511042720848141,-11.953151411090586,-10.50260926404582,-6.662510863907739,-4.999184769742456,-5.288623036458932
-2.3971147191666047,2.0668843636348315,2.3372955635733508,5.808362769184343,4.123552505505848,-4.780225226074698,0.0542448807261157,-5.081438958689052,-11.770248276373009,-13.833067070573705,-13.377663382774337,-6.2361961566122535,-6.087935641342575,-9.74873673159992
2.781163028554625,2.7246327801978287,3.249049257464267,5.946558633047806,4.44294031940334,-4.0229232306180025,-4.270623435569972,-4.768649016608935,-14.282985552524456,-9.527634911930754,-7.453703520639018,-2.195570704471759,-3.531816697485752,-10.48890132330419
7.0720430768626805,4.397248001729599,3.788338740076428,8.13788527934406,3.5122941123585867,-1.3035104118256846,-9.11377914280024,-1.3825315178951545,-11.08610002700459,0.8575679097332782,1.8299207218916116,2.608537345076881,0.3933429213972401,-6.657729346366714
11.701041938418788,7.970819580577657,3.469421115586049,12.289029144543589,1.0292361142459976,3.6629184339332737,-7.948544279881798,3.3115145052224597,-3.754095141889732,20.313315972541837,18.108656411198996,9.473803637594353,5.379275506620659,-0.3958332922884873
12.680615323433836,12.270292367359026,2.8531459426174512,13.052068812371315,0.1140144574810242,7.149366812201767,1.2152873307272056,6.315958868916712,3.9124569091432577,25.76937510084405,23.921962899519173,11.132006010045938,7.365199112716417,4.741119173528068
8.784237590508253,14.603028501600583,3.160733575777998,10.711244241767163,0.6139807126885386,6.039989925903221,13.4214530811163,5.659464342395202,8.363423178155,16.488770858242535,18.046852509003383,6.773812829215971,4.971773641526806,6.415211278951636
7.657936060784701,13.112431127916311,4.916463427902576,7.372069937856249,1.6709830424868937,3.006669207146021,20.297495292327625,1.7664756116706115,8.180741156907107,6.913297844402446,9.406131425087388,4.410404739452199,2.355764204104618,4.982106228452045
8.326128541681005,8.866205278204822,7.014858488112677,1.907737548417227,3.97168499895098,-1.302186517399936,16.64323371371606,-3.0265098197874254,4.42116575605977,-8.229905832900858,-6.513834516953214,2.42404160006294,-1.491491078377753,2.715532256939533
7.823704967928272,5.485169299474242,7.425635063817868,-0.439215451233137,3.8944522871389946,-4.282290216908214,4.601350792989198,-6.232510469115725,-0.4042265935438243,-13.285839551858931,-13.104946283782697,1.199741578683312,-4.141255485253542,1.6728552580884064
7.379146013089673,6.208159778861065,5.0773655588692925,0.8323447587237265,1.210196098013078,-3.1875162762114577,-7.957985893370522,-6.804871840773139,-3.892041760344732,-5.629975172463934,-8.783291593239793,2.0662776161096383,-2.6510440976883496,2.121843483043476
3.424461270805479,10.822907340057633,1.0529649781659811,0.7521483209242531,-0.7682755103029753,-1.0742961956174284,-13.421965774868733,-5.481992145059758,-4.971216392686726,-3.661654188882349,-3.9640076482328856,-0.4949007304021063,-1.2030872127188452,2.7334245243880435
-4.584253131799813,15.38292334239071,-2.2456648043382224,0.5143438934206698,-2.815761695298097,0.5735269136475092,-9.969723576660646,-3.916106410059667,-4.207654621726304,-3.625531869915505,5.639071806298845,-6.260310990244284,0.7576067961386516,2.106388245697396
-8.328434230360381,15.30194521479381,-3.241866741569435,-1.259574338531503,-4.5959904596264005,1.937104022021242,-2.4116842107459284,-3.4469910193609508,-3.1140005023962534,-4.561036814251134,7.529265365120813,-8.4223478842113,2.280403701033435,0.1351312503922681
-8.207197423494634,9.244433404243894,-2.5027107168674574,-5.402714364752885,-5.596757812501815,1.4525581715029854,2.0715957685436983,-4.366399824442798,-2.987594023323731,-9.272117743398477,0.0137749820324707,-7.640964071470488,0.0172252274886378,-1.9532230827023955
-7.369529766545977,0.2765625156810731,-1.936069678377072,-8.993689314181058,-8.693304337043758,-0.5464968378934036,-0.2711908552250706,-5.928578805137278,-4.135127070144807,-9.844310608664724,-6.78886738529977,-6.694274680143412,-3.0610639372793136,-2.8266877607158776
-4.056894037515718,-6.854246293277589,-2.805058758871678,-12.539009938302058,-13.830693361201698,-1.445263908403469,-7.041565327957023,-6.86393977403967,-6.025917105450711,-6.619739626622114,-16.1137020572502,-4.323211706570268,-5.5582757971047805,-2.412690354660141
-3.677148110030054,-9.815656448749474,-4.69290741141138,-14.144127345746131,-15.77997728812325,-1.4533315589176592,-12.073649027945546,-6.074161515113582,-8.057489608855704,-4.9639226232306655,-17.557103517124794,-3.8447857206991394,-5.329305020471969,-2.185774846419246
-6.6863706797662985,-10.339639273667547,-6.390546251698296,-13.12109880521212,-14.755221076514117,-0.8835674847904766,-10.782465491493973,-3.2860682486765,-10.00583367408792,-3.5313764014647053,-9.130499648799402,-5.692606809588519,-0.838764346686466,-4.044625847751624
-10.04257784524056,-11.960249687348446,-7.485298425991735,-12.827154894206924,-12.679211879137409,1.7982075095456709,-3.951015357113802,0.6055512632774738,-11.607851885703816,-2.007513568069338,-4.213120214800109,-5.79108651618809,2.1906709638701205,-8.593408943165246
-15.130054885583483,-16.169083764393335,-8.685766845937167,-12.706936444259618,-8.401475337566145,3.274243671372,3.1798564048555726,3.861736459877105,-11.834707040743282,-1.1146084996727497,-0.2761067320078435,-4.8413057711731415,2.7760354243208014,-14.219289006512156
-16.446255042341107,-20.7838164478842,-10.482210342750278,-11.628115911387638,-5.357352929581966,1.6933180869803208,5.597031165185367,4.958744412457628,-9.05042552853021,0.2110306409210099,0.5099835639373033,-4.398290480951933,1.289120241408514,-17.87418384893157
-13.381283516847375,-22.02995043681437,-11.829521141641845,-10.06824966608018,-3.7939375013617886,-0.8789670704544192,2.790410446148991,3.767604813874161,-2.4764374665154536,1.817162528563345,-4.300526081199358,-3.897735329384836,-1.095835832407033,-17.177971671318456
-7.563832282273548,-18.142132103008453,-10.717426696763631,-5.389776882849271,-0.4548939430951969,-3.937131163540174,-1.1427028885382169,1.810105246061381,6.223161267224186,3.645486779640986,-1.5367079881888903,-2.551629792481755,2.347984805652734,-12.29487513968021
2.6673807259424085,-10.94351754244277,-6.421444355823888,2.749855395167307,3.9425317854879314,-5.335863788929698,-1.5375123909031547,1.0851480346435167,13.100609970894896,5.868565506561809,8.269266290096843,-0.4258215203550749,9.72648979936049,-6.029361148198454
5.414398960309503,-4.092859965294394,-1.119590817077476,6.405871255389316,6.50589637675268,-2.709108306970343,2.4362835920876997,2.256940057029823,14.371541780297406,5.720521458324643,11.564249752703772,0.5407870303511578,13.431649701165508,-1.9316180517622072
-0.0291443204623697,-0.0287203413674186,1.1888106783108228,5.674361518039546,7.431209698870547,1.4998573878681334,7.091831863578337,3.849542907922889,9.397190718740047,2.991706543331795,10.234726678197918,0.3582472439718577,9.505681617718889,-1.8597492728701683
-7.462586215890807,1.380957094681266,-2.042419496909649,3.653728347888936,8.115411243791268,2.984517155649122,7.887872896129158,3.434845009156227,1.521953680342058,-0.7237201729123532,2.755940940680875,-2.8285071394358026,-0.9092624293825,-4.934217688276555
-19.91430646859992,1.630011629995348,-9.297330967825928,-1.4969240534720665,7.969076229065273,2.732902491103596,4.002688681751898,-0.0178672418344127,-4.248560811415807,-6.149780645102498,-13.782457324317472,-9.752035844954545,-14.057641932669824,-8.598246894039445
-22.205737696634667,1.6655924514350513,-15.616772037253597,-2.0834352636035924,8.058694057632783,0.7020082630566782,-0.5378802079302254,-4.767097361145793,-4.893156300103179,-6.858350870456023,-18.430272797437134,-12.212433796428696,-19.60178402776123,-10.662053122111256
-12.79345934242239,1.4694285366453297,-16.20137838373568,2.510493987994584,8.559058575372626,-1.8012320302928089,-0.4151442325231702,-7.392403033346493,-1.2584683177670986,-2.162814974648036,-11.03221386895454,-10.303796028791004,-12.455301967817697,-10.505848842942244
-3.646282004535414,1.1754941698312749,-10.05931993749396,7.01194823092164,8.154249200250783,0.4534224182925289,5.874740457431976,-5.639299394032665,3.2619869220387416,1.9168484810927524,-2.48997495539314,-6.244595390405218,-2.10580802550796,-8.674290325356669
9.005946544230142,1.8372709594634111,-0.6797037147773572,13.305016372242791,7.080794741486419,3.264811233134128,14.078789186021156,-0.5496263882994974,5.768999355573573,6.923890980453307,11.91047021099222,1.9514580603076603,7.9711640038516,-5.750019409222769
13.830263805706814,4.504432314973941,6.716769583118559,15.400196988119191,6.692643151411338,3.830212017310227,17.382852323865734,4.118627044607914,5.799672642997231,8.235378943501814,17.357739028063985,5.3937945394504965,11.919359041530727,-1.899831240768084
8.521321424500073,8.567813696012271,8.971924459640633,12.303595407295404,6.902673473106121,2.761943170784674,12.069444747369973,4.799579383771327,4.780947585313999,4.597197219952905,11.962489946909256,3.6730088086892296,6.1350504763868825,2.5807750119191275
5.95649815592691,11.557484873086114,6.829225560975825,8.483229142795944,5.705984022073094,-1.9875799226426936,0.6741336909646076,0.8775022025647372,4.1243865020136905,2.2878231087112275,8.170752480826264,2.428246660707432,0.3610588353199038,6.704481727108185
3.1383286840767517,11.149842521721808,3.717203138200589,2.237349919179077,3.237500858068509,-5.346285713421363,-10.093304404349269,-5.015057943804964,4.098219116584055,0.0114148016799673,2.244826791063732,-0.398072056275348,-3.443786497810444,9.199363381846217
3.081422974568265,7.566952712284236,2.8861043858432205,0.7552844738048301,2.2468223882871063,-4.548497410558074,-14.704641176737615,-9.227265307718756,4.321466515410023,-0.7424870135334334,-0.5158858774028031,-0.4213005437331444,-5.12872461851476,9.60560261499899
7.895616352110074,3.7947833701367433,5.272839832749377,5.015089347120869,2.5270671123307618,-2.0745333261407057,-12.70073253457812,-9.758611669437084,4.814063799868482,1.145278659157135,1.709487936763903,3.2006489971663297,-2.6317801842641706,8.787732046862663
10.038126805982648,3.121884513883405,9.412043390800594,9.065753280648206,4.364236042221849,1.1521959269193307,-7.992903895890169,-7.173812190149031,6.128076612303302,2.975349749645205,2.956739284865908,5.34471987895039,0.393893374371536,8.124001475772076
10.64429739879555,6.277328936612285,12.922652583157747,14.792565967162652,8.447892678612135,1.8873674814595405,-4.7792084912336685,-3.4182442431114204,8.42459164299877,5.466729343660511,4.966262648309995,7.100135571100402,2.815034752274009,8.14251788530589
10.839454492347569,10.92944119443188,14.158702724697632,15.922045282556786,9.974225400867072,-0.0960712766197267,-4.116753306224437,-0.0369588792966437,10.74991024801641,6.168553953737054,5.047825008286209,7.276166620428732,4.934228625490893,8.093792147332158
9.366479584296007,13.935363643270875,12.95764040761748,11.25802619726187,8.91282559584833,-1.5554667547111385,-4.0494326382879535,2.5570109545192623,11.582129201416686,4.532298642464128,2.3265165734477087,4.971982079967768,4.4964551589735535,6.968367208493016
8.699709295896916,13.99680840200778,10.338677136766012,8.460221184163329,7.455101461784165,-2.05964133661107,-2.517548468233535,4.525689731554769,10.231723453252036,2.059712226932715,-1.5625932465391748,3.774056625059431,0.2582418793358632,4.836329518552981
8.744999518974687,12.155133368430636,7.640998631847045,5.96037820606207,4.492394679817852,-0.6844089906810596,0.2203122423638364,5.830959082929644,7.617351080323855,-2.0624399460315197,-7.625379670797319,3.253602255236833,-5.265620199419126,2.964508707352289
7.547519278600685,9.982368819714813,5.706425251675008,4.675642798929947,2.664129501937317,1.923408988869625,2.030061591400088,6.236817361464203,5.515402507965083,-4.128451205440109,-9.621927266121885,2.786099239698532,-8.10833474236556,2.4937675992276462
5.489167838013085,7.719777198661242,4.5316504492274445,5.901321315658625,2.2234885375856237,3.347776103993106,1.5172255983795075,5.943117851825777,4.969553288298195,-3.82434028146418,-7.064860076289084,3.028125136901408,-5.792758573455703,3.0917454228322123
2.2765613873625727,4.430610158078678,3.5225654081746,4.007290011656399,2.220772745402003,4.002546764217707,-0.0242073745412327,5.872880975258143,5.431482754991915,-4.90651984721647,-3.78552008719307,2.2973503753423925,1.3248862319113852,3.096865284449283
-2.455809735469761,-0.2023013332457095,2.1152213481239093,-0.6618766778853238,3.392608124195596,4.43154407857701,0.5350221664027721,6.994325177829425,5.441023634648463,-6.5796548449194185,1.8051886107395376,0.6000289937596622,8.974979875036757,1.0881138470159666
-4.641631421610207,-4.703974762089009,0.2454983713962177,-3.882007210667647,2.742099189605847,3.1686655826000547,5.079361415445782,9.164853629966188,4.083849720917324,-8.335466613987846,1.315436551364234,-1.0440768129302116,10.96350653596038,-2.726920183035664
-4.135609961394764,-6.794836835405224,-1.7267726250255304,-6.542770224802369,0.1259253800730974,0.7152994096351643,11.71398140378196,10.663702705391657,1.7380262736452694,-10.708146465790838,-6.265420082619272,-2.968521425041942,6.172132553321678,-6.716773934928942
-3.8719384758085407,-5.580246046331896,-3.492096657215358,-8.734543393902111,-4.46796015467583,-1.1563383053986855,15.323848632883877,9.139887877653972,-0.5402498887955709,-9.91218989626516,-13.56133677952942,-6.163157096674826,-1.6361275619354043,-9.323933403985858
-2.945027023921513,-2.5686661436997675,-5.067214481573383,-9.772311669869236,-11.929987765271404,-4.350317568157474,11.294544557151616,3.5085611711448443,-2.1835507094200843,-5.683338898732428,-22.672275194291736,-10.633536777566386,-8.605549152195367,-10.218816019375591
-2.3666601419731044,-0.3947040673652353,-6.488779485670005,-11.400681633925986,-14.908155424528056,-5.827589690796356,-0.3155695963837748,-4.622045019834751,-3.507234996547994,-2.434290873156965,-23.84974204768968,-11.184037056697928,-9.668545196046235,-9.971196245897357
-2.541542984669436,-0.6030829502286674,-7.284557216695617,-13.47483862247364,-13.16352716935617,-3.75434430971841,-13.663679751804748,-11.311082600915702,-4.948959546186528,0.5696161602089489,-15.263760426809023,-7.576261869901275,-4.931200273001858,-8.837433497767977
-0.4798476053154981,-2.76336801331695,-6.506942672156707,-13.235289694388063,-9.745978702672096,-3.032319594968361,-20.54054296673968,-12.561608076225204,-6.116099343923022,1.894598535001412,-6.457489543198244,-1.117816424078664,0.0183341596999676,-6.256996608462571
3.6529701809438944,-5.5602067160755695,-3.5968845765465964,-10.773665702299173,-2.8101575543348294,-0.5929977983311936,-16.227644245978883,-7.129499861033933,-5.865946533770669,0.5854320646401214,5.2706243448164045,9.651010864169583,3.8816745066793934,-1.7659021124667609
5.788733900813742,-8.282036850314949,0.6718430946594229,-8.462762231277233,-0.3832041841668308,2.2764118279539303,-3.3917494065370786,2.2134300600931542,-3.5066444807897543,0.5315083716736735,11.906770189410738,14.542920798592087,4.80006072093537,3.739497785716471
6.235069388616103,-10.88661209816842,4.289551190895072,-5.817725796915439,-3.084115843577862,1.9404175112132456,9.323526296077713,10.184637361749584,0.1258983794040054,1.2196530941801458,11.57193580332548,12.985716305479372,1.58550242966274,8.063602520800632
5.570125743573701,-12.782951861233837,5.400734371106681,-5.015481686094882,-5.8022035018927856,2.702459577492049,13.382408500345512,12.475205724492684,3.0098271618603114,1.9996281936128368,12.109686319575871,11.128407879481015,0.0316295444126376,9.41789742397694
2.879169569122748,-12.250005808438218,3.895819068893929,-6.6739189655971405,-10.533067312455463,2.0583681596237597,6.650400482303948,8.739763407811367,3.601824060153086,3.559773108598537,11.130219894413514,6.484790389135368,-0.6466226259305743,8.185982535463012
1.4765605062699814,-7.800325432300323,1.6958035961090383,-6.841516414758818,-11.29788182532225,-0.5370692917669413,-5.015266827832075,2.7624839009156528,2.286025563181008,4.636303633245835,9.977771771685273,5.0976517332156,-2.1656907672348247,6.831262074159652
1.3582056577081123,-0.3803472374186549,1.285556433659604,-6.052777366486833,-7.213116622530695,-1.02724945019097,-12.213685279625889,-0.4304849989380113,1.1063896416439132,5.285568329014952,9.543255258429816,7.870944329190727,-1.229118405606616,7.786246895491366
1.4884982724531122,6.139284284358482,3.6581051000770017,-3.3355954693939958,-2.1291831981044544,-0.5076447058671444,-9.032666225858264,1.7010513322280296,1.879809165433784,8.298169390577906,9.147934741740029,9.819354765953303,0.5109582510888647,11.242598446056236
2.646887885053156,7.363191603684927,7.436448764168468,2.186153846631578,5.648166803165956,1.3340033759711103,2.810719193836104,7.546271485472477,4.41694860192978,13.670359755566496,9.497507551410775,12.52735024751412,2.776490517181271,14.97873840534898
2.6495195067720263,1.924790180201514,9.945378185688302,3.9307103843132127,7.969990743699053,3.79885608235797,15.745111986888928,12.921859283739272,6.5892521309446845,16.184467519951763,9.087973956538727,12.7027794270569,5.381765388234928,16.415068145072603
1.425231679842813,-6.97695647526545,9.317097330857228,1.9686040206707365,3.923487072540652,3.469323893166768,22.246024990628317,14.40769236569551,6.27344418248976,16.087305865996402,8.017444445424776,9.55247791062442,5.228331166387257,14.923283460133476
-0.669887592255168,-13.62271989703898,5.866187633497033,-0.3874135315231216,-1.2315936163628152,0.9575317529431048,19.98102580951839,11.65103876180379,3.384822410649127,12.216794600369232,5.79585018668122,6.085619912491332,1.0630010867666588,12.20779204567966
-4.217002107341412,-13.84231986017423,1.6663621355850182,-4.563561838033063,-9.68421962074914,-2.2122188555463205,12.407966121587233,6.969692024795169,0.0540550911986805,3.129126990535521,2.0389394320504635,1.3082384813516263,-4.283479590531878,10.50022375975981
-5.410262834542421,-7.854108057931004,-1.1872260330611084,-5.550960822037505,-11.200692619560533,-4.632642083049804,5.0747711044112,3.001173116927223,-1.2834438691463743,-1.894621472745539,1.2318292679409626,-1.6829943500971092,-6.6879798216047845,10.403000150212716
-4.09269186790204,0.2222203140891956,-2.119258745887338,-2.714207870006313,-4.541474200059372,-4.300075875651076,1.2093296160746956,0.655155015374838,-0.1420506112910899,-3.0374701549143164,3.4839614195281814,-2.327929446790861,-5.320246419657513,10.447955712489062
-2.451516092558115,5.524899086361941,-2.214255232623895,-1.793402534613975,1.425847942067025,-2.313278425382168,0.1360904138149798,-0.9860550001404872,1.5162459371809138,-2.963141738779967,2.6801112512690226,-4.406736380323784,-1.5648121926877223,8.68417478330057
0.4193627696543183,5.71919175596168,-3.009699254777031,-1.67642680919329,9.267738518633486,-1.0198873222637486,-0.8615304615099593,-3.134730277709032,1.0210700914749502,0.4889124339058477,-0.5052964643638104,-7.165419085642389,1.1777863508738573,4.674233101230154
1.6215138497548447,2.095712310261855,-5.073821425530227,-0.9980931496853228,11.105645471135135,0.0441711030137135,-3.497394461476912,-5.844342468470485,-2.607258035421621,1.9750103375646093,-2.5069714976228505,-7.9444502519606015,1.2000396453737396,0.0119496535150993
0.7665639740769495,-1.916962737994325,-7.534090895156677,-0.5658239988349333,5.159929931729627,1.1387096710023854,-6.973032734564137,-7.993954654583156,-7.740192203699676,1.4211307168970675,-4.285012495203382,-7.075512619103706,0.0911030305500077,-3.0128461784338167
0.7332616539169448,-3.403336025723876,-8.818437043916742,1.5730408811465102,0.9798714891942018,0.7614411092789022,-8.874609274747069,-8.507175737516688,-11.438166856518942,1.352085780303464,-0.851398440589641,-4.731853340604806,-0.739355655111114,-3.24521459751983
0.8244070634282971,-1.7813771505366045,-7.886146936030855,5.59340612874766,-3.560326212357856,1.856350425363827,-7.283538489878058,-7.442658628420601,-11.718791188346373,0.5847659549527757,8.791646092416958,-0.339167142762378,0.9887809910610776,-1.325939955780708
0.1768560955725607,1.336060679116903,-4.966465263244059,6.93436434236905,-5.374764323305153,2.7623119493966186,-2.331372018527352,-5.886413676093406,-8.85744897491735,0.4696971624849929,12.324107133393866,1.297592866694667,2.7788577353799946,1.2136036004805355
-0.9055704774160176,3.818458923990997,-1.3682075492286874,5.737247851673248,-2.759260795921855,1.090489507550897,3.711682372839373,-4.8645398022037085,-4.86429839338839,1.176523922928981,10.403081216083876,-0.0525030933546309,1.882887699068473,3.3125883577066944
-2.604726928080991,4.707599358348739,1.3210995562799432,4.449211485715213,-1.483279877120461,1.2448596673049888,7.626616886925012,-4.429688446931924,-1.9211814563325584,0.4390655685533975,7.639629772443358,0.3937156611763536,0.8724160065555484,4.8152167310381095
-5.040439182947965,4.545062253229072,2.0150949385604475,2.130388294777112,-0.4001955396079511,-0.2018535317405146,6.998218666229068,-3.784235147240313,-1.1816729261796173,-1.5544680449728026,1.4703732396047338,1.6743785950115169,-1.7407993289556007,5.741160612020943
-6.152965729204775,4.24641542330966,0.5062770151892497,0.6251469837740693,-0.2388358945328171,-2.1327742486542114,1.7089124592319551,-2.218549738362224,-2.598344125911039,-3.560540438047389,-0.2456427335757411,2.336063882083248,-3.6845007043112856,5.4702727571305685
-5.835712144169223,3.76068996693491,-2.534288439508316,0.2807984405038287,-1.9615622179033088,-1.1156207089509869,-5.6565153397925325,0.0899683447638293,-5.384088247754656,-5.9722038308451415,3.163260073032789,3.012764908503691,-2.819504005637726,3.013386851635796
-6.087143307221046,1.9159201782209507,-5.778518023359112,-0.717270456417805,-4.402041817423805,-1.6600923830835717,-11.037205888475905,2.117793616778409,-8.449520509324627,-4.666986205467164,2.5414716800955195,1.399564245881704,-2.598326451740541,-1.718038007365152
-6.47943942571424,-2.3377710723832994,-7.667443856396821,-1.8832119887076035,-8.14095167927208,-0.6000048369599327,-11.359105684232333,2.7345911250800814,-10.67596700879761,0.9130363993884962,-0.5819312755713331,-2.83147250209204,-1.8845478819465251,-7.022729533970088
-6.07168225728603,-8.48831293274407,-7.082225459468198,-2.4125333950105143,-8.936077077464029,1.4355288296167554,-6.689761916400247,1.4587898726548572,-11.284972996729044,2.8357786258670754,-3.366189983810276,-4.922338566354027,-0.2744898687751754,-10.16187916925646
-5.07915851915559,-14.27835166182764,-4.058721802709685,-2.4387819453528388,-6.398777570080305,0.8882733147528348,-0.340203867961252,-1.2948758640511802,-10.299691168453888,1.7422251353660114,-7.186225032618321,-5.1882252942225495,1.613937535126927,-9.448113889451822
-3.638356242842632,-17.07546208708678,-0.0371202080396738,-3.25479046567016,-2.2252371734877303,1.4405092850555303,3.4382352742509905,-4.503012187884666,-8.6352434973317,-4.204233310088179,-6.784959643941846,-5.1441776663770185,5.300964642216005,-5.875395636667841
-1.602280608611751,-15.673259685729253,2.7661356371356383,-4.821599899235373,4.7958366553866405,0.9425506921455046,2.480386659324004,-7.080751917703736,-7.497309067066647,-17.028219863524686,-1.537598293438883,-3.8052494182681897,10.421764794010116,-2.6717611705764925
-2.1388979627614053,-11.06368846967911,2.654612685653291,-5.706003826333719,7.437908164577178,-0.3317212055918683,-2.0022155075214325,-8.423778335232718,-7.500285397682717,-22.50787420258629,-1.8011714707479674,-5.697233518576658,11.542034265771864,-2.961923011452364
-5.538676032999003,-5.678840668916383,-0.4475542903239193,-6.107347726869545,5.189677902833645,0.6332675778446001,-6.889779642364024,-8.74334901582442,-8.355685922883541,-20.820144408969583,-6.872800934922348,-11.1640548812529,7.139852978170111,-7.464584705794501
-7.820568316491978,-1.8397859749750136,-4.958140961103252,-5.41065013546317,2.620028384571077,0.0940310944035432,-9.95564948838905,-8.975231714519088,-9.45084482232229,-17.313218704065612,-15.13682387302335,-16.577448233254643,-0.6270020750271335,-14.119943951964288
-9.623061758531406,-0.5514763338215731,-8.731815908603732,-3.2621594402225664,-2.0653945889014995,-0.5520530277276613,-11.415682191292298,-10.150038037901115,-10.634533215480788,-8.73906600587687,-28.90490793961125,-22.98534541998296,-12.733054306213496,-19.793028688550635
-9.401802929476416,-1.2218535156797508,-10.424706969390204,-1.206179400616646,-2.7158960605489444,-0.4845229338435969,-12.934629694503972,-12.501449349148077,-12.231806391461337,-5.600318833589921,-32.49205479816997,-23.94523664105108,-17.983554620196827,-22.43754389623767
-6.257720093791963,-2.1317023531835466,-10.078182869989252,0.9635658938764816,1.537372193528753,-1.5856575338391905,-15.290113324254383,-14.993217078085166,-14.187429513465004,-8.635135132273673,-25.11629827800712,-18.388892806143225,-11.317066751389426,-21.966624138690285
-4.6426512715883845,-1.239786076057177,-8.614724446596973,4.03837632027396,6.434483811105111,-0.9415335983090748,-17.129789580973387,-15.834639714982812,-15.366593915719497,-9.16572343531361,-15.877132329979863,-13.616149629258237,-2.9807958608266976,-19.51061682152736
-4.097876226677936,2.890195002878703,-6.891696586104431,7.8000793160926944,13.676668629431818,-0.1426309619006889,-16.050208244977213,-13.801386312315582,-14.075151862409925,-9.518913017933103,-0.9682023045651048,-8.008707907119964,9.135890005829218,-16.19000516197798
-3.0869640781472207,10.177804022557714,-5.203908320970385,9.802335255415608,16.475629929998956,-0.0744673454514659,-10.862193057093586,-9.37202483363606,-9.588675808346846,-7.705606468564477,5.135762618024122,-5.445569137937899,15.554770356026024,-12.62167789473354
-2.3985757578878126,18.54015197213426,-3.505517255925599,9.900542390727804,13.946960517936851,0.3448810659816399,-2.816021794859741,-4.650667893201849,-3.2149370668103057,-2.445922223062017,0.597166703736914,-7.403219265450303,8.2336667718086,-9.262281927079956
-0.8769700480269613,24.44384119404484,-1.870107086887434,9.765106717686605,10.430995367439944,-0.019067761475859,5.235296796469948,-1.9732389829003127,2.376854928532188,0.480069711438353,-2.7693011483253565,-7.189536737826424,2.757094456918844,-6.732687851020812
1.5994476522361287,24.653658833124545,-0.606737375782816,8.788684269520484,4.042626283565851,1.252181802993661,10.670979465626546,-2.2347443651969883,5.176734532353225,1.6587525687971802,-8.684055695519424,-5.972311438570465,-2.5992674576149315,-5.494121883901069
2.450701716139277,18.33792889682704,0.0107802738275522,7.077567328280548,1.1873682303734516,2.6850533442582987,12.16279018348428,-4.291493498995312,5.378538531769332,2.2644522626365124,-9.937952303452748,-4.891027289166115,-6.875948513716109,-5.260910893569403
1.7687598706132497,8.026331465371129,-0.0228877679540899,4.758598893904947,2.627214049996576,1.984120316831477,9.46307737256156,-5.9367810642607335,4.958308026400369,1.1886817725807153,-4.678545907503974,-2.918204943907005,-3.324699188594965,-5.047230179899763
1.0155218678057,-1.5647874098435293,-0.5280065355828505,0.4036056972548718,2.510297246375511,0.7405995372520477,3.000886541648372,-5.634218480855538,5.692595054980057,1.3463169153949557,-0.6414774537562262,-0.8920696117397949,-3.159808895321642,-4.061296302131778
-0.3247817832332406,-6.279613207012176,-1.3228840698527171,-6.0601713834157005,2.380406059959415,-3.881332130051496,-5.707689112866524,-3.566720857477206,7.584348232947164,2.761832077662949,4.286245506217081,1.3134923248727133,-6.217104457876559,-2.529383189283432
0.823933077383228,-4.958614018445653,-2.131228091160516,-7.48089322383883,0.8450651516977337,-7.720850113865761,-13.43663827388264,-1.173003054558739,9.24213629071471,5.171830839821971,8.10704097253795,4.872455230417105,-6.216369915130941,-1.3645130923875044
4.898769610079475,0.1867959495167914,-2.2654545695307746,-3.5590113852320195,-2.966356269370064,-5.588167630782114,-16.023955264334994,0.3429190160717255,9.729926620312892,9.330478404152473,9.73394821357481,9.789529411335833,-4.824944220020496,-0.8071433119010756
10.741579845412556,5.403972963485948,-0.6211875755719927,1.4363630661150386,-3.798074596866388,-1.7251177751224465,-10.954337627345993,1.1716761202202708,9.846862370265034,13.500239230696486,13.59580041238229,14.89131345677628,0.3549236315662925,0.47045432861613
19.32228863498259,7.877883836872487,3.62924097753867,9.24107432156888,-1.9255564344588063,5.489779199257366,0.1791327736694636,2.691942990897152,11.363601349854044,17.859572603026034,19.0649401941939,20.395091308757856,10.013399739408008,4.4505264600887084
22.30831264326146,7.001569693198769,10.01715861045138,10.984569393799577,-1.8093327140639877,10.666618064276616,11.981700690131984,6.086213361447307,14.904309636226486,18.22320853127346,20.90824432718091,22.59653753585863,13.991759150036,11.532475559449502
19.09012042070805,3.862392793088313,16.398091106340473,5.559086746555795,-2.630204572218478,7.161351486212789,18.774149145150723,11.026039866215648,18.69860920155977,13.80903603751491,19.422416100746503,20.909085926694974,8.78312458687431,19.16682367871908
12.503855239376248,-0.0812279502670492,19.867398869001885,1.125770822704102,-6.503926779957497,1.9275323538504936,18.594429590165447,15.632814262416494,19.69269801339581,8.359622802191753,14.369086537951048,17.486829267970357,1.214569294327759,23.129865690795317
0.1991748344597697,-3.7948568230658175,18.55481394940596,-4.517562191549534,-14.445961602663829,-4.657613657093132,14.180666303498526,17.810209366973538,16.180251164693395,0.6473887238010401,4.394944177236048,11.187013126596757,-9.476433133920036,20.74512502055976
-5.268829878367021,-6.577505764742405,13.004688893847472,-6.762593431057095,-16.207418889059554,-8.367827138258122,10.128311141868402,16.835492403748688,9.524641172621264,-2.3000174258030226,-0.4964141045533079,8.3083776738605,-14.425706867095176,13.24404447899918
-3.1801550085697623,-7.816692971076863,6.021896433152737,-4.150794489926806,-11.868800885099306,-4.075441489622385,8.979791916689509,13.866903953194596,3.307536023311304,0.5553354781596487,-0.1004116103422684,9.425259143558682,-7.44806437485321,4.99490530482041
-0.083772856809302,-7.2991555657228595,1.0039683841449367,-3.276450202240156,-6.310875851008627,0.2468418938628711,9.81049828113828,10.979390836457693,0.6210131715335088,2.648310087809997,0.7378352252429047,10.28172191800036,-1.1081925884418635,0.1809181688228882
7.173406101899895,-5.783119097473971,-0.073658228104918,-2.7940554978993664,2.748573732514213,3.7516272051803674,10.139014900954072,9.60686050018201,1.8848363962558068,5.811554682024346,4.382399927453873,12.482971898922017,5.468881634372096,-0.1236070393881121
8.708541009192478,-4.860991857590683,2.3552897206208527,-1.6016385316560269,5.375235318803594,5.196181487527573,8.679306136098461,9.70950910009887,4.965737842493194,7.2664487633276,5.465494822444266,12.102254308842229,9.521279967333632,1.9715745676634957
3.497278925550736,-5.742431278770233,6.020691100292844,-0.6025428060834247,0.4742715252407414,1.7217367414055145,6.049966764485317,10.238177661156612,7.203777737229977,5.976882746040056,3.432129287362476,8.48251186301608,5.292784243575876,3.5938594372179864
-1.0447393759925812,-7.920803107632548,8.364172192214376,1.2837453118069262,-1.8794935803391004,-0.8965209829470009,3.27021562388801,10.287017694210522,7.373239371423718,5.715179342225839,1.8562826211959853,5.736001172918821,3.179023500910032,3.453389214244531
-7.367854495398792,-9.195373173295875,7.966291574830919,4.024494023386049,-3.9573966364161257,-2.92059491083628,0.4556264809215768,9.811049069028224,6.009984023953191,5.582946618174925,-0.6088802582932066,2.8827218781617416,2.276825141075939,2.053120847773286
-9.452702783202836,-7.40745825463674,5.085615782476189,3.955565266857054,-2.906142259733875,-4.219325302695418,-2.422543922810803,9.34059445411916,4.283470160203638,2.942417937314907,-3.016212404101668,0.0362589514106083,-0.0578839249686981,0.1546503906450667
-6.042499393654746,-2.486039306729854,1.2378327230171884,0.942920425556053,3.05054285045918,-2.4080169552260635,-3.821964011674965,9.121977411160156,2.829243617228037,-1.9789349460181,-5.058554002173741,-2.226391184849225,-0.0571081095312635,-2.417356893238235
-3.802161096300344,3.16149366454378,-1.7836747015079908,-0.7472248428875048,7.144373761191288,-0.2194113147906533,-0.8040460595955317,8.598915792621966,1.6061829231066476,-7.107370221214196,-6.142852932817393,-6.558107559460925,-1.3628937267569587,-6.277022085303958
-1.1237990325857734,6.470892289466143,-2.9367225235246828,-1.7823483457836853,10.388287517497504,3.333547023980262,7.952150940553444,6.743752101744118,0.5353543487262087,-12.88154061610695,-5.828938918005907,-12.91606765015135,-3.853130871492645,-11.0455653561633
-0.4698540859103565,6.209318569445983,-2.5449075092477536,-1.86038090507292,11.719453271826216,5.941516996458913,19.03672227401029,2.9380287613587868,-0.0786173238363403,-13.992297360218569,-6.503715751169816,-15.52615477253558,-3.566336002484973,-14.848884072865513
-2.990023041099477,3.88402938215382,-2.116622375854579,-0.1394025509333802,9.787794953958908,3.9259212764508855,25.02572860905935,-2.350692163291292,0.1479907784802918,-9.550703453250415,-7.981207232024783,-14.487822693047836,-2.2782519861550496,-15.570600326160818
-4.424895671850562,2.2716952029666686,-3.3003770451757326,-1.0616193405633931,7.113584633683384,-0.1290131401571856,19.70989721530177,-7.626016200098803,1.139845620604003,-6.066671392939958,-12.07660092120784,-12.803926790805797,-2.34683923643657,-12.734030191697268
-5.609085927392007,2.963711581181066,-6.531370043326216,-4.55000194186251,2.9344656725636864,-6.523792380035263,3.74985428567566,-11.092330495710694,2.369797123689729,-2.232997906944047,-19.520509025219106,-9.21730816018839,-2.063120537663002,-8.127585430572985
-5.922962101390899,5.127819386979088,-10.417159711395389,-5.37043212261399,-0.3859298146251189,-10.260804027884369,-14.606480494799518,-11.56463337600391,3.4597957975004583,-0.7797063366097723,-21.265572610396656,-7.4759087788237535,-1.845950469809844,-4.488176334941855
-4.635871194503241,6.417346852298756,-12.586737068388429,-4.14857822417202,-2.393680732068891,-6.590236904146955,-25.097792033291405,-9.041272765758452,4.599412211911593,-3.028932875980459,-17.29825837002282,-8.096093515401796,-1.7777420885092166,-3.422834783050245
-3.447472567167305,5.000380864443242,-11.536324276038217,-1.5614585379499926,-4.000229531053667,-0.8549460591843576,-22.94155530720266,-4.680257841766768,6.144318044922983,-2.8280821767667024,-10.876887284433776,-4.985698723467977,0.9165217667941876,-4.395689463781324
-1.9804389255634545,0.935080344749048,-7.929145443247119,3.437346997316643,-4.412019343117742,6.010932284332383,-11.948748120096424,-0.2165225376025894,7.777050813081447,-1.0041991575923157,0.1771813855671201,1.1935004284652937,3.5687375241009445,-5.491209157635833
-1.0882738075918017,-3.9620673284082,-4.058596962262915,4.752777925151251,-3.7703007741805976,9.4367452944285,-0.7857316243786858,2.91083800458361,8.327137330018306,0.6789051060838605,5.368446169892772,5.114983020776176,3.447087417472216,-5.01223946363182
-1.0871719133706204,-7.255190863819211,-1.8106902075007396,2.1354246511739072,-1.872015092588976,5.6559011194021735,4.113979858813337,4.290060878046797,6.786504092067165,3.2344211050311245,3.9450365201780326,7.539583553571675,2.1418676493515965,-2.4409407257351106
0.6047083538776509,-7.10198729022955,-1.008430932655239,1.627834988812182,-0.6575808925176976,2.0784252529994864,2.872781447893788,4.663432497730065,3.659322613963167,5.230425695493088,5.364582364229684,8.358508518544289,0.765226458543705,1.7607990534584663
3.850531921593775,-3.108471293100129,0.1875119587543814,2.046766785595304,-0.2140676103990814,0.0146465095427418,0.506993223159343,5.246465240625327,1.0913367587523748,6.5641764218415135,7.325513487088014,6.468703721418517,0.8964850552996668,6.793439345401885
6.036461006939418,3.205654635162273,3.116825903546748,2.650363924354613,-0.6366550544691489,-0.6847590955763487,1.460842587170745,6.5973742338256365,1.2113932436638883,8.044931385066016,9.317629933935386,6.0133981698839225,2.352757092215611,11.71645775719544
7.52567730147045,8.610233389195061,6.852455393552835,4.372308494262348,-2.5202023430489584,0.803350452302249,5.469471776081207,7.906302955237251,3.9911287932826074,9.342006599129729,12.59626046572478,6.794408667851777,2.159813662847425,15.253182331012862
5.632372758299798,9.5341718817253,8.75145817208778,1.3583186789605548,-3.358992930273391,-0.137112132463473,8.134561289257109,7.47242153174001,6.748810104245495,8.969211440639397,11.349451378290304,5.228543794102267,-0.3247545582887816,16.020102196076348
-0.4528636698736329,4.3853087349795015,6.971842760544858,-6.724380320950044,-3.265103008250461,-4.24740024538948,5.226588147545426,4.228057085276074,6.124340104247324,6.807431385569861,5.445821366684196,1.9463605423013963,-5.313988316204335,13.540622983854178
-3.421288725030025,-4.702985712022022,2.5164583213480256,-10.409630990849498,-3.513803885454984,-6.525545626597486,-3.2649375190087326,-0.9103344174410352,0.9981631395446248,4.572098579765119,3.373171435114944,-0.2950918556194261,-8.149014216117667,9.189786381779872
-3.719531528981977,-12.56258164467408,-1.3458463391686415,-10.513415035178763,-3.624202018311885,-4.884373364796575,-12.680271025991903,-5.252955041446217,-6.2742552388635335,1.9394121862823943,4.356356320278891,-1.86744404914318,-4.604132986235236,5.778925539267949
-1.788611955302691,-14.343602321307475,-1.915153875586736,-6.997472530391943,-3.191421805399964,-0.9323000672256098,-16.984498622257117,-6.29266825021471,-11.575559581601862,1.782967050483688,6.259380612237208,-0.904318359726094,1.4974158633936043,5.606141289330704
4.08593812402762,-9.227937342727891,0.4983273600025697,2.318931632018112,-2.2626887225629764,5.456113606737315,-13.068231834481432,-3.9004104657111514,-12.30459269180638,4.689975584844695,10.79707523032215,3.3774481409053148,9.726698343330067,8.471210495483252
5.815328275253695,-1.2896391501212818,2.893765472065546,5.660023494293918,-1.8805515620967088,8.53810596801242,-2.8610403873220527,-0.7276132456353857,-9.40587986687504,5.138156682574136,10.72395952408662,4.303484558456957,13.135870847698248,11.551312379801104
3.400430098532889,3.642437942408882,2.395428577004345,3.030655969390138,-2.04347158619327,5.05617405535256,8.03089535210426,-0.1862493633352429,-6.470951064377346,3.68582539324618,5.636963655404544,2.140314938136367,7.430163079879088,11.529773548682565
0.4090369436258305,2.738833495010532,-1.0929214050350993,-0.2049201521022192,-4.34230109021786,0.6882054656071502,13.929202577334785,-3.598983949872032,-6.808639140807291,-1.3132179128505206,1.8461024737408995,-2.553554315723643,-0.0281309371845014,7.3108249669496175
-4.9830602659367,-1.5496621391398762,-4.858924904355575,-6.697349858346984,-9.234764043228004,-4.521737466708837,12.377504047221215,-9.033093438213823,-10.996736179021273,-11.233281719779512,-2.1841896541957664,-11.406334743023296,-9.023219886503082,1.0265276188642147
-5.391272924029422,-3.786609727812433,-5.892695011854187,-7.379976120519004,-10.163299209951749,-6.974655205056252,5.102550621236375,-12.912924504695724,-16.74005485477714,-14.596728977747576,-3.4852464677883237,-14.239148700919008,-12.690226015463164,-3.5227395540516326
-0.0942548114300387,-0.4464449085937119,-3.4941602100415565,-1.3251461576802726,-7.160519981151031,-3.6792487985711015,-3.643507603866908,-12.987252996151716,-20.759498071905423,-11.442426931661,-0.8743789054664347,-10.763839249004365,-7.384449595352653,-3.694620670839754
5.230997943858113,6.965711304837633,0.37926480060149,3.4812949637176103,-1.8605160728781347,-0.8506493686127274,-9.968597541571292,-10.00376268176123,-20.94614055040391,-7.055950442039559,-1.452973030157362,-6.2085422524809735,-3.430476355594514,0.1650357454767288
12.400753175752524,13.33557993009044,3.0860663385513547,9.169825349405368,7.369797238619173,1.7444384644200257,-12.453605032730252,-6.703439850635974,-17.259581061631167,1.1554423211880758,-4.514684824890532,1.83562171657418,0.240912892123781,5.196578304938996
14.572689978836904,14.486626791201587,3.525333849474088,10.374213109151649,11.187836525833909,3.262889872444227,-12.221694151329622,-5.249399455775766,-11.212440975480824,3.809338078223632,-4.781533657927601,4.603872992407055,2.04617844605686,8.225138090095555
10.517843519206403,10.633838085073862,2.597518573085253,5.557948320898836,9.103110749428287,1.2811683835131724,-11.226420813986834,-5.528385028770614,-4.80345466614051,-0.0669188330664285,-3.2466047919517016,1.1134353734450866,-1.119492376697781,7.8894023750661475
6.702308495161113,5.73127343040845,1.8324701977103215,3.3904098075689117,7.026082553068455,0.2584248714382277,-10.31521144530764,-5.73056067818883,0.2945321428510894,-1.7806699681813054,1.5209859338432312,-0.8194303284612106,-0.2379697232251241,5.208137393468903
1.2533969900757806,3.652275419681672,1.8461700386477984,2.47913805949156,2.7377092014661364,-0.2344515144636452,-8.71034321696903,-4.375160379567191,3.136196646029745,-3.506614230075888,10.61634039262249,-3.3004700474735094,2.763605050622432,2.453506638956896
-0.6057409332586686,4.970216493080031,2.142167101766645,2.8212188006633365,1.8327537404121188,-1.1490732462816275,-5.266702582795055,-1.7127443833342468,3.69837799063248,-3.4881035482914187,13.384209636624762,-2.8310335994385194,4.114974095947293,1.431573022632506
2.353195094313337,7.177186753014027,2.1522327250526985,5.985308765826559,5.258213897425649,-0.6021774667610843,-0.20786443789504,0.7254701409675022,2.8802712236014827,-0.3890309769468279,9.70842364755886,1.897117557590772,6.029404217009047,2.472884215666028
5.089589100293583,7.643120483729589,2.144163801868672,6.864350411126116,7.387395087965689,-0.1887768358221455,4.477071592801195,1.7578999959709023,2.090344693096867,1.3563334554953042,6.457418025969521,5.749677466844834,5.452047639488967,4.626703265031935
9.165322708529612,6.104892360099271,2.952938606586997,5.762451966014552,9.64980940013905,0.1753222835981165,6.527203919625968,1.6240065659221017,2.4223882115938693,2.4467066072299586,1.3309842412069677,9.829626553449158,4.331306204659637,6.556190095273252
9.813991370019249,4.354821337098372,4.879956609193755,4.563826283111456,10.047664076985477,1.0203598770241835,5.39198058493858,1.4715312337410325,3.9216833495500234,2.8654022605662752,-0.0720068415711855,10.2342374481961,3.6401802201508375,7.295623310818271
6.077196965378574,3.875993289151197,7.000814950811943,2.2742874527083896,7.654570626846781,0.9082559952945924,2.657175700754223,1.8979729942369656,5.576964428273016,1.8258084406523916,3.435729563346026,5.809660185382628,1.3020762420692291,6.479955893526352
1.9909022140507828,4.149797148303861,7.669031465768143,-0.7759189739961367,5.445433787817301,-0.0261096231071951,0.3848645026155282,2.1277800166724887,6.130902141457085,1.3757570696966763,4.145605973082016,0.7219496275342909,-0.7897281572494934,4.265232919737031
-3.8423232729444994,3.3448480626370127,5.795378782351634,-4.576863006081803,2.703021483558952,-1.4293291493439284,-0.9196588704401448,0.7564303846656344,5.04578548345475,1.30486041223501,3.407305355390705,-6.30305137566084,-5.437158112779492,1.2624720362901485
-5.5868674360001656,0.4258972718626097,1.780852143358814,-6.527625852582678,1.2008332605586274,-2.298881761074817,-2.4583408942283143,-2.593145329073991,2.7901834097779528,1.096984002591751,2.670681560889209,-8.068171742903857,-8.669693797321838,-1.546761609359265
-2.350111320186181,-3.667983869844548,-2.6365415217024832,-6.307848694479936,1.5049041907349403,-1.2440095186107385,-5.099532105210606,-6.340079701780127,0.2639116632272618,1.1177250606355584,0.7452804130974701,-3.442807761791188,-6.685056292968996,-3.1569279862780637
0.5034424144665689,-6.9257345559095285,-5.426107165529061,-4.370279506306784,1.9864629801929583,1.2550764130329353,-7.360561252377266,-7.807198083678145,-1.9794018544185408,-1.524347711984834,0.2982031269902172,1.2112946694655735,-5.627888931967406,-3.0969101429495964
4.504688755058502,-8.122070816634505,-5.411359435498838,0.1518177532632567,3.265577678857793,4.558601364188616,-5.946011995728128,-5.311747948367724,-3.91398276250834,-7.072916577662965,1.39413402795376,7.846021818095192,-1.8680781125049548,-1.7453383738959047
4.811145612413073,-7.671052145878406,-2.837564384814243,1.8772278330149343,2.068333987578886,5.848216236014082,1.112375085855831,0.2743472670497482,-5.5505796473352405,-9.21894086165585,1.6467450900110294,10.026424024184644,2.296564541274788,-0.0461107414619164
0.3325435424238921,-6.830677472818792,0.8304721800436354,0.6340165319306427,-2.0198278599277453,3.545679847621388,11.564454620387425,5.89585300935947,-6.484890105856948,-8.246911396187828,1.541288455691458,6.469407801786468,1.8316860563193895,1.1386935158582787
-3.042850990259321,-6.421085034946103,3.6718270232515735,-1.1025910266447845,-7.477773519533077,-0.153565004294017,19.41081065076125,8.403103356976871,-6.1563671615299,-4.035010660792022,1.386583746736171,3.774614362541545,3.10366166150718,1.4113705083414487
-6.619801613088299,-6.496021585321167,4.251721715996766,-4.646703882286161,-15.275948062437678,-4.490527480227269,18.96122291411882,6.702086987570723,-4.625216238560732,5.027007608463719,0.824222158679704,0.1728325830331377,3.814455812884173,0.6803517413433582
-8.116601457543105,-7.027959554598169,2.3228362774449067,-6.563388604073494,-17.67351194332742,-6.100078139703698,9.318472554760056,2.301875354751502,-2.9507331514152355,7.781450919734687,0.100247582830516,-1.6998483987064938,2.2886570977766896,-1.126477068370967
-6.439648185548195,-8.39293121962416,-1.0706136541330975,-6.561587682902051,-14.019199340307695,-3.653026936045897,-4.541885416514752,-2.0257367571375084,-2.545060770651247,4.019329839668165,-0.8554084191970245,-0.7874006949504794,2.198143531231228,-3.9113075764480394
-5.930122874952807,-10.797872046040112,-4.189434451245063,-7.109217218680148,-9.092663617964003,-1.5814654069495313,-15.164102023144842,-4.2554469731907005,-3.953429061261538,-0.432008796675735,-2.019888521958998,-1.12306014257181,1.6677237911515594,-6.904500838306369
-5.830615537836786,-13.311899567929036,-5.594444370574088,-7.39044537892372,-0.8859557883263083,-0.2149790813317849,-17.79583716198598,-4.194018437939675,-6.237440886868697,-8.150229324621177,-3.3782159274489163,-1.861026407727256,0.8012786648983439,-8.582976884366005
-6.35690405392686,-13.959238646362916,-4.945098774166411,-6.9929479856512025,3.196876753221537,0.0885999129882881,-13.239343564945862,-2.991671230762172,-7.667681386788256,-9.738869484840931,-3.8227233905956552,-2.2077781881435947,0.9099178300803764,-7.558130034821033
-8.267640439220484,-11.306566800916196,-3.107111948404068,-6.088430942660088,2.2270641249291083,-1.0241204009407496,-6.309341141676267,-1.7653966708008646,-7.172147940815179,-4.074535177475535,-3.227661607911193,-2.6829441916525805,0.5800087714695862,-3.924980463919269
-9.462530500125643,-6.159584907876464,-1.5370126673569755,-3.8455123968056464,2.5927257814037987,-0.0428419260215469,-1.547264030608254,-0.6309776224347132,-5.209345022615437,0.0291864847515613,-2.3469162644112567,-2.4927158374183334,-0.516707853385828,0.2174483849896642
-10.183807661898973,-1.4579804364615605,-1.38309347719105,-0.1232641642913838,2.4354795965839364,2.7117423598921437,0.0227351211004815,1.069204186903313,-3.253182857955439,4.825155751772429,-0.8747165725899603,-1.590070165864737,-2.0397714774606057,1.8941638598394217
-10.09956544504448,-0.0394722484575655,-2.8612637358414417,1.962402167501111,2.116765628376108,4.226193521423236,0.5324941713719529,3.67080948499951,-2.4030774413809683,5.444838872513487,-0.6415845930684483,-1.163240783027736,-3.0974181468344204,-0.5901666105236856
-8.75906498247834,-2.1488696337081308,-5.206123523033943,2.396637042592407,2.3645388580884745,3.8015524387970543,2.136860033731239,6.345011760961388,-2.4536275351654284,0.2493808976536798,-1.86740546826503,-1.1087683640048511,-2.962432158032122,-6.164843119422841
-6.927450469210123,-5.08231093961891,-7.12205450795474,2.1442392240024435,1.6600405057850067,1.722793962030927,4.403589932912784,7.43842903628876,-2.272272307482794,-3.69550060014572,-3.80067447827172,-0.5168880747157105,-2.281809676203597,-11.50360276941339
-4.344372943815774,-5.480195567901582,-7.448524016238871,0.4277835869378861,0.2781024803214914,-1.4422376251330469,4.804441179654013,5.8680355368274135,-1.039804711332451,-7.860352012680805,-6.989272805398045,0.433633570910897,-0.746568956664742,-13.281000048209798
-3.656560177454285,-2.2724379244094024,-5.755073542090955,-0.5650558403874724,-0.0298163201894388,-3.118093498225486,1.7112893072940878,2.3678584081641816,0.9091970757972092,-8.561672118930044,-9.2088553725778,0.3350410210227194,0.7800735343478697,-10.494800342744789
-5.182027255600799,2.382053850577236,-2.6545465011053224,-0.7823195795787583,0.6804266554269115,-2.2384079849197747,-3.252001527337363,-0.7042944877467789,2.461943626099256,-4.350803913068989,-10.342082470173994,-0.7993621620024326,1.001862028214384,-5.12496827928409
-7.464886302480984,4.960067576048161,0.3220056506828399,-0.5167922306587794,1.0811925199822652,-0.8199527693389856,-6.074993543889903,-1.1291940821242503,2.8808793999171414,-0.5237485634364076,-10.233459892177734,-3.130803049037614,0.8007817491017994,-0.751321283585952
-11.267709316565735,3.4821475486265,1.343567527339772,0.8094196583043104,1.508306965849809,0.4673168240588655,-3.852214800475615,1.2164944532313695,2.503942544453025,4.167029585102292,-8.200809774509667,-7.0717196744298985,0.4483028730093611,-0.3027963291057745
-13.534217627610742,-1.1003311423012576,-0.7894490699734718,0.5319997335996578,1.6437407995991162,1.255740436485235,2.339496176455299,3.9973477120219343,2.236273543560756,5.056059946638597,-8.501790869798482,-10.300318596324454,-0.0265468438862818,-4.56833662069387
-13.990653288224728,-6.017056450042588,-5.858199670749357,-1.3735072262754384,1.2710065337813692,0.7628337280996933,7.954908085603122,4.182844061643664,2.36239059373024,0.9544925638421924,-11.136531415669635,-12.85749136520244,0.3207053903960703,-12.215191512808405
-14.653131190804618,-8.986120582870143,-12.107633708599336,-5.205158631737145,-0.3435688952576347,-0.3769816721520461,8.567352485552803,0.5581906168138318,1.9881443046510867,-1.5556132191739442,-16.816147744299325,-15.341755927171366,1.3924675440779288,-20.809604524722037
-14.75011249757591,-9.608353816361316,-17.005900556060496,-11.728966465845414,-3.472807550477889,-1.101026739418684,3.456829576960629,-5.170325222611922,-0.1565843914239337,-3.7271727697570856,-26.777804714168077,-17.205202907161393,1.6880160075326258,-27.882274324043024
-14.866964293997755,-8.929077762804553,-18.5371835185678,-14.02988102242939,-5.072225575755219,-1.4633598562675751,-3.7914797149330894,-9.652425022284376,-4.24346670629842,-4.324419966346601,-30.750357190832755,-18.15615395545977,0.8493927124803324,-31.611164821529727
-15.177307253775114,-8.008715846450372,-16.295561548444695,-11.917808075743372,-5.199975619827762,-1.1493438292053924,-8.047693863849446,-10.462458267455403,-8.703959002124463,-2.1416043967390057,-28.581818316080017,-18.02200161652459,-0.1098280197173826,-31.32251722267958
-14.797920890692431,-6.983991423153,-11.71524490615063,-8.324138586754218,-3.100059787781579,0.2904438461864013,-6.4408881968894605,-7.820595015408244,-11.218388786953623,-3.5595013432978706,-22.870458596102843,-17.369413730537946,-2.2055405993372017,-27.90346583285512
-13.86575802875641,-5.293074818882275,-7.26107663946371,-1.5361250737544334,2.11431621043007,1.3838670047457358,-0.3071236722394417,-4.18335314756942,-10.5318771962273,-8.257925147076987,-10.970474001997053,-16.05118620185066,-3.9697014015565832,-23.63559722229249
-10.589040624472029,-2.536153966285042,-4.995388936641376,2.850527102830105,4.379537120862186,1.7083665704879685,5.980557244550937,-2.2381084715457007,-7.393581953559675,-7.993519442717869,-3.822544462496977,-12.24961847225732,-2.278208873641409,-20.940180152638703
-4.62148228836515,0.9887684148220046,-5.310846908353,4.422479063006084,3.786794417445353,1.5227940518524783,8.264208454804816,-2.9603917189839137,-3.697480346719658,-3.4710159984884217,-1.7662563390924322,-5.844800358863795,0.9456212066564108,-20.513559374283204
1.3846664808629257,4.5260347416339926,-6.597264949690384,7.010904124169327,2.0593088375127557,0.5054212653510035,5.577245565793078,-5.053137646841492,-0.6459042223213771,3.808119691345349,-0.0010929783182772,0.9713218157277048,3.5866205210187654,-20.37763181015597
7.850619901712385,7.551353327281845,-6.163596290030625,9.282283593091838,-2.235015522384737,0.2314699674705733,0.8162665264668476,-5.914655967766123,2.2657232863589343,15.616338642014297,-1.1763367311015256,8.558580861695702,6.460824116690652,-17.072239558209134
11.833301111238166,10.22013894165798,-2.00510925498304,9.902605769992189,-3.7370160183506953,0.5946321569818552,-1.3261040020712471,-3.3512109508829724,6.429314527901113,16.970843267474674,-0.0543588799143289,12.097705509409243,5.25817347800541,-8.443197056605328
12.5413556878856,13.127043764401606,5.6496360008299575,9.030541665886966,-2.223873644876783,0.4523667324533963,2.2415053930451734,2.9656948423679523,12.254701526330564,6.886386905183205,3.725038548081415,10.68802438644278,-0.7161305621328574,4.180912265501831
16.040951583522666,16.508037668757595,14.128573787424642,7.840173373638569,-0.6788109854861631,0.7828773984754895,10.629743324004153,11.035263260164696,18.09977609887619,-1.385802214177816,8.12287155782451,11.901171255628476,-2.0245955564235474,16.41254715764913
21.698302870254157,19.53963867538636,19.77181695192408,6.106999865209976,2.156815790998324,0.3243294859746131,19.2966194214477,17.35208446073011,21.15612471029371,-11.168343510223568,14.483218041453435,14.666435144982833,-3.227781847916101,23.702329042260857
24.262905304718046,20.46915254586773,20.1814230899121,5.3186556076596725,2.490113299345573,-0.8117569944955727,22.898191579838112,18.739408916048745,19.652252708125843,-12.05229630201336,17.129209755740273,15.924971004725668,-4.297684695007211,24.458866948345445
24.49943362443304,17.757782708497956,15.734881770425687,5.83713002366993,-0.1787271419611844,-1.2327315075143683,18.721202333430085,14.285399044028765,14.502050454533247,-1.1864843218079633,15.68724423241506,16.835460566944054,-0.7161556738770418,20.96623407465242
21.22095074998648,11.513404024006064,9.328562782047952,4.709328652888518,-2.56045996267806,-2.522990044549119,8.42708637830384,6.191171846628805,8.943125884004672,5.333588828539026,14.163009423307075,14.359933227827856,-2.063045714921368,17.546492383637798
13.238245864343993,3.994090039671022,4.615003718639997,2.2450442485481394,-5.6084774605787695,-4.283481118310942,-2.9019796197453047,-1.1883526596809304,6.3700153697741655,10.246626630776923,11.22386853714306,7.938541536974554,-2.0871555520728187,17.57913862504742
10.806041262575595,-1.497755903745201,3.9950507289428,3.1211716105776626,-5.454173576960818,-4.56747554005853,-9.64877630058237,-3.7298499496300224,8.024688328914237,13.252942742444317,12.882246912765355,6.8484783685783,1.116671292073953,21.62052877453624
14.003584410611344,-2.69385382238022,7.563338475838975,7.183408765585688,-1.3426814507019296,-3.0909248676100542,-8.695673680690817,0.0250962285203684,12.28043640202685,11.49623899322321,20.104318540563018,10.925792961916596,1.0406096033740466,27.6744539511393
16.868396915755014,0.1815964458421035,13.342309186612423,12.23126903509768,2.1034528525275173,0.228533381625095,-1.0052416572605694,7.90951935119844,15.957869977444204,11.244268554846702,23.772982882637383,14.6158913631176,3.2459942063365403,32.92111059464148
21.656109633944617,4.763899843639933,18.37125936138065,19.27747017308538,5.881147951042629,5.604554568399794,8.935455903362225,15.307583857514883,16.557363302368458,11.554987586801127,25.12744357878388,19.832208233981408,2.95359919148238,35.37509332719944
21.5136994526383,8.376131234181855,20.046082600605928,19.8552030693954,7.00499392240591,8.605706435535941,15.462977104938602,17.81609026634584,13.716862680564816,8.095465765071095,22.607866649049765,19.26317108962223,-0.486706333947084,34.45142092764634
15.352001569264152,9.748150586583565,17.276706481641924,13.045700308661704,4.4732850904369466,6.482558731913809,14.73282221354205,13.793478708564464,8.977783889589233,1.510619923990386,14.24540562101321,11.680570661235237,-1.0046420657376935,30.555011816690424
10.062758169429271,9.2682778993276,11.074669320346416,6.586922673296475,3.555235399381357,2.4626783270527817,6.827073893578643,5.226388184721799,4.332118473370755,-2.763505245996145,9.334321864478252,4.597873436137967,-1.9260221431707465,24.508739676408084
3.914032685579704,7.894032295828964,4.165244643866771,-1.5790016649521368,3.4296550723124954,-3.2536229889260078,-4.269802300127395,-3.6153614817712594,0.8683466108516882,-5.059293464044665,7.32749225145725,-3.876635909738544,-1.3004646571022198,17.413440420457135
2.121875488255321,6.089750225772491,-0.4298377059827487,-4.2801050997169545,3.1198451078577523,-6.596012023353802,-12.979468884765907,-8.820719639224578,-1.4947302881973172,-4.60625759169158,6.216466757504939,-6.744856719803263,0.8543347780623737,10.776145635760898
6.120056450624242,3.9013990572752135,-1.136483064844029,0.1782179295270506,3.490097359357021,-3.933893420970356,-15.451695533636126,-9.007039904247407,-3.28119959475778,0.0410970019322019,8.001131711287696,-2.312573143741884,1.3788866921876397,6.293574190977992
8.428810776664529,1.832089937737038,1.2842427008091306,3.1512518820782693,2.7743070171439217,-0.6527364260763002,-11.838843468880356,-5.662197894095058,-4.653741621442045,1.3549901282061505,7.47284199060336,1.9902809212063528,0.8776035035217327,5.026418049678121
10.480622351854723,1.1407415621920478,4.418494909621856,6.63443596033829,0.9716515995119764,2.2270990829609887,-6.0070570027469685,-1.7038615725101494,-5.321574394721431,-0.4139971947691447,4.647054314994916,8.24279429288284,-0.5208821887581572,6.500552387681822
9.818728485311643,2.777196542780972,5.963964592622872,7.0229634425298935,-0.0985574693705428,3.414285514258143,-2.8197201185360257,0.4591800772054242,-5.101971832526294,-0.6930662682013711,3.94649796585553,9.907099938651312,-1.160417769978962,8.649770686005022
4.97336222506432,5.867666362111814,5.213492983896222,2.73492498592247,-0.7055755533184821,0.4563814860841643,-4.788335938775781,0.0054827202597429,-4.396396406520372,-0.9154393076399076,4.464970196201879,5.488106727793232,-0.8051424265038237,8.958239970687945
3.0167689655046432,7.606469962376149,3.180344196236732,-0.8413089442686643,-2.828624298418289,-2.508361578128419,-10.392120595825864,-2.4434066278526814,-3.983371364705153,-0.6961383576577668,4.314064369861394,1.1737565541258042,-0.5352167037434964,6.101806333939562
3.214842913769767,5.310042617577402,1.452913253568049,-4.9735270408620815,-6.314285781654635,-3.983505938776888,-15.288057440691516,-5.568757402605279,-4.310782944414207,0.4823224538042805,4.024894542303018,-4.9914890002595484,-0.1178896269192677,0.8319627290207308
2.665846021473269,-0.9135023368618108,0.8401902890323214,-7.411932278686748,-7.236141727404258,-3.510845965143786,-15.61189125120707,-7.9871995239857085,-5.05856882902674,0.356718211580726,2.3104944084036223,-7.203169719875591,-0.3989282773581455,-4.609179141340462
2.570233845560752,-7.55190140398355,0.8675498335910845,-7.208072829698362,-5.670564202544407,-0.653710325091971,-10.957696648052163,-8.638754752771376,-5.495473587570743,-0.9686203351486008,-1.230521610180353,-4.310731676521208,-1.225123147089414,-8.06779383657701
-0.1720109955215893,-10.236780303632514,0.3827720303110027,-7.406676205448307,-2.385618103723967,1.523980560006278,-4.687641599192375,-7.14841136337256,-5.292902374624703,0.361910056029694,-2.02723035134328,-0.9443306787315048,-0.6724897428673742,-8.80960522940532
-6.043708155095481,-7.491139876836542,-1.305269813351174,-7.206928021847356,3.6054230054642784,2.0507150458362293,-1.156983872433358,-4.09907692159527,-4.888596297787814,4.193112577968121,-0.1749290889506354,4.6152060438324005,-0.2446914157740045,-7.665572014039242
-8.835477012956718,-2.198558347253112,-3.6373628238389983,-6.736261335646349,5.81278624615941,0.8938817833124318,-1.966351644080305,-0.8084460984638326,-4.9058078430624334,6.042093558883318,0.3552664970753656,6.288475528281451,-0.2896856663371883,-6.087994793035989
-8.998608440147287,0.8275581269635097,-4.969024139424249,-6.362196214360553,3.912096118250353,-0.4460538081588934,-4.411361739194064,1.4988215335543202,-5.198304134845017,6.446111936706642,0.3650087458151287,3.183293476598932,0.6062609689511913,-5.042920118375207
-7.384042184686882,-0.8988508670551596,-3.6881172120733368,-4.14799065024323,3.726436642245391,1.5291031275491842,-3.7192289446280142,2.498600169810232,-4.68139556780568,5.667683546128229,0.3635019072869127,1.0857128223037007,1.5510287536775045,-4.636321081648475
-2.615769348751491,-5.425863190285952,0.3686818710902457,-0.1028391605734928,3.8936647247488834,6.046841351147555,2.555842527095365,2.7196791066402284,-2.432661122981699,2.7745998208098164,-0.2588486997998743,-1.545163292494535,4.352090544426574,-4.614408372319929
-2.105212739835603,-8.410279865819348,5.221751261540192,1.1501378147878858,4.253475092736325,8.94929468004112,11.747820409134988,2.612032432160788,0.8807134847429552,1.016972364697767,-0.7024238027219448,-3.8913789480603658,6.494637893555358,-5.091981165390678
-6.090106239235213,-7.31692780802922,7.531929660201854,-0.3433621537062685,5.632316918163039,7.113129639385507,17.608781356123075,1.7377865288093517,2.8761141661658485,0.2960821703296412,-1.0527615852403742,-5.164255459201563,4.212961598372797,-6.705450224149331
-11.170647693022856,-3.689288150828361,4.6633966523894514,-3.583795975301944,3.0587388483346256,0.3393451934074976,15.19154353987875,-0.882260372974315,1.2344654024025203,-2.204053305186485,-5.252704176836772,-9.393325337470452,0.3080593585798538,-9.968112534053205
-19.14983039355776,-1.374192033939153,-3.263815456207112,-9.740513067455414,-3.615288861537515,-8.87380732299796,5.009362407045728,-5.44415735704365,-3.974843247276112,-5.960050204440655,-13.560439368559464,-16.384797079064185,-6.278554119326563,-14.417689619391126
-21.503937127295387,-2.592502757365424,-12.93655830534783,-11.817627858302725,-6.584639283029917,-13.320431600246392,-7.197529666060177,-10.447888768228836,-9.702453748835524,-7.73588177213063,-17.36040718675223,-19.037054360517345,-9.934810984974211,-18.450132063826004
-17.440406371379297,-5.777624757478407,-19.66573609208342,-9.479252721421618,-6.487991195064786,-9.583824308899,-14.96399162971136,-13.391491536993158,-12.021963478819885,-7.695043078177464,-17.0238785421888,-17.603544867418307,-5.608284536807075,-20.19429142009801
-13.334663093493033,-7.217992396414957,-20.39673234580732,-6.841468514276918,-3.8848702809353175,-3.0812334156852605,-15.934592544488623,-12.700393120792,-9.348477032197708,-6.628601176825053,-13.007260025137834,-15.086545421406006,-0.6789816251135041,-18.82111940249206
-7.08094364175403,-4.7686362509291484,-15.759744074940954,-2.226178931108308,2.9872374485937496,2.958152137242135,-12.839388727205687,-9.13830670369623,-3.89792855204837,-3.778685298558921,-3.1624619220964933,-9.937044590828124,5.072783927608857,-15.186641898494145
-5.185099759119838,-0.0101182936945178,-9.545771174698302,-1.084701470268338,5.5506179912722855,4.925236849248247,-10.030352902615276,-5.2541472120436765,0.0814378372881492,-3.396243564988089,0.1814071040818646,-7.124389253881216,7.338697112573724,-11.210363047467126
-8.869151814709761,3.100021359369066,-5.914731509295962,-4.161153592855934,3.741116373274192,1.66966586763392,-9.086978646279247,-3.232937038491741,-0.1644097389071248,-5.716195038483876,-3.164788024512287,-7.1311334943852405,2.3741195009273546,-8.483688803634891
-10.099887578501455,1.6796823846951838,-6.449373449563609,-6.37690144048967,2.412162342058961,-0.9994168059046714,-7.6773274764152575,-3.085899753233889,-3.7423314577248448,-8.00007319484625,-6.125344236120359,-4.526991681934857,-0.159204415005742,-7.274213023807761
-10.476952919385935,-3.694751755898892,-9.328126688321504,-9.086773839288384,-0.3002555729989234,-0.1899331534550989,-2.5317855330108614,-2.852867714996023,-7.192566229973068,-11.258515360516014,-11.442224294632467,-0.3520500660092852,-1.087675207453647,-6.702055226051812
-9.624841931093972,-9.598524311618236,-11.16261600550979,-9.231154181838864,-0.4408801201283974,2.336184582726885,6.624331848429051,-0.5966549910347112,-7.657054551750662,-10.632452862390032,-11.732071440521068,1.9426181754370364,-1.0796341703365715,-5.79194663336898
-6.218239699148546,-12.515995157514226,-9.853376310732529,-5.8762921005067295,2.693880602662439,4.527079476035795,16.117817453714224,3.730395021585309,-5.154973527990933,-5.44015602854333,-5.821037184928402,2.9108695631314454,1.2002567393561967,-4.361051919735701
-5.163647276587313,-11.262894833441806,-6.054243391315367,-2.945255541572912,3.578157473922525,4.951837688850379,21.21248017192329,8.298996298079032,-2.0321742278594,0.9381144754985128,-2.5340089811248414,2.334633888185845,-1.106857364962043,-2.963849001437211
-6.1783933567901705,-7.308595766157339,-2.187279577016284,0.4873174683610726,3.0690824181308414,2.441297888409256,19.94941093193228,11.163533569104745,-0.4373040169396631,9.860859681336017,-0.1632217421797476,-0.5093351213684593,-5.527689082479767,-2.073503740083879
-5.889286037569308,-3.2552447726903893,-0.1685516148416468,1.6223112422852544,1.3594039988232731,-0.7695453308315424,14.350015303375583,11.91352227113572,-0.4285086529602608,12.369570764701797,0.2885114748827078,-1.3983631966310308,-7.00387770820686,-1.411741741995172
-5.104365019150397,-1.061247658013599,-0.0221448404658985,-0.3590185107694519,-2.5611292956737857,-2.078225135655012,8.189147024688282,11.542277258816055,-0.429236973481693,7.39933370017267,-2.731497150242044,-0.3460379821467046,-5.625963886743824,-0.1655373080161553
-3.85144417053859,-1.274202819277889,-0.4745714606601723,-2.9363957557224816,-4.594413896163832,-2.319984303266545,3.8173324672079616,10.796766466726694,0.7095819046062388,2.884396656063776,-3.196930152649436,0.0987885894887681,0.2220255922608864,2.0803532978086423
-1.6342606776915811,-3.291592656888497,-0.593139459416534,-7.0606058398919656,-4.801266159616572,-2.7119666341907043,1.026212706755473,8.964100655587117,2.29920192520126,-3.41839174638979,-1.5760065929747475,0.8181948443864179,7.184819793035102,4.6554335075029485
-0.4100741036448607,-5.90437012573841,-0.6166908683965175,-8.072509324170923,-4.596980985095003,-2.370918521813255,-1.474500152423957,4.6554017874872216,2.485794107134893,-5.148967782416512,-0.8392174866388386,1.3043625884519474,9.057595028841,6.211217288387616
-0.1422912792160225,-7.671880521211847,-1.1885528181265954,-5.364929812780075,-3.057911108083452,-1.331907934934487,-4.008227159439912,-2.051729914643829,0.2536151544853737,-0.7535853342228116,0.0610164429666529,1.291921592878896,5.91957990980868,6.050956729336349
1.9238203960051368,-7.333571165890476,-2.0338720286833905,-1.6570183193653247,-2.594190485030134,-0.778249160610196,-5.537640057874341,-8.48661262018345,-3.303663683762693,0.5615396427466721,0.5454151345976713,2.0201092872143582,1.1851696242536018,5.147379077317282
5.566035943733174,-4.5037763790753615,-1.753543904895878,4.381880969753714,-3.327232287948472,1.6813625847521048,-5.07803395759413,-10.937414730370731,-5.73139011814726,0.4172604221468441,0.2963612097523568,3.3631459530160006,-2.4320358564055438,5.620019031516904
7.463092293408597,-0.2477018804479485,0.8268359972963708,6.935226102221346,-3.618498476658461,3.4431278102458904,-3.140796006106484,-7.866757288154417,-5.291338648103306,0.7310343900763423,0.2699448241490337,3.618609171605941,-2.611808928494613,8.769403568472967
7.921419029955324,3.253451947370081,5.085055129719535,5.427796776910095,-4.002699987149266,2.0111133388462497,-1.5766351962499812,-1.7828290738893884,-2.446660698026108,0.1116157314403006,0.2689943983709629,2.8752205628002843,-0.0109346921921004,13.332850181062897
5.750574167920133,4.110546615003045,8.55886556605185,3.874116277694787,-4.254109274768204,1.1005286242805548,-1.9852697264373087,2.349575155874277,0.5581388900652655,0.9157260267460312,-2.7430071752071123,0.8954420623405297,0.6792378700918231,15.835974586391105
0.0601720185962993,2.2046176034162954,8.774458128517608,0.7876391712788917,-4.200044465743459,-1.358685856127117,-4.290515742351317,1.1163587676423958,1.5827084420026267,3.2053304167846925,-8.937268606628367,-2.7782917979858333,-1.95307581857261,13.230574332207652
-1.342722073911017,-0.6379896860005374,5.432887341683795,-0.2610675663893136,-4.061071538229023,-3.3801471182063816,-6.793994939759955,-4.386829127987426,0.2706790534181209,3.3287818473244983,-10.797156829315773,-3.633856200401591,-4.155022694236671,5.777970128404263
1.517564941449523,-2.076620653955274,0.9572222327881832,1.3482527227047294,-3.722634542288671,-1.766075124454082,-7.540078492511725,-9.364391645066291,-1.827852482083415,1.5431694541808114,-8.508147487602436,-1.5303802584774373,-4.073067740742488,-2.466488547794484
5.31853104577903,-1.061848568447033,-1.2304041990702783,2.1213841406602123,-2.204249707048824,-0.8313125626925343,-5.726592028786683,-9.291341821234653,-2.627122331433725,2.1028190403268634,-2.575564016388276,1.903787431301493,-1.781996460968208,-6.349216459905847
11.855073812760567,1.589303701089591,0.6363275883432493,2.986418139374825,0.606363350518704,0.94511358820179,-2.0827961735890312,-3.615548075782897,-1.1250090046252126,4.569964750052892,8.94510669782857,7.827047135055871,3.270989632995254,-3.479449295569907
13.05820874961258,4.207680462348719,5.244178488214516,3.596806138767232,2.218729054012216,2.609055637866652,1.8411534014936703,3.945985071363168,1.979100141150468,5.974279174851199,14.134021597718007,10.516897668637286,5.8934673556281325,3.907327050937738
8.187209456614477,5.692220162553554,9.169703212231582,3.493780163728778,2.7210623855886538,1.0562823762180429,4.738811071101623,8.59918096227807,4.949125716059996,6.966515953655058,12.722879382466202,9.59433226678131,3.127762365915084,10.622678633705275
4.1602472987802255,5.963351340345156,9.467299573572973,3.5078014069371903,2.3205812240728747,0.3571613118160097,6.21485939439134,8.269268211856456,6.257016256351875,3.878371174651414,11.140066920675926,8.572909695884082,0.346760819429372,12.33545942924286
-0.9157252155581056,5.355875450011752,5.84099623086891,3.408103796780082,0.3949268761421878,-0.7605002188690897,6.769454892645399,4.838119259391561,5.466118309311895,-4.150606321622881,6.637371939247787,6.044903354983704,-2.8493917644405427,8.484617921862338
-2.047919982161728,4.045736057281488,0.760108860704122,3.52046583098501,-0.6812305344910062,-2.145360675415287,7.2333987310325085,2.0827842636250296,3.2937740240510607,-7.362665700274744,4.892918162589041,5.039537112715752,-4.294609399004477,2.223201677371577
2.1060130902226626,2.3174215208670432,-2.4628004936681123,3.958843391759879,-0.9561830690096652,-0.9193935454436548,7.989398792902165,2.373543871133478,1.023117177692626,-6.24405902592629,6.716101354660963,6.034686702879136,-1.0103248061492465,-2.1893933006551265
4.050427145438194,1.1427333737657932,-2.0519179652561093,5.000371645993544,-1.1761651022509874,-0.1005747807149616,8.435591539617477,4.965824806198427,-0.2618770745688294,-2.6539318319462786,6.190545894357284,6.001493611825718,1.2736244895037945,-2.333877960249822
5.093942839678238,1.895021237730376,1.209355497043049,6.819411634157257,-0.8075046980262565,1.2369909977242717,7.177494010844271,7.066076151981562,-0.2048979205541314,5.638791329592283,4.6365280796375785,5.68639616018223,3.1664079107050123,1.1394160894887335
5.5916559909782615,5.01041182707511,4.925004068631786,7.934918084838993,-0.3786137877600193,2.67168422178523,3.1041085782924966,6.442656204588289,0.7420581191843993,7.719189254689133,2.9335537223847576,4.573457819942661,4.131337479186878,5.474147039646567
4.283921161453571,8.940447361983601,7.02437524776883,8.376932303734673,0.1487722310717613,1.9313741255983472,-3.2438380064832337,3.2499295805576693,1.6860736827802931,3.1919331026190507,0.3014447372815967,2.206965266036212,1.87152179288461,7.898168338469826
5.11134026096971,10.888174343450352,7.047437378159808,9.1733491768935,0.583599616697821,0.5495715190402746,-9.211774980084137,-0.3361078767329202,1.8891138394914284,-1.1659151033423534,-1.336896232284956,1.3794204973132702,0.3868635108261286,7.287241962569945
7.92099262619786,9.097318347640016,5.882790336222497,10.039343726839094,0.804231492517516,-1.933004157194696,-11.321744554272318,-2.121886757426409,1.2007355455492004,-7.843826904522317,-1.92086195944772,2.007846123302585,-1.2610337547471695,4.429876255696588
6.427958517491664,4.601155423744821,4.4815369003149215,9.32897865156589,1.211622049285363,-3.546608266994242,-7.7681213935682685,-1.7140263381641958,0.0035695182630277,-10.666989595701354,-2.6014085496818686,1.080198294749286,-2.784765840621031,0.9657720010505884
0.9464289133183617,0.502494737874045,2.8910678393222966,7.000338529087193,1.7257931947552332,-2.4016559311143197,-0.2323100960061594,-0.6648136785650962,-1.2735305443862472,-8.535271912405946,-2.958500671028977,-0.9978904561805688,-2.540188297750208,-2.0698269039275203
-5.840553695962886,-0.8147029962208308,0.4895835221261961,2.646782984634497,2.137100909774431,-0.5623911810226461,6.733193144496482,-0.9676891923785432,-2.6035628635568173,-8.518190779283103,-4.120438784157188,-6.625465244090418,-3.4855523635295804,-4.936996177683866
-15.249060364775136,0.0696767222189578,-2.9414067154804115,-4.272624738134453,2.485318824025092,2.2523477951348854,8.654101257809629,-3.277784307485888,-4.291717043397426,-9.097008104004251,-6.284126762584472,-16.667522164388878,-4.538766666752721,-8.548401804865534
-17.85009603524353,0.2129828008464187,-6.5084095992000925,-7.507277036308815,2.2354218922185134,3.764681609872959,4.2577596519345775,-6.351178652484975,-6.409519607406509,-9.115540780247793,-7.01417259333627,-20.190644616870507,-3.684683496698522,-13.03043736448491
-12.656041024962176,-2.6803230970274114,-8.696198597196044,-6.838390130498726,1.292489897884992,1.8739898296634503,-3.711438840576548,-8.090611278361905,-8.314505566978113,-9.52265255366624,-6.469630791488185,-17.2176134354416,-1.6738994849753412,-16.842391210602173
-8.397126939260879,-7.751071500042315,-8.670356364861505,-5.361126180134284,1.416926364169368,0.0598591236769238,-10.603040012534734,-7.254616609967059,-8.854604764513127,-8.465865250412701,-4.610384372130406,-11.098197981750664,1.1356550929840334,-17.514269880571547
-2.822183726566647,-11.501822903420504,-7.111087173088549,-1.5394112823998531,2.58742521060377,-1.896748971668594,-13.105989937582024,-4.425383077925318,-7.232364571831226,-5.901225149490274,-0.848374815801084,0.8394199726186863,4.569169951305319,-13.673766270477929
0.1548123624309363,-10.892592165789608,-5.654975054918225,-0.3841720780378012,3.436801345339557,-2.994702694757264,-11.075494743078934,-1.5350558244647914,-3.815243544310931,-4.072993304782324,0.9355059984135712,5.118521983773706,5.615671231691761,-6.673467581186458
-0.9905483668826404,-6.018427040166188,-5.369356714141077,-2.393974729951844,4.30201813546668,-1.2304050779220654,-6.863921589961279,-0.4369422945215433,-0.1134896186532898,-2.710698131972582,0.6811270048476953,0.9343085401358152,3.8186745799111135,-0.1781874161822543
1.2451026270878436,0.1364122976735302,-5.724260900963628,-3.0070764953251894,3.44027647863993,0.1058827709119092,-3.230877647434568,-1.667925647621615,2.1777068764805563,-0.2840379264058761,0.7611977702263557,-2.7251878176801285,2.942672879797793,2.260746295681571
5.769439291330127,4.386763411531575,-5.154037427530341,-3.374364290839148,0.4795714022201044,1.1763462824244195,-1.7075253066237224,-4.22589055560573,2.359082204021661,2.8907406624538643,0.3231969418141261,-9.054307844087043,1.7921238080149444,-0.2575901399536633
7.140233155631381,5.674940795931661,-2.7577825981780397,-2.6669867076367018,-0.4524191366944481,1.8292483923666991,-2.2957273005823424,-6.3224853186220855,1.1943441500778815,4.716265602981912,0.2266136824909917,-10.525643102434987,0.3191115135526037,-5.487739696879231
6.210656471434896,4.965259695416989,0.5363502009454066,-0.1983088300904456,0.3832410568983082,0.6701439102461906,-3.981060182539153,-6.458705485135113,0.2882573627453269,5.238337025981911,0.7370330803966028,-5.699985703238641,-0.3373201390127132,-9.97452197278156
3.583239333741741,3.42726049232968,2.610402853492332,-0.0275027578005895,2.45062665797393,-0.0605019851998518,-5.231430308827498,-4.192662887038551,0.8588696314281776,6.047843471010976,0.1579559590771886,-2.362547955755017,-2.0939231765019684,-11.647527109193334
-1.7714801845541288,1.312168547511817,2.1146026903955715,-2.001027515467861,6.687354006530543,-0.8812778257475015,-4.409193327268895,-0.3447251498941455,2.847743735401337,6.731304745256952,-1.33169592452038,1.4724247305892963,-3.783867853841503,-10.829506765371718
-2.7669298384056327,-1.2994399727456312,-0.1292478397958518,-2.3077353807079537,7.725708224391499,-1.7448598069253365,-0.5360608686594901,3.363441403212676,5.030625420890431,7.180411270346795,-0.9064946213852448,3.747849597386642,-2.938090661714298,-9.075936771956153
0.9475832565922642,-3.226641454746016,-1.708717560044306,-1.5757379711370572,5.385473768336015,-1.301082075703496,5.704384840839055,5.1759494321392765,6.015672216618128,7.59691879779537,1.3623798388394794,3.265148076698803,-0.6751205506240298,-7.3354864114289455
3.920437316874104,-2.488462603786729,-0.7028709555253556,2.3380605393483016,2.8899482003331864,-0.6507540303894184,11.72724267934288,4.428160058883606,5.348102377420844,5.2487820786672055,4.010689113656742,4.199569828295395,0.3055658359807465,-5.312546146932618
7.732597164468093,1.694636042689467,2.693465072290394,10.37300655668935,-0.9956499003183727,0.9834300129633692,14.39729527329314,2.2806447160480445,3.869962067366061,-0.0795708719498528,7.648548836274095,5.811139490312371,0.3954608184505291,-2.3768066163191577
8.607076847735396,7.40719770911997,6.499532831637026,12.55743376520738,-3.075003037019976,2.7758259872004643,12.344313945752674,1.2712799157942811,3.0652882052030748,-2.0750388433936515,8.095377301123754,6.57509502287454,-1.0201895546065738,1.3092048728918255
5.542450423676503,11.093362398480252,8.78945715863378,8.973433722543433,-2.8267421329443017,2.576348691621672,7.332925230385939,3.558711668244825,3.901886489236972,-0.9684539032594012,4.854492201300018,7.029463877469145,-2.8274352154768145,4.779324012246235
3.833745600554185,10.51463304010673,9.176462325545543,4.044466040459928,-3.6242092670330086,0.9117221082335064,3.2292179503681098,8.946589216872951,6.06531752733892,1.9311100715576568,2.8935806657524816,6.302679456181585,-0.4153738805144111,7.211401428446635
2.46723192801007,6.734294031344973,8.580289122579245,-4.48352660332637,-4.676754037685955,-2.227212788672126,3.141942175165269,14.414217675923425,8.165920671217947,8.119651942154439,1.2951277430821528,4.1497912294474,3.849102046969047,8.527086488404905
0.9850909447447586,3.054670185105607,7.75709349454138,-7.039478953450142,-4.3309718794116,-4.404175978692874,7.029694225101096,15.98120620340474,8.744918567286334,9.815859828139212,0.7010568591096812,2.062266100589117,6.375603103815752,8.891236551106374
0.2024710599507918,1.903634980536808,6.298795337793536,-2.678192158358676,-2.888775055162349,-2.9606284542398384,11.752788235781594,11.758672329487451,7.31141178070456,6.693887488846071,2.0259115157387164,-0.1660107087055001,5.853057295168902,7.872901804087874
-3.0488821664995,2.7389235962393457,3.193650927833758,-1.0614991440369714,-0.5062493779979764,0.5639098793862389,13.467786891288752,3.727463327125136,4.654468616262605,4.324293906530486,0.025669087442088,-2.5125096690977173,0.4554900266869046,4.599060110891415
-8.805333420303759,2.9401143951601227,-1.6919411195293037,-0.0615782856183715,3.128887743142812,4.989614840176878,10.360315942040645,-3.4383012934357,2.2433068110502745,0.9789502083573556,-5.179846270019315,-4.685025966842731,-6.056259371442955,-0.9452389319309872
-11.516838313107684,0.6190331725535856,-6.864892748564358,-0.8823184060633913,3.856216805845251,6.913735451011863,3.6493374696708543,-5.756407298732071,1.1887327964415846,-0.3348071014812601,-7.581908024909208,-5.325351035325228,-8.115339473856025,-6.912250321673199
-11.484806910559772,-3.50352785390578,-10.106824780892325,-5.10301041956652,1.3678978955873131,4.170728430187496,-3.589418274426734,-2.821516031322517,1.5201639323907443,1.2558270827124869,-7.923803274642823,-4.130184870146863,-4.504586945040513,-10.363142847602605
-9.821269961167872,-6.859114034667769,-10.25880537622706,-5.914795125469792,-0.8732726197235675,0.2299297562338389,-8.538807238447816,2.1661155563425325,2.2750628460616724,-1.2288580275344556,-6.097934158925739,-3.669920272497976,1.8972872444228588,-9.502685129837872
-5.256173161901236,-7.457025352190442,-8.213919419768672,-3.757642474824599,-3.8400473937523527,-3.597752252868144,-10.066047483740055,5.150067324466917,2.302777582734592,-7.244733057074445,-0.8247721967396865,-3.641410867669876,7.516688171349932,-5.31630367675676
-3.247122955756034,-5.562948962196415,-6.183141398480153,-3.17622908181928,-5.666161861195134,-5.381090561035337,-8.770805955169948,4.323835898815823,1.1607192227300018,-9.280024570515872,0.3675683357056579,-4.081116331896059,8.052430847988367,-0.86839090954021
-3.957576367529857,-3.222025165674559,-5.906976377384119,-3.050434079353923,-5.756342553730084,-3.876820913811,-6.146852131304996,1.0233965525651882,-0.5901684643956102,-8.17050270787926,-2.5700200089486898,-5.5275436667618045,2.5309557509602074,1.2379610445432476
-4.615155792968584,-2.34747798242212,-7.375601780751559,-4.40072980441359,-6.545802731392743,-2.5473239260959333,-3.7513753979380695,-2.0615169285375643,-1.9152875629505812,-2.667224344470582,-4.504383392875813,-5.277707509203001,-4.172270014766214,0.8706547130869566
-6.501442147836009,-3.206670694028663,-9.033843506870294,-7.989403577332096,-7.466518535335958,-2.0219725679547804,-2.794117747371139,-3.455955792395315,-2.196765148809078,9.015549852396711,-6.989716308196135,-3.3568046210592257,-10.156622045982386,-0.0045476149691268
-5.253576211800837,-4.442704849239245,-9.084731189185511,-7.731100084365078,-5.909093671567088,-0.8296292462753652,-3.895590688143578,-3.861834567851325,-1.6937530860399868,13.280037111347612,-4.831463136197646,-0.4715080983584144,-11.162727646332264,0.4873879434849577
-0.3826246501464811,-4.2921128684897845,-6.698873690778969,-3.669159340172007,-1.937244395752206,0.5917769288644307,-6.679421538142204,-4.840781185197884,-1.1613251696748712,10.057240567072364,3.057450340336955,4.02512501658247,-5.632328426324023,2.4747299468445068
5.681841143190262,-1.8564704318721563,-2.300113623446311,0.9357921101812452,1.5925239987928517,1.7556965570125125,-9.428624996538128,-6.741586873164818,-1.009357341671662,7.277378318308989,8.274114842946211,7.998591451298055,0.931402179577714,4.818626438603816
14.134452939343106,2.395920856844789,2.949354485327259,7.3967245091769955,5.108526868307408,3.7579639257908495,-9.534203391889326,-8.014579236387378,-0.8453412205639559,1.9821329488035029,11.960403472757344,11.398609278053298,8.273999585944981,6.894996248435459
16.558882012819947,6.944485181049737,7.798303993918656,8.871210188607613,5.447610264165253,3.531711985263535,-5.097824336479055,-6.619526666657005,0.1088629836206758,-0.2089137306334422,10.922435789532315,11.7114628792746,10.747122893991564,9.408403768827746
12.11058522005474,9.94898123631015,11.249423923618965,4.486411051693951,1.7236151950639709,0.544868002804467,3.138125859454135,-2.1972497754720663,2.0903073724732035,1.818563622363652,3.173719895370065,8.080263051316113,5.685554736778017,13.146391176582396
7.374428997623949,10.036134191388133,12.670283939581696,0.3501980672835844,1.5899751975232062,-0.1782764269847249,11.2594489252577,3.0533010731350885,4.248462128530523,-0.0612548030508374,0.0263238910957289,5.859690659169212,1.59191127563342,17.100671103482
0.2387240482924729,6.915692553036443,11.91514988652562,-5.267060070335042,4.460756991594923,-1.7768653854508318,14.177975351702106,5.689963583594992,5.057406271469318,-4.607702335217168,0.6675447577196892,4.404196754697564,-2.0438247037993027,18.39594742543399
-1.453247027909626,1.6037894913365278,9.46179437581835,-7.2806272442771,5.633686384307955,-2.667659939522606,9.266096806548592,3.538012963256236,3.4279616441565537,-5.043557003857703,1.2848282011404035,3.814069803355173,-2.866198022003872,14.686255695016763
3.711226776040169,-3.948791662133047,6.35080752655638,-4.479044568037308,6.398400874477971,-0.5929282844073099,-1.0500010691792028,-2.552346913667762,-0.3342520157250277,-2.1935827010001163,4.106550618601741,5.195286500748253,1.2952609314895007,6.891252962359879
6.03831533178314,-7.761723167229853,3.826052914599764,-2.5153600623949965,2.4643494284791783,-1.5449731870999923,-10.145413059226309,-9.006386950427654,-4.463973623304966,2.254608870055858,1.155896921016101,3.826110593259742,0.3520181134153194,-0.6283332879197872
7.44068346079591,-8.795485986403776,2.849855381623321,0.0673870207235804,-7.221625961085376,-0.88721214688714,-11.414239561143496,-11.661853243410192,-6.663727528683687,9.616596470269007,-8.224985307569149,-0.1502390548971269,-4.327104607587579,-3.0976568135646474
8.04651834243446,-7.376098424579084,3.757265922005196,1.9465057056411097,-10.192766364568604,1.6022054131841252,-2.9757383709114578,-8.325907396616898,-5.468596940776429,11.70741101278695,-9.011214076492651,0.5575548250622208,-6.849143009633369,0.9273277201264848
6.303453460504816,-4.809971770946547,6.166482224982431,2.2855185015117594,-6.911686788927285,1.688613586307996,10.693497462549196,-0.159576329207745,-1.207827978848215,7.923167783025549,-2.1683200555544366,5.506997120155762,-6.57767423295301,8.424244935607298
7.439779774505316,-2.5127012185015047,9.10625291733522,3.494611831919287,-2.9644667929401023,3.4230397090318903,21.610100910466212,8.958001890020384,4.086932377298588,6.856584554928164,7.299550570954093,10.86492535087934,0.2191862138493107,14.385194727074731
11.232256678046284,-1.287433708696014,11.324831926146992,5.040493171339147,4.261481256442574,3.184712362465498,23.652062546331123,14.749459005785312,7.87648515040955,6.810413014215914,22.51439521762288,18.03793610390505,10.679733679203476,15.685287123770635
11.362369413397548,-1.165747525538464,11.77295309951215,4.721487418908168,5.905110176275943,0.2211685567920749,16.531964564507902,15.1527886839132,8.710425589034571,6.40536953852867,25.607706891606743,18.426005141882836,14.29235367770635,13.030888383607987
8.448779946723134,-1.7239224449732546,10.12720531196311,2.6449652747719528,0.9548932501090042,-1.0261011190005975,5.503054392970313,11.51885880561676,7.11055615477224,6.915987391464155,15.071576004593004,10.84968823185329,7.863941467054372,9.610231802229976
5.197760768071712,-2.4902851737103333,7.023519560127923,-0.1484783816792192,-0.3344749861813359,-1.994734526066577,-2.813169607986808,7.487568096103814,5.019907184397226,4.772527942178219,8.212240512430009,6.45512211172678,-1.2585317741931712,8.005948011283436
0.4566157295037961,-3.16599271206141,3.704634634619765,-4.133116260812931,0.1481986661666607,-1.835324461591608,-5.143623767598925,6.252110633085508,4.17106780586596,-0.130826344659751,1.0783356320923845,3.3672912402325426,-9.883434497327238,8.165557848873291
-1.9988929053692528,-3.657014712158599,1.1863418322804762,-5.982664640163468,0.9987807027889556,-0.3951683996199282,-3.228235962158692,8.19927959476874,4.654055170476838,-2.84486545050613,-2.005977026251369,0.8133161473959848,-12.129958327946364,7.907189713870224
-1.649335829566297,-4.028069137003868,-0.477014197420047,-5.328166635207612,3.827818637619145,-0.0660301316573832,-1.4921796806906542,10.707612164528356,4.859426476491066,-3.864034559287702,1.9399116383757933,0.7191210708586385,-5.349085300588028,5.0929781752591055
-4.577667810204368,-4.404095752891948,-2.1882267619403564,-4.955801491100053,3.1450411674157106,-0.4981346577583251,-3.09677659312554,10.216951701066776,2.83337714486818,-7.880022767478198,-1.515206306643913,-4.210074590784902,-0.3934124132078282,-0.5903020465078015
-10.106802607674393,-4.793535933373491,-4.950799897798277,-4.029937362285896,-1.1772004689122402,-0.8820995361703526,-7.799689172395503,4.916716168401834,-2.095384566319268,-14.273199957674557,-11.12463462425072,-13.929940897435392,1.3353749241186748,-7.546317780978356
-12.70664099830466,-4.931134332432521,-8.791801812312954,-2.685166405518807,-2.979450172823516,-0.7973328478354484,-12.99733160801044,-3.9520567670916193,-8.708590822145723,-18.810205021662096,-14.50457513432059,-17.01824125230791,1.5325674927991924,-13.515704088896186
-13.10560423287758,-4.3512591601487856,-12.40143530615302,-1.2239612007843592,-3.167736667613684,0.310344452155312,-16.278516282061368,-12.942894520279983,-14.665112270492456,-22.041764255758142,-13.583556330275645,-14.233295791690797,0.2301170931125493,-16.844598407781454
-10.405534075170005,-2.766564215168202,-13.935411337591615,0.95204797270149,-2.7120749688604966,1.1383983992436195,-16.82736941956444,-18.53560039812777,-17.9035632760502,-20.3034413252642,-9.642875895405387,-10.11630401226511,0.8216505243155302,-16.89833809772083
-3.3457835459216483,-0.4838241096466049,-12.448716900884293,3.732596470226472,-0.5057424526166571,1.5910274057947895,-14.85070719829848,-19.02088310591449,-17.64517820415322,-12.315190177759147,-0.3804039073901472,-2.3585274957262348,2.9266434369795067,-13.827813080536394
-0.4854226849949811,1.5871795726252316,-8.783265208911573,4.82396005770541,0.0714693655858861,1.5812603363347673,-10.553828812231233,-15.130768385077843,-14.518383982225885,-7.138733801101179,2.1871767948381726,0.0458962471155898,3.4559428005317203,-8.413725142481397
-1.767823345233085,2.5083634434262265,-5.070958059322692,4.081224548077242,-1.0111210714492798,0.458563655750274,-4.321129240576838,-9.361924135468923,-10.035078680565505,-3.9733526446589136,-2.3124663664707232,-3.821821511910131,1.473044760033602,-2.224723408919957
-2.766649830483584,2.104394891510921,-3.1614785333141384,4.102285416535344,-1.6261720338024583,-0.4213241954404233,2.285363352653164,-4.570811744488736,-5.89339885488566,-2.187713806595169,-4.0204887701857706,-5.548174239175544,0.051389697839658,2.4597416610541387
-5.338840350011687,1.2937631378548886,-3.267608933468317,4.422896695982863,-2.470129693681532,-2.1059270478238425,6.592217210725842,-2.5885436903571204,-3.382208718493544,-3.745221045732845,-5.402068994497523,-7.209933685112353,-0.5391153703487727,3.553726547925308
-5.359668403610661,1.55257452359416,-3.986111514333608,5.294406236867347,-2.258531290409563,-3.688905237843516,6.72153780734503,-3.5014929436404145,-2.948897619213092,-3.3699055562369384,-5.0453015999037625,-7.221185526470388,0.0053007576817913,0.5966203233787652
-2.2184086551014777,3.793452842481457,-3.641395738778236,7.200566128164121,-0.6605625174223013,-3.3344916099646937,3.624899112218138,-5.908440345140868,-4.012998719556428,-1.4244272409223149,-1.460229938612833,-4.283435561936454,1.0932579402997815,-4.467506886638873
0.1705177181223663,7.497387513981884,-1.7130300306827235,8.124324287748966,2.214314624513579,-1.4481409154816516,0.7841997191385346,-7.906955625689271,-5.198148079258672,0.5918354342934671,-0.1904737915923277,-1.225059208194617,0.4739569007429542,-8.147421678469733
2.8250479018158514,10.867176522464447,0.9079152110590414,8.183169206452634,6.872064985038178,2.6977983634006497,1.3253037930395593,-8.106457638296988,-5.040265551807323,3.708546980403735,-0.6739013284390641,2.7530793675867278,-0.4618360530693709,-7.597036531120864
3.3364625038100453,12.036275386340762,2.921135500232729,7.289603495988032,8.081330309319165,5.770483443812116,5.145029420606399,-6.063454262422397,-2.883337821956097,4.611727672839663,-0.8939478381346574,4.561308127800197,-1.3490513090254903,-2.6162112993404847
0.9665682718562418,10.47231586786863,3.78704219098092,4.95762311801959,5.5766951849048505,4.919849270261776,8.908269425931735,-2.1511789615149013,0.6124208728720575,3.1099052137616474,-1.810195392548329,3.6030816960462495,-1.5329223150449522,4.057767913311025
-0.9185179697822016,7.403779885564568,3.9326596360207873,2.2324704973958696,0.3472342413008357,1.964912362563909,9.003599663308577,2.6606339301884177,3.8105899186668735,2.75568534327155,-2.571379389154763,1.083008871245195,-0.4599607888441517,8.427903161549622
-3.02272046081511,4.787700254482225,3.935084959087778,-1.0746092754881151,-9.101973996968928,-2.5629302062438533,4.647944166485075,6.864315078091153,5.1832303271708575,2.922553191282615,-3.0451798940781067,-4.045767789133011,-0.9735751984715724,7.717842497179628
-4.256072477046886,3.611393170092992,3.654427667163482,-2.7621184336654343,-12.21121668136684,-5.283588318598663,-1.6997395237109707,8.645927149988943,4.403748553638231,4.162679407436818,-3.584916540547352,-6.773671639392966,-1.9032881452774848,2.0095696858817758
-3.996822000667535,3.073335477554004,2.255824853791712,-2.4400263301063387,-8.480710724914685,-3.302843778714994,-6.730632533948405,6.705402030078709,2.581182104517879,7.164112241697796,-3.95665134658248,-6.8713815955059205,-1.2162551487411022,-5.935093178064392
-5.311791159767437,1.550269984642707,-0.9048967927966912,-2.0441547368668327,-3.3670907907458654,-0.6130493501462267,-8.996456997204328,1.3667320159638017,1.3849432571420763,7.705541163853597,-3.914073573696747,-7.177251296437534,-0.4604536355965544,-12.444594200419036
-7.88843512846433,-1.4257886351185736,-5.417144553169283,-0.941957623227626,5.748745493597813,1.2773285098522873,-9.463010227084505,-5.044957750325271,1.7330714881655993,5.871071140913735,-3.3915101593825074,-6.494437158271319,2.834285493903396,-15.135874779263103
-10.160982065230234,-4.137581021552223,-9.80236869247155,-0.9718423627390682,9.026850456621304,2.2585522997720098,-9.75088473039254,-9.29685478988952,3.126954589457254,4.433065354952942,-3.2421180593127805,-6.970410973558713,5.3249791514986375,-14.1655812919596
-12.622375136738142,-3.9080039753499687,-12.384380370331884,-2.487789429033635,5.439263446472823,0.9862272972600772,-10.088929168637788,-9.289652522164136,4.162290948391066,2.57143391660344,-3.4363491497081173,-8.929893510119328,2.660756881859009,-11.775539542604555
-13.838763708008768,0.2364285933624668,-12.35611619147561,-4.140577181683922,3.1867797512836207,-0.0476399332691282,-9.053071918039295,-5.489716621792625,3.710517761308739,1.9355004418938295,-4.776621219006855,-10.134458030482678,-0.8152692848044545,-10.517728582860835
-13.489756405164798,5.911034874664551,-10.291236845666251,-6.48022389546805,-0.1147035285149724,1.061231643762799,-5.279232773398752,-0.5266016818163604,1.730081541628563,3.009477391279348,-7.565166480021378,-11.08671542621222,-6.533655945087926,-11.495290686408364
-12.357849694059809,8.578817823291603,-7.820347023971138,-8.192850672413925,-0.741955775279936,1.861875054838376,0.5865801607575838,2.7626835000879004,-0.8775961172300581,2.28435141402352,-8.989484182700869,-10.623102327296,-9.796185417167266,-13.916678437532774
-9.961000075984517,4.984088048982104,-6.712777589378797,-9.094420368771702,2.583495760852152,1.0808425431402389,5.673824354206355,3.2532762929439034,-3.031584800130255,0.1003962639273035,-9.156360338490504,-8.297038462275228,-5.518354298817699,-16.12184884690814
-8.678676764941923,-3.953761323535234,-7.856048980516876,-9.495448948451036,3.599229806747433,0.2468621699989245,6.810936218434188,1.9224607760876964,-4.086350884107018,-2.7756388143198967,-8.008024616667294,-7.328386413793932,-1.3983716881326789,-16.957910611955807
-8.685813215553226,-13.3083262622823,-10.624649927031587,-8.979384351272431,3.3253750286479216,-2.3570830583292595,3.062352533845349,0.6001726800658815,-3.918599211501411,-7.033592429416812,-4.823768287645003,-7.490338640375493,4.261938988231418,-16.21091569479089
-6.834872636878161,-17.438789886095268,-13.001362669248184,-7.558235810520745,2.567625667643952,-4.168893847089159,-3.241514271327881,0.3466499157381957,-2.732184160511517,-8.525031534602206,-2.5679905694705023,-6.477724870150727,8.852647518579728,-13.94945397312166
-3.547471999550204,-13.945472965610032,-12.549368228724784,-5.0743731878575415,0.2914523198875455,-2.17456811504838,-7.882608172747183,0.8802802529900493,-0.9589670109009808,-6.985483146099092,-1.1234715112797151,-4.807301488156545,7.058417604140845,-9.883614113509395
2.393269541266089,-5.344466198040337,-7.891757956444463,-2.6143138982325107,-0.3049478498164904,-0.4198643511172449,-7.518015287863458,1.3546940755353614,0.7445829544231053,-5.840100406117323,0.0962839686764564,0.4244926442426141,6.118789779481827,-3.780738316424969
11.747723450654457,2.6791588389702348,0.1095789311347132,-0.184203109817951,0.7907070568184802,2.1660173216153797,-1.81943502466936,1.4907624392633565,1.6868623590922311,-4.1577222149039565,0.4194398337143504,9.879378344135056,4.5522280222882445,3.392195943260976
14.152616512856897,5.075048515650451,8.365882015794202,-0.1495210897049207,0.7244492008808119,3.645835527557932,6.3710157268375305,1.8296706439146604,1.564688373246689,-4.100576465847447,-0.3010126936576093,12.56517487668476,0.8164258158791757,9.07159195362689
9.29713369733668,0.6042712874006355,13.066302916684682,-3.055027972537034,0.0597790423089485,1.3227008119639825,12.738683836691532,2.885658164441452,0.7393888713475825,-6.309548702558878,-2.29333360698365,8.519203622157507,-0.9378168470066368,10.42391106292425
3.845752781340951,-7.667895685955695,11.9386007562726,-5.337236293728209,-1.9448835250718568,-0.2376115796741528,13.880787717209463,4.205701338531355,-0.0282339152665898,-6.922077034162874,-4.200551820693546,2.341984131268291,-2.3021557659558,6.5952039590294405
-4.567170612067571,-14.683242807426998,5.793017806107688,-7.604402486979102,-5.845132500561598,-1.8919054053011983,9.139734643736748,4.507390238886664,-0.2554037645477436,-6.470280885735622,-6.08535158306311,-8.52711515375346,-4.530585004975449,-0.1386707566000282
-5.774224796490918,-16.76407691623997,-1.8256181758399244,-7.257828655361338,-6.205960622857777,-2.246267437718072,1.091340814648721,2.938359319543654,-0.1964477748822339,-5.571275706087564,-4.775890371046985,-10.301634103876095,-4.552782574625517,-5.6122459426971645
1.7785896086961506,-13.71180805134917,-6.763658438693891,-3.401597459274014,-2.9670748404234586,0.319329307269052,-5.629713014402295,0.2269930778625379,-0.5703283638942693,-3.537190141916349,0.3890132795005364,-1.7296788383952042,-3.026494237472268,-6.576560910402318
6.815774243355208,-8.323657318264914,-6.707120137845699,0.3000345912603902,0.2155943375506736,1.0647504545373354,-6.8666642181420805,-1.547869978085533,-1.7303765726418838,-2.5324912902106416,5.131295199079506,4.9942435607738185,-3.520382131144891,-2.77247966002097
11.808555332106453,-3.9312074948797786,-2.2405801513701284,4.682438076941983,4.500365449740809,1.7887143019506373,-1.6093225165016491,-0.5170039747363226,-3.0333020163649884,-2.585378972156295,10.27526660645414,13.081489387569391,-2.233666150764936,3.4080846237733624
14.39371798247189,-1.9604373461129967,4.082960698964303,7.783532192597837,5.647270531251315,1.9034354822542383,7.056525645813025,3.477763007386855,-3.060042125189863,-0.5016523401326032,13.540240363670174,16.147517213877244,0.2487430122104875,9.201983937306816
12.643486898852522,-1.3293898742508397,9.707891506736871,8.890322052260688,2.8569348612997523,-0.3321062355391406,13.830392189324565,8.773657164572832,-0.611976960058275,3.4553886811984182,13.991004005670192,12.000856012708583,1.0661298813604994,13.55080003334011
13.834964762637949,0.090361766711009,13.45694024919933,9.26635601779046,2.7042213172290688,-0.0065795311003423,14.892880900655973,13.127293517844102,4.292843190122689,9.181175066157396,16.137231994014922,11.870847030706052,4.13441808645424,17.178853998575
17.06795921515077,3.367504456182953,15.451081150410838,8.122650011952244,4.2729540293714185,-0.1620620372496949,10.590272755390131,15.051767344242862,10.237927233683166,17.410202929110888,19.30737799982541,14.018830502390314,6.46439807417455,20.85970103757041
16.608881447588047,7.519314000280989,16.070555432133308,5.917336287762887,4.834439562834846,-1.2071994502532115,4.791553213307477,14.181267687677282,15.197268657999324,19.71757611728442,18.83103253348973,13.592771220035686,4.396564696933779,23.77367900161564
13.308418037643602,10.282816052289212,15.19134391483499,2.569512414552824,5.394309852453032,-0.3805665047252051,1.4237273485907735,10.8079025240604,17.667166537880437,15.61354685284876,15.067463975154672,12.153293179316837,0.886832566249524,23.71023140102782
7.348067593557819,9.838836560725392,12.435268155151729,-0.148756539483198,3.2798524372871367,-1.710993056585329,1.3124801703361584,5.51863163956661,17.29680329929563,11.071059404371296,9.514783742528618,7.443308201020761,-3.071528916865883,19.04642822281684
-2.419343874549566,6.12151872864203,8.05273807756601,-2.008889992014311,-2.018679027130732,-2.1581443117101142,2.186467944818215,-0.6211687166658066,14.687490085006695,4.094218448099824,1.190056610030521,-1.32155058885257,-8.091967208389706,10.69169434598149
-5.34052970319132,0.9271097140058764,3.427394208569101,-1.570315839247037,-4.390253083918414,-0.8095627133659058,1.597019733711921,-5.898824998921823,10.765145972446602,1.2521704081797662,-1.0967437712179795,-3.857879926736354,-8.638721206518499,2.154421144165184
-0.8831176657723013,-3.0116598381736037,0.5746738451843285,1.9393731384715305,-4.200643279720195,-0.4734967719808142,-0.3913061855596993,-8.546751798449503,6.379484263134566,3.7370510649716135,3.437705254304238,-0.116399918935114,-3.618551422884842,-2.4741272256169005
4.852968955862594,-3.330093368125306,0.9468572873544012,5.047258957319512,-3.891325625772451,1.125878427100749,-1.5563734577396602,-7.906484197510576,2.3460631356274195,2.83726161040708,6.479059661901727,3.720576087588205,0.116118004920048,-1.0747597622215397
14.48147044613073,0.8534385906471265,4.460426764461532,8.25133269122126,-2.23008286111282,2.130410041480151,-0.4337368962145351,-5.042335255575367,-0.4425880334037746,0.0883994224890106,10.046323131272333,9.895634140670133,6.400498311750882,5.27379410211929
17.48123801845798,8.35854315306625,9.456212958465931,9.546155018042212,-1.7291928664600489,1.8011170232224334,1.528866252008802,-1.9773555406334555,-1.2834863204348803,-1.083430401907538,10.156448923132022,11.886731745745667,10.49378764783576,13.081668311877518
12.572040991943789,16.179692113957817,13.575447993228336,8.069883465116474,-2.646708462774648,1.6675710779508692,1.1844417463506591,-0.0785590538907889,-0.2244383899004027,-1.8405881237350328,5.252862377333088,8.568238568733802,6.0542383988863575,18.46569194738917
6.966323194301894,20.69069453944203,14.937613655561227,6.168456851632096,-3.159775747763866,0.349865238382867,-2.7696525853554057,0.909985231068859,1.6765276655899657,0.2564882442927872,2.651206086803202,6.040032106340445,1.8714312448801784,19.057103300290585
-2.157112626850389,19.48300195578076,12.945860406266206,3.0517187088215705,-3.876545019320412,-0.9558585890082368,-7.69735104023705,2.2277277137265514,2.8579951724232124,5.828440809347272,1.1914161374581167,2.560188414218017,-5.979968678068654,14.895061647466404
-6.45198130318282,12.86436170873502,8.409999258358319,0.8403364652981966,-3.681853336315005,-1.5139433452640505,-8.951850274325345,4.480669412711327,2.2880955526670004,8.127396605696735,0.2471862850655527,0.3428424332239953,-12.75218466813138,8.11765837559796
-4.702311262866024,3.919574911835866,3.0762444362235133,-0.0791153883320575,-2.3078942501812034,-1.776092183225937,-4.290881576517453,6.694990065768663,0.2149142089806712,7.444162528344383,1.0745847570076752,0.2830943900198334,-9.267060434157266,1.7223027437427874
-2.3298669187711787,-3.15755359368106,-1.1567862744731174,-0.1490866902252036,0.1081570974797776,-0.3868965882218522,3.5472547902642795,7.059893228890841,-2.022534432210686,7.028499844286761,1.4286280271831435,0.5149036709861076,-4.31473356063915,-2.046539562399812
3.014112847671939,-5.478161443350775,-3.037098165348028,1.36435595160097,3.990010701666564,0.9021153371326632,8.881021761926597,4.698483290676043,-3.019715084249076,5.514950575381,1.565424323405512,1.89815859776922,3.425257910937257,-2.8562719193817623
4.659312503999287,-2.982073592408662,-2.4816929693130114,2.536183037521136,4.885784525799392,1.17528777670623,8.016838053487525,0.7459200758095847,-2.376339705794127,4.896639368662394,1.021187776470792,2.310501429981287,10.446646198067306,-2.1973485883686705
1.7925758670327785,1.9254331336091648,-0.5553485156251599,3.480405950190462,2.5527047182989637,1.081724048607955,2.4278949633017035,-2.359438084367997,-0.9803597676073484,5.525656101112614,-0.6782199943480202,1.5412083601922235,8.940540100385766,-1.9795301000385792
-1.40994270927274,6.160715364102692,1.1739343115548329,3.628653003985603,-0.7304075016746562,-0.4037093002287192,-2.834836137979587,-2.783821579793723,-0.3004336017006135,4.897600141811368,-3.0770505329768456,0.6136051681613633,6.377009015698648,-2.8632100968732623
-6.746705971379989,7.727188809692192,1.5949927812510654,2.4807823097114268,-6.097761979385944,-0.9112860071814622,-3.915836017772569,-0.7224037248456612,-1.2564976248655924,3.4522278072799955,-6.517229854578671,-1.0434245292859132,4.764050239275798,-3.823390827988367
-9.070046269161956,6.332580539097592,0.6936419044215972,1.4680240041072128,-7.881494222788745,-0.0789263931865515,-1.5353802453806518,1.8283332983429992,-3.567155076800085,0.2404288393362,-9.067587883454044,-2.4633651971521897,2.2886084587035933,-3.479087203722166
-7.7408398623384915,2.906987995764771,-0.6447417191933393,0.2981317784547906,-5.516501535489756,0.4893813440121426,0.0942966568082033,2.598047869576251,-6.086253628132873,-5.271560409477963,-10.618223763875308,-3.594867963327975,1.4037529753552371,-1.997334173713619
-6.99070917154473,-1.138041686955614,-1.5634015186336458,-0.4710538776275353,-3.218302361913681,1.202107604460729,-2.4846153609555737,0.5075462195545155,-7.8059813602232575,-11.424268522568685,-13.271299645876397,-6.524773357265047,-0.3579723080189422,-1.573505971981373
-5.528304748139165,-4.337197467095495,-2.1180783922519617,-0.5700008724968646,0.4404870983315584,0.1184801786121073,-8.729132182692721,-3.925648210939221,-8.603463670370097,-18.597526704531383,-16.654094867905023,-11.1935332644173,-7.450047954337859,-4.649778029873653
-6.253796429593951,-5.481869026355582,-3.2854914677544707,-1.783733044423828,1.1688069471085631,-1.670168777668434,-14.717583546037003,-9.117588884844334,-9.03081394399126,-20.281998001557703,-17.85489526325981,-13.70595803586004,-12.107790726966648,-11.275739170676154
-9.887770464699146,-4.202979556476652,-5.997466400888966,-3.999100272068671,-1.818394586611088,-1.8007190012825005,-16.6515983272839,-13.144468939115445,-9.389239305509973,-15.582977690137282,-16.946514850581902,-14.210635803337354,-9.585667609092198,-18.173603335426243
-11.84229768807664,-1.5867998334557765,-10.030027848474166,-6.10151276476374,-5.2474259328722574,-1.2726594355657634,-13.761840020518116,-14.29413707803311,-9.115190639841485,-9.728939460538408,-12.483274457678718,-12.341001407704496,-5.292184682620649,-20.7992968421094
-12.810888091938164,-0.002150426711525,-13.820164521099342,-8.400431845912196,-10.368054866676596,0.7674019403644203,-8.232163021181089,-11.662480096408387,-7.269693859140258,-0.9378489624762892,-3.5233298679097724,-7.047811460830795,5.314414941247023,-16.95861666729756
-11.831207808896645,-1.720070767487928,-15.51767894103629,-8.711637838976356,-11.92072039338698,2.4887398103926843,-2.885991378628872,-5.884933012321023,-3.760003480469916,1.8059160157216625,0.5160030560516439,-4.06416451684881,13.687146789481316,-8.88555037352202
-7.9448867216615024,-7.089262626299847,-14.443485483264746,-6.668691991795491,-9.19390307050113,1.365513284142264,0.7847246648642257,0.6092311974741644,0.0095393063038038,-2.832728289739825,-0.3949452569805002,-3.285686061088391,9.80654520499623,-1.8032723658198524
-5.958960263921769,-13.779232779756793,-11.676800483175755,-6.248410295901069,-5.167116947809817,0.0835734053885678,2.690876620166753,4.604185856975232,1.971295480665586,-6.739485039215063,-3.9773415564110977,-3.133368273005037,4.55822702046769,0.0020808721154725
-5.583373958489563,-17.989377562500206,-9.21073788466765,-7.052187602860062,1.6778109040522016,-1.3997230026993936,3.0828796845204973,4.147151233765953,1.14391991221839,-12.280839406369765,-12.613993081194828,-4.946371957214237,-3.784853972068248,-3.631819549372348
-5.130121490111944,-16.96661512761234,-8.380073082581367,-7.60982185305788,4.412436555009502,-2.1410856100297666,2.0780001191550506,0.1132447519957864,-1.3580561886915543,-13.085820781916064,-15.259141787668028,-5.2365334609521685,-11.147425321273989,-8.898364515554317
-5.565446321526316,-11.027023375328852,-8.920939626074865,-8.642222276541194,2.385743834418318,-0.3185766333175903,0.2930631575688842,-4.280481362391955,-3.16453579598811,-7.63178350757209,-11.49644047769376,-3.9604937890016583,-7.792374820644537,-11.250443856076071
-3.727263450789295,-3.549541978154557,-9.44751381144258,-6.746434278476048,0.0293364327675742,0.9714100815778036,-0.5896646549246007,-5.908139023288738,-2.676400896845788,-3.592086841774901,-6.274034446616664,-2.227689907057979,-2.966795469123563,-8.90728035551984
0.6460504514870781,1.1385444392088786,-8.848479153137571,-1.5522712936797571,-4.447153747669545,1.6244819599128948,1.3940230838774497,-4.126634811736609,-0.382124432442076,0.7915526713812537,3.127539286253184,0.7900608887140778,1.1065380055098448,-3.832642084305638
2.1461213355755984,0.570328044772273,-7.301698299567732,0.5618934211738145,-5.684595443957618,1.3692142320029677,6.657626385879993,-1.0236326668023423,1.795152641415612,2.435637707723974,6.412329734119101,2.0365011151272103,4.402862363714689,0.2927144973657238
1.208731671123846,-4.253239763983703,-6.009986048440439,0.0728220993843513,-2.938309868373093,-0.4342251162941788,12.935185647754333,0.6332789894698081,2.437841525719957,-0.0585557051929598,2.7015910386448403,1.3599217966656556,2.5389918160018885,1.1062065845744993
-0.0783303215245137,-9.544129303607855,-5.968490245445528,-1.4780366603291424,-1.0039780483560732,-1.0168989377561968,16.28647808710505,-0.2281215975289452,1.8902395084439263,-0.144275040292727,-0.6805672005680582,0.8239627515775125,-0.4767303979606023,-0.9248938862276824
