AF3,F7,F3,FC5,T7,P7,O1,O2,P8,T8,FC6,F4,F8,AF4
-5.182156490261433,-7.4250451882071475,-4.804172546700688,-5.259846373098348,5.235818472921963,4.403963805843851,11.143948364961446,7.180977089823681,-1.3306226453048156,0.0297832681855894,4.08752826061076,-3.1168143841260907,-6.072065732434703,-3.738395722835485
0.4410998828178795,-2.7401307515345423,-4.039512343206809,-2.303530855850454,3.423049840790295,3.133440452694469,11.98433515497204,5.193979914586048,-2.523217463287586,-3.9598442203134496,0.2643949673391497,-3.4917534214810324,-3.128152752907304,3.4431336453284267
6.526672585361616,3.225140590436513,-3.0559149282563998,-0.8920399799426484,1.747035830968105,2.3639504976620778,11.014460844935767,2.9954865607619823,-4.038116067510487,-8.413105309663266,-8.012691505041321,-3.4988634116280792,-0.5270832255386099,13.09500362859484
10.188836566242136,4.807948233235261,-0.748689688522326,-1.3992849961941438,0.3573815162126443,1.570465171513625,8.526935804423275,1.4460937529681708,-5.205368372003707,-11.119696137237575,-9.315307513363384,-1.23806078687781,1.0646177122072882,18.28607910787937
13.582121379731374,0.829721850806259,3.559513156157003,-2.622373652417483,-1.0354901531463838,0.0445289693050519,5.5240392277007935,1.2682496341884892,-3.641577458072145,-10.31679946178074,-2.680075861987358,4.345777508669588,0.458630433042359,17.884593631734823
15.814281415152156,-1.129606558454107,8.834214953370875,-3.1033590067899937,-2.6696332204391773,-2.1620837603019147,3.1089016371102858,2.350340295397551,-1.656425762891143,-5.872308714127016,2.0632751371339846,11.995566111096014,3.962735765627615,20.21331279769716
16.55426970684824,-2.4896125287231743,12.589663049602876,-2.403730768296718,-4.319100704054641,-4.047601602599279,1.93382025262358,3.607838582821106,0.5782703727845359,0.4313744370403363,7.507572175425671,18.551663075780173,11.420367079692795,23.60726026733783
16.93183617428958,-2.6576675063401685,12.702759681848178,-1.2283764177643943,-5.36417908969355,-4.424309189279931,1.9194634229130545,3.69446434829321,2.2341689170836783,5.803968915263646,8.119301374065184,21.037431924144794,13.784660406208328,23.423585829588028
13.879947927052386,-0.3086608897666179,9.187310000589484,-0.5470668844960223,-5.286189153750382,-2.919117936175926,2.287516955368069,2.0148909197939453,0.1049440894337957,7.988728255398492,2.092426822616058,18.65773412534347,11.751268297126174,20.51923700753234
7.844174050403976,-0.0504273742060975,4.233220620369121,-0.7598535955967698,-4.142056516456524,-0.316690075376929,1.9184200530717772,-0.8676624011639831,-3.0130134276223197,6.41293046196666,1.39023588714848,13.061829440533431,7.2730537988338435,13.624176255941736
0.7808261076636713,-1.500432732408859,0.4172952696897276,-1.652134898266013,-2.6023254772210223,1.99184143778832,-0.0010233204775289,-3.7636218446971057,-6.135615922264316,2.2434399711390327,4.779902496457684,6.866250011033312,-1.5991958298972997,1.7164204794807651
-3.317383197066064,-0.5900071345236125,-1.262412867015822,-2.8864263435106814,-1.528529672128368,2.9109094451153403,-3.3188355739454387,-5.756018032465953,-7.480417100402635,-2.513092578139588,7.659172286351578,1.929448333163279,-4.00950094842882,-3.259491734479272
-1.139455286226157,2.085188245669657,-1.740384797098887,-4.263325911869842,-1.4466044290753182,2.182476038393059,-6.775391864105302,-6.622626673127918,-4.646385015583278,-6.103150613546191,12.126647942412998,-1.2217033174020138,0.6280982077154854,-0.9740868228938786
2.8384488265648526,5.0844101892235365,-2.441743691340317,-5.454727612245911,-2.3112021609264204,0.3353704227148526,-8.725216767485799,-6.5505195563716505,-0.5916737814028151,-7.622809022567758,10.478554015288614,-2.78470042045301,3.427156588186066,0.7864238536735981
8.677789431323697,9.079452076644044,-3.5864053459407508,-5.700828788828179,-3.650899018700123,-1.6768492160211466,-8.368084955022248,-5.666485424062152,4.613605632969161,-6.985294290272343,1.7701057389947563,-2.9522905172054763,6.765165633309894,4.714747615180214
11.30586665541628,10.538506770870846,-3.930815257378896,-4.0996708692164425,-4.863337222674431,-2.844102830050147,-6.49435173829781,-3.967809264222343,8.084300675003835,-4.586653047728621,-2.1627871463349755,-1.8711108806750367,7.346168539117796,5.392464191492913
8.14599325730234,9.04931787878219,-2.142078791050426,-0.4353391053990201,-5.403038515677089,-2.469543982040125,-4.948748120661495,-1.636787373160672,9.084843449431228,-1.0275669816837727,-2.7068656432918874,-0.0470562272017929,3.719083478888959,1.6268776483796783
5.79160770539831,9.397213646195253,1.604211174799893,4.22853424425702,-4.8504222166425,-0.6110748308889669,-5.097462937537259,0.7651624837297746,10.927193688711233,2.998309672443842,-0.8596111700600075,1.5853276826277387,2.9217934461468795,6.301301296934634e-05
1.4602441496481258,10.879030730560704,5.386018122660751,7.897791021403666,-3.0406845043963564,1.6679959712198809,-6.593734519208095,2.550372897785397,11.46351873686199,6.7425888272096905,5.764699055773991,2.2101536172518763,4.035191327993907,-0.8879885798699103
-1.8316554537577736,10.453134352033596,6.915230609235856,8.831463637765236,-0.306683818172079,2.720477708681347,-7.617927405383011,3.3705367020444115,12.02662844739365,9.490753634429122,7.716371665491549,1.749542784339372,4.0268312324588775,-2.453247741026639
-2.255380264564202,8.729854683009378,5.306717179916983,6.683504031221645,2.403364864153538,1.4508687938113098,-6.485136550839883,3.4029333013634258,12.154424115646696,10.745998558011546,5.039573447842476,0.8533503836545151,3.969415184326359,-3.8469760450830814
-5.395086472005042,4.134142886450184,1.709142131875332,2.731655796986072,3.837506017340601,-1.6342404762522769,-3.2285015565701016,3.0769176101988998,9.587718667206822,10.44574000507878,4.050209246320897,0.2012513896322758,3.007106121718969,-6.570811411640396
-7.542241193016945,-4.034271994519784,-1.6739439764827075,-0.9451559795880868,3.140092904768295,-4.533869494565602,0.2757110433710128,2.6373448350106337,7.231650656259996,9.03771375512249,2.8804539511410634,-0.2440046655031924,0.7700147510926144,-10.757169828582976
-8.437528123809075,-7.770935579048201,-3.272636285282397,-2.710554657114411,0.4628731707095941,-5.2122730904845564,1.787672129511499,1.9649389456835404,4.205217323816716,7.231112611655398,2.6859520115747366,-1.337411824742743,-1.3406177731395947,-13.388725420472516
-9.80291570931318,-7.065421886017615,-3.1468970342453524,-2.2059151017971868,-3.028097924562092,-3.2608909712955203,0.5113958521301178,0.7769869311166886,0.0612215577397481,5.460427070752148,4.2955033826054105,-4.0685426946205006,-3.5824390762346723,-14.612942489790372
-8.724592079108959,-6.754566750682805,-2.585361113714937,-0.3483100762049815,-5.794703720288602,-0.2210903700891382,-2.3057030388562847,-1.0197487398156468,-3.380934795700808,3.463040619515091,0.9166444797372612,-8.578400934821524,-8.352765403195278,-15.64986085218414
-7.128290377411426,-5.11536509267892,-2.788117494725986,1.3701653975045556,-6.730717002829303,1.8197041878552511,-4.413537746917401,-3.133648321541905,-8.57205683698321,0.4831059081693905,-7.4385809036769,-13.601155644481429,-15.66893790395947,-15.868185611081786
-6.513659966316171,-4.810834349083414,-3.787880297718416,1.8155598542358276,-5.564294473019949,2.0768873279891107,-4.268026540094379,-4.978422395500493,-12.27911540147515,-3.841164306062355,-13.039984586469842,-16.825231637452177,-18.03321785828557,-15.321274817729137
-4.560427612040058,-6.489787891530406,-4.447072421057461,0.8815412559415998,-2.725469383474929,1.6065751997902966,-1.9865054532289663,-5.958986433025466,-11.440192615656157,-8.602452512940554,-16.953778222536055,-16.122949487158596,-15.368605558088284,-14.003864186459287
-2.3700129944012343,-4.695699445316735,-3.440240565920133,-0.4627001953919141,0.9993995513089587,2.051671099001272,1.0745769838175103,-5.775218360037212,-10.75022048664477,-11.731327396126916,-15.021188871364174,-11.00173710303781,-9.168543623316872,-10.896072610171386
-0.261721987492822,0.0946947117175142,-0.3911103855627651,-0.8438112727930625,4.67393024732507,3.871893181543588,3.521313047013778,-4.602670328935625,-8.146060335818406,-11.356935426155797,-5.251551716673849,-3.323040999033583,2.5612444425711085,-5.875859684929274
2.0327628642321267,2.378698866682773,3.690883650122462,0.4420619777136085,7.273158530967811,5.795674535666173,4.781440817135826,-3.0753677528683854,-5.473621754890672,-7.488646887562921,-0.3041645384427744,3.3723178567221197,7.044739853201513,-2.890661368368045
1.4899758867883297,2.820008785757573,6.941335108985987,2.68339027266048,7.861626611934258,5.968194063023966,5.03157759697527,-2.044114161240344,-7.369158529030342,-2.5089109858744982,0.7717432381750471,5.743462089578114,3.688569382684154,-1.9906305120055412
-0.0020773436155268,-0.2328220767478084,7.738224140256699,4.057694833009102,6.017417276322993,3.62546484652376,4.567479434385503,-2.147896027982945,-8.107199466067618,0.2558160143940766,-2.922404708762876,2.664163221359143,-0.9807010153720632,-2.3132777991583096
-1.2237228796334492,-8.13798360892149,5.66627050523577,3.005855279587889,2.2538815512584,-0.2598846881294627,3.4309871870616826,-3.3564947358308093,-8.15750986817528,-0.9987102461662556,-14.399187134216708,-3.937201414999554,-10.12464688385879,-4.901001052069224
-2.228378730724383,-10.136600463387524,1.7992627260351153,-0.2996580580483527,-1.995528704277674,-3.793021488280235,1.6704137263200665,-4.772316779983568,-8.340441540252561,-4.996477110881517,-16.997464991572706,-10.063326939519644,-12.69767902381158,-3.8605992318938585
0.4225326935292468,-6.328955600301375,-1.855784000299935,-3.72906610375427,-5.009940070840866,-5.506321149453729,-0.1814522648562277,-4.963500752198687,-4.1247189437444485,-8.143377397504484,-10.928982171236372,-11.956379457580177,-7.561066170065358,1.0598340310867624
3.997692733776148,0.5182735321253332,-3.479678385733543,-4.6792837507142,-5.716365673748319,-5.070086878074486,-1.1242378836390294,-2.812496647428453,0.7832673438986897,-7.2147495713786896,-0.3042521471778974,-8.339595814923918,-1.5417428876868111,7.336932199738248
6.891716321476951,13.02103478307279,-2.5367392891347587,-2.211251419145242,-4.3094459849793925,-3.0782540127029026,-0.403855853142204,1.5807599808135802,5.320204929821943,-1.9462650756126063,18.871652601001472,-1.1839859463936162,8.262495869402162,16.46111190826728
9.2658137424831,17.277276701025134,-0.1807919817513057,1.9929383852135236,-2.100944622164425,-0.5203910438581643,1.67743443287233,6.62762184195687,9.147265827963912,4.556202471558541,25.39571310254202,5.512811443222317,12.636181676996776,20.06132155704511
7.359856929065351,12.566684356438772,1.3820228125273264,4.813083867470534,-0.6686603462019844,1.4823634728297534,3.710240799485584,9.983875617639686,7.862575553492504,8.036660281009144,18.20020295993986,8.174092252055168,10.421795181345315,17.429139421265422
4.106110977051236,7.6056772649181665,0.2967768716237939,4.1125665069603965,-0.8602415873502025,1.8057797631088257,4.134215740758091,9.940987197402386,5.412106843544814,6.311055833974737,9.054777090757277,5.752296568311802,7.480612373862262,14.734238838822227
1.2562789390255438,-0.9018346094332412,-3.622940158460543,0.3723620766123883,-2.3113569793561144,-0.202016235283521,2.500129725806333,6.57282381916945,2.7420542162064656,1.0134576427559088,-7.206727838461619,0.1887830194472677,1.3021647649940074,9.9261456301129
-1.6454785189700902,-3.834023050126253,-8.57862350535537,-3.7863863738602648,-3.7808089681208346,-3.9417939127931367,-0.053910657292473,1.833036209349439,0.7823784205761105,-3.506558530456809,-12.7241225956637,-4.930282210577841,-0.4089537603761638,7.251487040552278
-0.8066825144806353,0.2820397553964744,-11.785227080454566,-5.658420559842862,-4.048406631677403,-7.305753284822845,-1.6142788582319127,-1.4992359876746466,4.493139200829759,-3.30698361637996,-5.350420928564119,-6.504917921335454,3.300721026914597,7.6773801785222755
0.8413878761864972,1.4881346277328769,-11.214431686351682,-4.318155657203371,-2.7493967686561085,-7.708527808099927,-1.0014115075810652,-1.3852819409464765,8.802338510305011,2.356226134651851,0.4718568909356623,-3.5028280904630917,7.7696543727396,6.084787253689102
1.2858501183405409,2.00850657891569,-6.969032191444332,-0.9584595401052632,-0.5831044755747934,-4.034028908065498,1.253165552318552,2.311406452975709,12.575298271701836,10.572537565108153,9.256961936713337,2.723758859153735,15.109290437848024,3.5962336400915818
1.5016626337401149,0.7775796369948306,-1.36339189885177,2.173668601868286,1.2197463121387973,2.0552858950727853,3.292975267693468,7.715838802372703,15.331510762218883,16.799650759952822,12.364003020615876,9.254576503315588,16.337063008468,1.5464454689001328
-2.225975436834493,-3.7736374697104256,2.4130016246875625,3.159731983255972,1.7675813600006958,6.867218301390445,3.4002334007346366,11.971655024155886,11.521206078633172,17.740920860531872,7.522420901289606,13.019927085187382,10.46781086163967,-0.6795865295806225
-7.453274864374391,-6.830187941554306,2.2694988030507623,1.2615711473611857,1.090516721676531,7.270437213922113,1.3681310218052385,12.8939949116647,6.039310670996752,13.11290222957685,5.259782119995717,12.30152855771771,2.6994176329927693,-4.423860763807696
-11.836041566466127,-8.988138036156345,-1.405741248339675,-2.841768125827782,0.0338787616134208,3.1510135085837643,-1.3025802668738606,10.299319838857272,0.6747982994516473,5.425722422273463,3.1465815228550453,7.757954259755746,-9.419558774975282,-9.748929985713508
-15.024915300490845,-10.22911094880926,-5.897276562040434,-7.241712513593628,-0.4277977201450831,-2.3882720398578936,-2.518033510861308,6.090829712979538,-4.274383757959154,-1.708123305869452,3.380738803575296,2.2847847167191144,-13.962028002467246,-12.750815330700211
-12.961169609362935,-9.61161610051214,-7.855222623510624,-9.505172520548996,0.0764164118169912,-5.403623283166709,-1.1474556134577425,2.8811428291392627,-3.980997217144971,-5.54909745209575,7.653877287572352,-0.6409959664501672,-9.684542541221694,-13.46838735194046
-8.864246944018458,-8.717625322739226,-5.489242557550554,-8.004798849619007,1.0872046978097103,-4.145820982144688,2.1247996252306853,2.0422306720278485,-2.5392496631673813,-5.469343563991642,8.91403456397848,0.6130658311428325,-5.25262650105662,-11.72803336768586
-4.65957561943591,-7.195270288183635,0.2342685695648105,-3.2850691240264736,1.7445200501653222,-0.2322168085230256,5.226499732000005,2.7134465082417742,-1.968221660368072,-2.9605277596391684,7.905406710865853,4.437946736987334,2.386534361600216,-6.440944529266855
-0.0524328947990891,-5.89165517329966,6.30199399154873,1.789040199586161,1.5115362585001917,2.9482151530893663,6.077814416312684,2.697259548155793,0.0336726333261753,-0.4719121340609584,5.465136390322438,7.092702010256862,5.3910185691478185,-3.55603230780637
1.1468752878924509,-5.094098461074891,9.822155982730624,3.8230801332558366,0.6114495558777087,3.1098901774608567,4.008433070380377,0.585182326617109,1.441277211006431,0.27982632544823,0.2019105640936835,5.829310161142139,2.319245098368833,-3.017692225554084
1.9750789993577704,-4.413167030243123,10.049395327832318,1.635817565683996,-0.1549039324010568,0.7485116803927214,0.3178149996144439,-2.7526149736757937,2.79777395259381,-0.560644345095576,-1.8875135758182084,1.505289763625438,1.0814620775580135,-0.7797054385074624
4.768931231567366,-4.194269343816592,8.704423965629935,-2.348495028745365,-0.0312298006118023,-1.6294507778395395,-2.404611736609552,-4.756545871684059,6.669169399771123,-1.3141149167050905,-0.7101439008656489,-1.8136581435451056,-0.3913736281493537,1.9861394655185116
6.470289166124139,-2.437926222730592,8.362454995772127,-3.651194114195185,1.1550296916958702,-1.7721381581843278,-1.866850104448849,-3.4321132019349143,8.242140386348716,-0.3882183912965748,0.870293537202726,-0.2609558031328047,-0.7697993354628859,5.469407750914727
9.161653955248507,0.9607848600766,10.270726191003456,0.6658395023158397,2.949607841888594,0.6463059511286762,2.354384513795556,0.7448615762936246,5.763354937492773,2.156521218774708,4.2315693784439965,6.271335820670028,1.05735912618865,10.159776822480444
13.21412514846642,5.540734189881578,13.424996801533531,9.319402095254247,4.688834921281423,4.203322111987676,8.314817960913187,5.050275550548438,3.740658866041724,4.5567994732067225,4.220249778249312,13.697383586163944,1.9605780905184984,12.55854360359622
15.220543201148056,11.859733623415345,15.618298040914992,17.496833292208695,5.967297290519273,7.198174286178555,12.777153432603576,6.693107946503143,-0.6285194161891634,4.944540101102959,0.2920004141199346,17.019468885609683,2.529521415789006,12.584175858945637
15.909882798910338,14.270557276644258,15.430816851746092,20.521939390793698,6.769616967389673,8.85154297550853,13.292417963078794,4.968667880680392,-4.686533445456988,3.1176803897060497,-1.348292999374062,14.490942110612677,2.576093055674101,11.363395333473669
15.10462272271327,12.385437287419672,13.332847211664715,17.42976967030628,7.246230689408922,9.282516694159009,9.848297367053425,1.466425346889258,-4.600352140087408,0.7607872055276257,-1.7557781102562608,8.909188326375753,1.5897826608834988,8.005991905032694
11.633068191642696,10.638179757128194,10.961719532722997,11.424039369202225,7.43875478737807,8.706766347549854,4.776713482538935,-1.690570700359732,-5.887960186721801,-0.1351932874147872,1.418164538770304,4.874983976717616,0.9400055032854592,6.526333954806528
7.169071369330268,7.704289087289462,9.37472755598962,6.945382130208655,7.236158069673682,6.986713267970128,0.8772704363037511,-3.751391531422105,-7.302821764531549,0.8554342954450243,9.530388235752174,4.578097889563475,0.4508760129515876,7.14247043192444
4.193235197458364,5.845062317731446,8.017717610788546,6.023858232172907,6.548020450398969,4.038584320331751,-0.7920575924889666,-5.570418321394224,-6.599817974918723,2.2188272385921706,11.534842742878926,6.01295385697405,0.8662444251660316,6.691435563866185
1.848706261889906,5.764743748232994,5.398295532767496,7.045510791057396,5.453577884736571,0.4818580762938684,-1.6034972339721625,-8.143148755862853,-6.424072681993097,1.946592372337396,7.679203695292811,5.200112810129857,2.523322883996019,6.058046815978413
-1.0115663117113216,3.108817563335538,0.7603462653905699,6.734764491418247,4.163038982015038,-2.4203985013293146,-3.883773948651807,-11.132986317382828,-5.423704829210263,-0.5965666573669068,1.0054732514641191,0.2098903980255964,3.318856958978917,3.1555984969738398
-3.2442751299346697,-1.5953799769612964,-4.921750998309066,3.3005370511672623,2.870374739957333,-3.679949644998134,-8.530810264138216,-12.97923787075234,-2.2950585092714064,-4.091735866513156,-11.070575606554216,-6.848796944920637,3.4294131227498243,-2.603982850454816
-6.338676786502591,-4.361443006614394,-9.63112336629955,-2.1065907037943563,1.6738693531196878,-3.480271927039076,-13.875573676324835,-12.441915481784408,-0.9649178131129436,-6.412280186745486,-16.891414799080344,-11.699072905995802,1.7055905324197096,-5.792651519254281
-9.42959861623469,-5.668359199905479,-12.038224312890469,-6.689096817594978,0.5959568831497986,-3.080521976119396,-16.913829045805837,-9.925734352600797,-1.4878542935361692,-6.399583774391859,-15.865596604811802,-11.791923340355003,-2.44516493553244,-6.732198937875368
-11.272955459476654,-6.493841066834755,-12.630164645166474,-8.578645137610277,-0.4102907492992926,-3.7290342165244055,-15.890780461859457,-7.194327227495147,-1.115608645526482,-4.74287156303616,-15.04185326175049,-8.57926238174725,-5.578618624759584,-8.49502837495541
-13.784072998119834,-6.068325546438183,-13.18111347926422,-8.269927635598101,-1.5077267454472256,-5.602484942266991,-11.91655980581449,-5.788935654081718,-2.06461463510001,-3.3199621733649107,-11.654592520374408,-6.15047476428987,-7.992758978918521,-10.08412175771641
-14.02148047421168,-4.862531737849944,-15.057198949353952,-7.788368133788134,-2.9277700540828446,-7.759219891075045,-8.091161038717177,-5.758291809805183,-2.292365937908594,-3.627293216373604,-9.304839037580622,-7.597269079550934,-7.556753757604804,-10.077383060216404
-11.66650753631034,-2.7825162987767667,-17.88975788370957,-8.610589921558475,-4.7093089385992375,-9.05926841838631,-6.869852007391102,-5.877014291309395,-0.2139085147514306,-5.54947848691593,-8.737565474561205,-12.387836748298357,-3.281564680128775,-8.637136464502248
-9.068845756349862,0.1745159224954803,-19.76111219319463,-10.337470309810312,-6.4011898050140665,-9.06363088251485,-8.01584584892085,-4.945892658024849,1.175638633578621,-7.367474633820635,-5.81132397600103,-16.901231920655253,-0.8667225109832551,-5.620847301479192
-3.479376048743678,3.9656840627183736,-18.695642530145417,-11.207356907655017,-7.115183651009504,-8.057086303073838,-8.93984870460263,-2.7703102104557025,3.139233749523487,-6.971229736273197,-1.4084293687293088,-17.404006568710997,0.2496853571565081,-0.6613274165057978
-0.1432496188182732,4.780556213946542,-14.194178041155412,-9.778744385958792,-6.087026707256932,-6.358894886651704,-7.037683433513526,0.0235937443904763,3.826833385799677,-3.41307902388421,1.6076742772150374,-12.845545061780122,0.4431525596866609,0.9717271744455108
-0.7366589923469757,2.2075686889066106,-7.643181187958146,-6.188183191124744,-3.375229383789745,-3.8631168676696377,-1.9046286203567453,2.8181504477271986,2.09597832008116,2.270253037979903,3.567417543520841,-5.386655699530147,-1.4817579218333814,-1.022134051372345
0.1590332550376675,1.1428191680296185,-1.426932419795521,-2.007223325275018,-0.0736876488487339,-0.4324901538912511,4.389619834110749,5.364783871225086,0.0384257479547245,7.526781182021418,4.640000422112474,1.316229085743162,-0.4380089449025021,-0.8833604546942961
-1.229000449082685,0.7838461116907945,2.4784024665242947,0.9346663982940236,2.240383363646701,3.291396536557081,8.91130589993011,7.312602344490366,-3.5934505262913388,9.73241222012231,4.186837575009374,4.414446145037632,3.547481035490713,0.347030484357088
-1.2569502393707608,0.5896792163211148,3.462469846271436,1.6605390196999688,2.4675154879513936,5.729988000434577,9.78801506538712,7.68973736545351,-4.992926139977626,7.667704553867107,1.331742421507148,3.155698419584388,3.643507122846102,0.8750643643092646
2.0907947366999347,1.4025414987847975,2.347874868594096,0.3879400795219077,0.6815400564841676,5.377806613786211,7.037723967953901,5.313971896155377,-4.821686333105351,2.141696720081834,-4.316978228067936,-1.2212469358746778,0.5046921613905101,1.5254473725473687
3.398006383905237,-0.416505851337067,0.7691342800936511,-1.7625287021558735,-1.8827065030207224,2.246126922126238,2.189742196857561,0.0661551095176484,-5.520864254052527,-4.496123200602515,-9.39392805400015,-6.352135843321253,-4.820118356992665,-0.4856231976128233
6.242037482092436,-4.950459498466007,0.326423773464656,-3.252239014229956,-3.513783630010089,-1.6691903407988726,-2.5409867685366656,-6.197674956154385,-3.670552848470629,-9.553408335550682,-14.05144896896861,-9.70859760369715,-13.768611783400887,-5.525850260799129
7.1342726034753285,-5.925654997054288,1.8609349038998384,-2.705224662749304,-3.0146942278124764,-3.610249206174304,-5.023949619118261,-10.300436940913494,-4.653690847000321,-11.241439187621642,-14.40531037361251,-9.504301283176444,-15.850683932577123,-6.5419211896338885
4.266634616513219,-3.726507229986547,5.032274486852034,0.2950629121411641,-0.5171188212151825,-2.160969772524976,-4.020987450701731,-9.829842269383107,-6.311794826586772,-9.444525294895026,-9.21582016218226,-5.561336873805638,-10.481972483628237,-3.761116648832427
2.515016726126557,-0.5887202255995949,8.368067937185485,4.497920514108694,2.3751958943364917,1.5216861449002956,-0.0041982399852424,-5.072136000327747,-5.1105378350278325,-5.733150041625363,-6.686864732271878,0.2554806923999613,-5.546803003484343,-1.1246976299322418
-2.1515711840731955,4.795759294759881,9.932441486305375,7.214501203381225,3.4181580930373467,4.508892680625989,4.700789194641464,0.931455940242992,-7.611515210257064,-2.564258605229056,-5.872411564753024,4.706174584845444,1.3553705311314148,2.7952308206274425
-5.53280986633025,5.412896850736802,8.459555054165643,5.96222911120772,1.260595081101194,4.387062811255641,7.1394870467438905,4.477359455259196,-7.232233798899943,-1.92944375237878,-5.390111428404835,5.033196770958685,2.774141225274376,1.821755990360164
-5.779055062266894,0.641428892476383,4.308619679145773,0.6332392036033445,-3.32020596077612,1.170223852844603,5.841262239613314,3.871587161175269,-4.988227800694597,-4.127556050587578,-6.8042192295744,0.9265264987289576,-2.874790706963924,-4.983451921063971
-8.647905490878372,-2.59911210744254,-0.5632406557159819,-5.744279801913656,-7.60980987333293,-2.75476448870829,2.1013166078182337,0.5253828535793872,-6.867155559534828,-7.50095879734523,-4.709205283297069,-5.028135412442133,-5.911533480076409,-9.620896014035395
-9.566268814720884,-5.859732965025752,-3.8343441426737344,-8.847207056818778,-8.763261493182894,-4.5872189655730295,-0.9648268760317432,-2.4054390694441814,-4.213901095869188,-9.49830427688324,0.9907754654283734,-9.079094773679802,-8.22446777700883,-13.470731622293677
-8.863990296578786,-5.920703627312396,-4.460284575385753,-6.42537406257048,-5.985815701080863,-3.3226152280302985,-1.03010351755972,-2.646833153199843,-2.2768519791919344,-8.463223876316615,3.974111692955788,-9.02179467295635,-7.15559794217257,-12.927953450807127
-8.268068203224036,-1.421223012429455,-3.392352307725314,-0.3988486846119881,-1.280473649909033,-0.4098842379548681,1.4651928928484006,-0.4705629441827441,-3.9875278304025703,-4.8627365540822565,5.090342030846994,-5.684297685565546,-0.8637275626992785,-6.206062018840386
-4.346237434740984,-0.1349773464314381,-2.668003505262716,4.370862500945426,2.003101815154899,1.5752325436194,3.839581221595932,1.9132090450117616,-1.0766188800300074,-0.9652281417207274,3.8035422587518153,-1.92803974948032,2.3701280236413265,-2.8179204843051924
0.485991107214102,-1.253468099891573,-3.5722861563647816,3.866900790407703,1.7155000228681292,1.0244335870701295,3.73352956913342,2.5205465890738328,-0.4369084485731802,0.8587862865594369,-1.2272226647393103,-0.0828540743199504,3.403014521370001,-1.7752369490029491
2.755729026489741,-2.2962362661509204,-5.47433946961679,-1.8662754496040452,-1.5329537423655122,-1.5733501138655963,1.2680886530498596,1.320483358766488,-1.5107848276287072,-0.0629824642017702,-3.0687698177155025,-0.1074378820950423,3.4619746646988765,-0.4271984241075527
3.629221040287935,-4.666603390867519,-6.409994373408329,-8.80345920503073,-5.038911036808226,-4.243599520613676,-1.231767236292856,0.0874106616556777,2.455845486153059,-2.191554554074017,-1.883609916122944,-0.0250904345402833,0.922031933487828,-0.5257160149935074
3.9307927423630433,-3.838551294102004,-4.90812515334391,-12.187908587587518,-6.231756458914566,-5.173827561985884,-1.5877147756643213,0.6966335295248187,4.394532982622429,-2.955707638721946,1.4262897277767737,1.9407387282265625,2.5356987928298125,3.087706733951587
2.955045296865191,0.5869730108947241,-1.3957676707883826,-10.1295046530815,-4.558426024356786,-3.9649078089952265,0.1516549787572485,3.470883665434456,5.680069273246454,-0.7327310687938866,8.560110081274903,5.582139714801333,8.455142257922759,10.734507529879844
3.837254764050634,3.173682864863574,2.106760172978257,-4.619011854291815,-1.5848780050268525,-1.594294372755531,1.8835915728574848,6.945808771161883,9.746664070348343,3.8619600405955823,11.587756865316742,8.846827591576298,10.274383241810703,13.016741664207524
5.8351112832806,4.795667064552335,3.711960782653594,0.5653556432011826,0.5332183717455852,0.6184903473829904,1.6119420012864083,9.075712870391268,9.259850520755302,8.353584446800216,10.40138293095644,9.64095506408091,9.035888181039551,10.517975944977108
6.860961973375721,4.639575727441627,3.235720792096619,2.963106693011752,0.7918892496338534,2.011451399830621,-0.541359154429983,8.758581356922985,7.586228938057355,10.197709797447196,7.628278102070857,7.62132544434813,3.5940977246685426,6.815229473248059
9.137064021079023,1.6124093496946512,2.2316295230405805,2.90889939571788,-0.0810991902252411,2.7657821922220136,-2.363576302058263,6.509118801558118,8.482678057860086,8.673447272048481,1.3292684132177557,4.486910195033938,-7.927205816999043,-0.0140324524874317
9.74032179355194,0.571788243824448,2.5480800408796345,2.487988165426593,-0.4699364987775627,3.366617435803507,-1.5319649145011778,3.946987175286753,6.308843546130637,5.46065913392244,0.5253018732270767,2.671188689698109,-10.087404541622998,-1.0508628424052908
9.399096943508138,1.2062128579343143,4.758889705447441,3.303423187623361,0.7227077778517037,4.036554631952539,2.280437370320109,2.643508393126609,5.408154913833104,3.425935601152552,5.771555593583902,3.5944306616956947,-2.640887077309945,4.557333996109079
10.098486899673413,3.30614602989401,7.803208855944478,5.14387046963838,3.246849046220376,4.677108434256679,6.9845573821718085,3.1567330874888158,6.6610472637361005,4.48563471476354,11.467414597635589,6.799540365606328,5.816342430966462,9.789862475215466
8.617981289333073,7.985789419256772,9.982035723546751,6.513269669493122,5.783488142663646,5.200120252022199,9.592247088398748,4.786495137560622,3.9636588884607327,8.153454942425295,19.79633270549716,10.462791589345429,18.787987249648072,16.82576313892351
8.435653227965277,10.022231666624288,10.298117482257334,6.244550652374292,6.979683328003508,5.72967180949367,8.351042897445145,6.080619081573621,3.260945268597108,11.902609293210196,22.542216270757116,12.74841793561958,23.58935747681605,19.632814865160675
8.614136994347797,9.440183176542702,9.018694394394736,4.636362427727599,6.413961254599149,6.4003018004741214,3.873095219581131,5.74037651207992,3.9072973680344254,13.090206179052725,18.55791336746829,12.98877036649275,18.51117177689205,16.901152261818694
6.649797925382883,7.334512115938395,7.215005102220694,3.215249523064585,4.830851291814441,7.031133218103693,-1.4000948496279682,3.4173938227077447,1.7233402539371667,10.96947403569811,14.928154411323506,11.916922297320763,16.2151563760903,13.59007602894868
6.741362701126821,2.417005111203651,5.915524705318808,3.506682464617725,3.55056132630377,7.143755409950078,-4.819197017404704,-0.04486858252063,2.614228585704562,7.23068578628959,9.521813073259375,10.887560439288505,13.629870733669868,7.869772748570133
5.497740013526266,0.8449857597149691,5.600610889108049,5.9093782218898205,3.4988234583561213,6.383582643740915,-5.078493905781991,-3.09712073327162,2.3428551560087527,4.648851524479444,5.137622760674439,10.717417029755063,10.636714214814692,3.7759361770499686
3.660614448745601,2.826030939675699,6.182590074604809,9.457234770483105,4.518165940081664,4.886446421480025,-2.8032170252104565,-4.453917124989783,-0.1846659506530972,4.885431232829168,2.784375457895384,11.01936302730333,8.947703444513031,2.012360870803688
4.061046619180576,5.353180955469664,7.137922377468645,12.434763974914215,5.436005560275471,3.149250725169422,0.0321612798341806,-3.948994444012572,-0.2800807530091449,7.145661742085202,-1.6839791620982614,10.519304485459372,4.306610114691404,0.4181562118776435
2.005753154752303,9.904633931861486,7.584733893275461,13.281340036874116,4.880263606431885,1.540282709558086,1.4156895167464396,-2.6581604413225026,-2.675775032392772,8.735638550889341,-7.431181245834641,8.089982581212578,-2.9228281063671115,0.2210864337385816
0.3564242395417288,9.534753187434106,6.508860699088807,11.27166644878984,2.3063979911678416,0.0365919271187542,0.5383031451761893,-2.1168840848488872,-3.9385881564988776,7.110927809987453,-10.225392156861544,3.6786238318319984,-6.337255372143132,-0.7975679391118486
-0.935601495211566,3.537067554446028,3.3590805454314343,6.780502709240725,-1.520524794501347,-1.4752197852374245,-1.793068909025548,-3.132976682527432,-3.059367809956501,1.862508245766533,-10.271614623399929,-1.5847349023244583,-6.186234364376825,-2.740212532491268
-4.909053172306999,-2.6847575780375945,-1.2892676852442826,1.1336332142914047,-5.002121783998149,-2.7103433199105997,-3.8339885158262152,-5.099633781439495,-4.310907414104162,-4.885790750326391,-9.01082744262632,-6.123044432762573,-8.10500501247133,-5.447256402731735
-7.217610796022854,-10.859327825844892,-5.724154882063815,-3.92164876144746,-6.818369846525549,-3.004636664018296,-4.195170229517191,-6.423360579154544,-3.0994982302841856,-9.988239438014308,-5.481777398833154,-8.856043803296567,-11.001563866663188,-9.52707383870789
-8.811131498769083,-13.843701894211426,-8.097122043244283,-6.996649954256371,-6.797328698364414,-2.007070028545628,-2.7969170692888143,-5.810948792497133,-2.674220372002086,-11.535045899101542,-4.15468511064592,-9.65927336613921,-12.318833830868115,-11.258505656858608
-10.287148394425367,-10.404024363886984,-7.817373679950245,-7.743376453856496,-5.856322890223338,-0.3662753409573067,-0.7885793922547699,-3.391532679195384,-4.005889595348062,-10.097177108717588,-5.355406584639749,-9.172196100939772,-12.764297057335533,-10.565411166900253
-9.469192336729408,-8.541009681661336,-6.131063281818326,-6.998511471308607,-5.142423572342612,0.4473859725881244,0.4133249874475173,-0.7024141413128997,-2.529656500602338,-8.0041356949993,-7.353053727656341,-8.322155512918217,-10.36265468878774,-9.890238592634772
-9.03957455225322,-6.4487140915806265,-5.22244507475023,-6.213331211955586,-5.182942664039768,-0.7553278684988379,0.1065161418802782,0.5068586771561221,-2.966992064173974,-7.297165838424386,-11.366041698031818,-7.961864547466866,-4.545992249219212,-8.42429122415671
-8.097781463241509,-5.546942119588719,-6.466009811092293,-6.484677620983206,-5.731018364116256,-3.785697366290157,-1.4562376917237163,-0.3298111434794286,-2.398168460344287,-8.078347319288323,-12.282510223480744,-8.652027357283078,-2.9081820219355343,-8.092438888114096
-5.243858242559015,-7.141173707895707,-9.273976322592002,-7.812059720004993,-6.226616530741367,-7.0358361659433175,-3.5439146057396176,-2.171972452692079,1.628079911556775,-8.604882546586916,-9.800258049858932,-10.402104897115986,-5.3849800628848135,-9.313764194675668
-2.360891818886828,-5.5468557855927765,-11.506576238611023,-9.073339468751849,-6.239160013536464,-8.608451682081817,-5.480435773567558,-3.2598268532564134,3.861010977735381,-6.96434109362551,-5.439341453221784,-12.418041917025256,-5.997709327414458,-7.939726943426897
2.1069851901265064,-1.2389429810037356,-11.087292820899576,-8.7459333945364,-5.4905596709105815,-7.657168895340089,-6.727449891010394,-2.530145661881228,8.167576536866232,-2.8347719264339446,2.1951663884260726,-13.248775488060256,-6.200080227723142,-4.285507412284018
4.370440471306353,0.8157923281710772,-7.521103415239243,-5.943927116299731,-3.7087173416692063,-4.830483854550224,-6.707545657842731,-0.3826077478205283,11.475551754909093,2.165841993538137,5.291084884187856,-11.59114501922161,-4.983430458342812,-1.7894467858609928
2.0283802641100044,1.3710339039441022,-2.2212354212090464,-1.1463314213944322,-0.7802042297429068,-1.589562081768115,-4.94639124838446,1.7585045791470892,9.113766346313964,5.760980413171961,3.4270350619933567,-7.347471913193184,-1.3916541305906929,0.1601480850435118
-0.5379716095377437,0.8896299392637333,2.4340840789683678,3.8642246495704295,2.8233846696574822,0.8398521861480004,-1.683950868677611,2.6145234891599345,7.645275624842792,6.758801792475091,2.6299494350361465,-2.017306184573888,-0.4559005505101515,0.2856727078524306
-5.562938607550768,-1.5671242036443047,4.515844523741775,6.905589444219542,5.928526935832361,1.9686322522421384,1.6579938607921207,1.9570565135411115,4.610978394074189,5.785303881578579,1.1508736044324968,2.138343295675856,-1.9324382376788147,-2.1752724242143096
-9.346715043226355,-3.774971406089664,3.5042047246530066,6.648882172144482,7.273530594806347,1.8006544261663602,2.940141667593704,0.5906401348595498,0.3416985316089754,4.48828533005441,0.24284934315996,3.6468747814589664,-2.8532851864138244,-4.218155634969708
-9.378723940362333,-5.875732369829329,0.339818356973149,3.3978798686660383,6.470368678860073,0.4056906615326978,0.7122374132727098,-0.4412077056463461,0.1738402954384755,4.001919707394593,0.7099578189582627,2.797030014424103,-4.142375453945276,-6.299068510798967
-11.14917780671718,-9.36699732162366,-3.3013275814354675,-1.183215043316455,4.40209150605024,-2.096321952746932,-4.4617316927513135,-0.709465569012592,-1.3697447504927824,4.010073132633631,-1.5371601122721654,1.1417418841523794,-4.760497649876407,-7.487909378341704
-12.047173065905811,-13.9025531728996,-6.009796933610372,-5.208676288608192,2.577530154583965,-5.175291821196745,-9.991061639410043,-0.647127215284077,-4.428933101709587,3.158714416455425,-6.1895130953956805,-0.0409547799628553,-4.283204853121961,-7.140657488348155
-13.15577535912023,-16.106435943917198,-7.336938825391639,-7.686440997174834,1.9739088634661452,-7.732075430183845,-12.817675713776486,-1.0589159627965137,-5.410432580898737,0.3985361505397611,-8.464851785456666,-0.9018443607645796,-6.093751102935657,-8.974921067095583
-15.964452528219423,-15.860646323826856,-7.800653138734669,-8.760154594983183,2.4141721418956763,-8.560869358751004,-11.454433380715738,-2.3379056135618352,-8.26743905800195,-3.9254047616815377,-8.805744423658917,-2.7045790361214603,-10.049061277206512,-12.76592053630151
-17.301647602579543,-14.582881536873352,-8.266425552176866,-9.049672943500202,2.984692865748599,-7.169647280817607,-6.915242386942596,-4.039706539002319,-11.870571063280304,-8.18679686179185,-10.169442759670988,-6.353531452149877,-14.159366262371028,-18.63932069104199
-19.208115411460497,-11.388089794239768,-9.205124503899755,-8.896908038871306,2.974205387836683,-4.218975340881872,-1.813964608304316,-5.166894090159969,-13.242758523616288,-10.706172454410645,-11.755991860861842,-11.18868487605891,-19.06853042214802,-27.493896557518905
-19.618043353912576,-9.681634686934071,-10.394414552028342,-8.303458425372407,2.3839218670576816,-1.1041598105471309,1.608867252617383,-4.932241687226336,-13.934055551292008,-11.031803128678709,-12.338773875777589,-15.20838655635401,-19.91118263318094,-29.743627381582847
-17.845350466966487,-9.701831004248056,-11.211490768813803,-7.483097076368798,1.6174329757448298,1.0223464718237167,2.953139595999538,-3.358739954496837,-11.645579416169246,-10.139018097533372,-12.185854085251268,-16.521002471960852,-15.988559916195818,-24.939349518520164
-16.30754654996672,-10.283498911917665,-11.140185369332102,-7.182974911451236,0.8553637074969949,1.968822146415956,3.5600834929229848,-1.2012950414702246,-6.352297315774374,-9.366307290895868,-9.274019293182766,-14.704752346743897,-12.809964726920123,-20.52838900637423
-12.325329806944628,-12.357917282693425,-10.006354093839072,-8.143972344052433,-0.1147538147132429,2.3861676472154603,5.118082102202443,0.7240871228398955,-0.5472158138162143,-9.079728000609778,-3.1667505204464423,-10.925617178115418,-9.207685898686334,-14.371345315869457
-8.792815864038548,-12.082604727444751,-7.854007498528601,-10.099787864788366,-1.4420277443328562,3.006332599524981,8.20972952217312,2.1688319213055145,3.354485525961327,-8.36312875445947,-0.2063977301938915,-6.865547917932656,-5.540398357481699,-10.088511235617178
-5.906512427461124,-9.277043207325042,-4.796138249045789,-11.433847309632966,-2.725291638075513,3.971739072017435,11.89869003133494,3.447214771550017,3.7996350951171274,-6.089618051946491,-0.2411706393828568,-3.525986386247677,-2.6935501512936963,-8.902424999194896
-0.4817156177507644,-5.1585787549927655,-1.119028736113897,-10.14975131492064,-3.17142964751006,4.815314031101305,14.49663906250603,4.845343842698679,3.6191548233287993,-2.353329597063709,-1.1955425924066092,-0.8788581312902046,2.056609841652665,-2.584968982226393
4.083091106653652,1.2863225727919887,2.5269860371159787,-5.530436721115915,-2.368393932176888,4.989170564178567,14.76981932857177,6.102270548047679,2.683326041428528,1.227123716379655,-4.529748041484029,1.6015361840162292,8.438463214561178,8.09560345834115
8.939961649427831,6.108548719789037,5.265945735599544,0.9678765908830638,-0.8958848866642128,4.368838789347791,12.693699866881188,6.565010991501572,2.378510964423341,2.813276961560149,-3.691471581948445,4.243397377461841,11.776765430239244,15.956807469243216
14.369404709196044,9.146215216450496,6.55806185475147,6.52303943483769,-0.0302071040314295,3.298615688305574,9.3592070219208,5.908380981489993,4.42602417055753,2.1247150319340413,1.750562744383163,6.9523950943837605,12.159296463783638,22.074866341798373
18.11795039438481,13.546149945315726,6.719267268924415,8.935049964996367,-0.6478270305187115,2.2552840678354027,6.246176317319299,4.663132692716236,5.477265164403122,0.9292613959395536,9.950800763630353,9.457365249765685,14.690225931106887,27.70429981840309
22.975054040646697,18.477899469740485,6.807774211737272,8.2124566292087,-2.288145271481936,1.5281920252990189,4.389183481081107,3.92052551242324,6.188040517727797,1.5864986811578383,22.73754397148119,11.606113917516858,18.619996098989542,31.53632533077712
26.761843193630845,22.88279237996448,7.836406928419063,6.474197365101773,-3.328885698140075,1.167876270926758,3.90962339951499,4.398376661787669,7.503246750567869,4.860558233766509,29.00161836868202,13.424123222635163,22.604126677036657,35.33853333896856
27.894203967001555,27.0542024869203,9.96661132239728,6.277869908576793,-2.2712547917699872,1.111229097539816,4.130671891164647,5.742617771859731,7.402180136884427,9.045400133498188,28.14400707327186,14.998713439394846,27.513690014174266,38.948117227303
29.36752476901245,29.667132167149337,12.426209893893535,8.742277307558615,0.9178942556229828,1.2642615522028464,4.155354555843479,6.770138238668505,7.257103050857151,11.330531416508936,23.39992140775486,16.365346438913598,28.60937444486912,39.55894600747623
28.7287758423323,30.417110681369724,14.222952262404505,12.914923987029924,4.613468010155998,1.4967815742619948,3.5038417138469957,6.466030250546453,7.759827403607688,10.262673101845223,11.726090583780604,17.43045589201002,25.48823386687791,37.22534762790765
26.55932844511994,29.642282600475216,14.95704573524975,16.73987493131985,6.745379428378165,1.6769313472770762,2.342535833960575,4.812763780373153,6.57608439857697,7.088180414568983,6.055176809311753,17.891777885881606,22.99029071548767,33.95756027325989
24.998696607167947,26.845325376337254,14.959451735098508,18.68476969443249,6.437775911253965,1.7940417840042713,1.131599204898155,2.6917076706084586,4.860058614794714,4.732758055591756,6.863364178269216,17.23950010214777,20.093498903799084,29.19821622654402
21.07322175853266,24.19960636321276,14.69269918234041,18.662992396136083,4.684379278697548,2.0140865078562147,0.0226949280776285,0.9936490981287188,3.3422165911962187,5.290541348318699,9.254912866180833,15.001463994918971,17.480701169820737,25.10202699805183
15.551351880928888,21.726117524875487,14.112292032936663,17.625869397125445,3.476697047449072,2.503262506758912,-1.38175985872142,-0.1760583719423962,0.0011253555609277,8.199241800044852,16.488146466895586,11.19327508046892,15.979507217899966,22.139739250544327
12.301240909017936,19.53533621051925,12.704241404210912,16.391592803584558,4.124487707932605,3.131001590591053,-3.581931963685168,-1.434326339514488,-1.7656699549286992,10.64183846254683,17.452647521022104,6.622437387333626,13.91031638123599,18.995462162537056
9.957045696872282,18.237870784219,10.165185222359773,14.879566803845636,6.178763297918003,3.3993359969764647,-6.406095625117407,-3.287918754416019,-1.538543684554988,9.80199393013412,11.510630479203456,2.6799641277668425,11.716941911219028,16.3814963987303
7.411037561142942,13.631528026433651,6.968295364364623,12.427078069039414,7.822635351393888,2.800365671130109,-8.708488905094843,-5.374184348043395,-2.2671669490873847,5.118237571488756,3.236334149797354,0.6431477149767026,9.27938477490695,9.693625163269314
6.719637955028138,5.664000570522369,4.148437115231761,8.780530538749124,7.344458606521421,1.35120151501647,-9.025058803893549,-6.559796599195019,-1.2393893593013348,-1.2065366634296293,-10.232363144252565,0.9441772556472544,6.404961318836146,-1.4835846597119793
4.30326999504496,0.3843427564243897,2.4608563637941856,4.702783771721389,4.455780609404819,-0.2300235177305829,-6.777342036624475,-5.888182218332927,-0.8555993138715684,-5.752765037593239,-15.096567943290244,2.898063839221326,3.8948661258211823,-7.801506506084085
0.5423462353886226,-2.766256403588759,1.749953278278788,1.527588246865177,0.4407725725873614,-0.9884858764518398,-2.965766655675541,-3.557829179903472,-2.45957670499567,-6.284375439392251,-10.313489262512892,5.021936604129035,1.7084009744268638,-9.794608491458636
-1.490127992631385,-4.712802987648915,1.1714059013223022,0.0399118609024746,-2.853561133484753,-0.5120425514962044,0.404995755358609,-1.0208529928125287,-2.399356690302359,-3.2671753668000267,-3.270111909958316,5.713257884673554,-1.6299685329936542,-10.124330204722478
-4.92215156239732,-4.173439785475688,0.040120985923993,-0.2539554466540608,-4.284936217547504,0.6672469207588705,1.8270427210964293,0.0018201048190213,-3.1661451862834733,0.5326351047505433,9.61012944399896,3.9692994285445344,-6.079272634350866,-6.7640615303739375
-7.392395148602668,-5.656489559791459,-1.5413133845993414,-0.7363825924367617,-3.9859413561648473,1.4579174502030234,1.4542047588315403,-1.136814361155821,-4.278053335393813,2.0470978416035663,13.01329703068605,-0.0841818840757078,-10.200837196131522,-7.6216204440571795
-8.242442901918249,-9.180302582583202,-2.845251447475004,-2.476478342990457,-2.978528113980097,1.077705228234862,0.8552160010431038,-3.409549659274365,-3.803272087080971,0.0504427975509731,5.377117678694225,-5.069695323008983,-14.2393178678199,-13.126873823231564
-10.431640920784131,-11.4515129439083,-3.2176837450937192,-5.282984122394179,-2.327269714691287,-0.3579831553211932,1.5101572708520583,-4.8389156669977424,-4.655172414347843,-4.135483959043757,-2.76664337669939,-8.863812069343034,-16.954778040589048,-14.952360170789202
-10.936020000044778,-13.348275785432396,-2.5899287043124595,-7.855694532619534,-2.52453051014502,-2.0379826185696537,3.384034615963309,-4.07330791474919,-5.387409431263917,-7.905452447527988,-15.35959451948207,-9.71373122838974,-17.953352951228933,-14.61286926198392
-10.694674176458353,-14.03353137806668,-1.4034273486275488,-8.90010996738932,-3.4192147248035134,-3.219144985366352,4.894365744206141,-1.5806773253459987,-5.350726153098536,-9.566898392644887,-19.7168915841282,-7.418044429815538,-18.13557514783267,-13.188843869855743
-10.892694917240435,-12.998240338631302,-0.2003895290403505,-8.225019143673551,-4.510647866755718,-3.804669188457318,4.33027990721596,0.578343533972923,-7.543716490671927,-9.596626528938597,-13.896118912619755,-3.6733938064615153,-17.032663753970773,-9.337390477050862
-9.029420875640843,-12.403201461540146,0.6414908845957612,-6.876257026905282,-5.264085024596998,-4.207057893325292,1.4384988877862206,0.3304997321014848,-9.614608904206966,-9.838582695048638,-10.256024212304029,-1.0685135831152517,-16.006961343484335,-8.439850117937816
-6.930525959252122,-11.985909920543666,0.9045898869718592,-6.212128351561898,-5.29014511808251,-4.701361073176248,-2.255205937133436,-2.703599094272052,-11.13313074193198,-11.37859075562855,-5.581117092058928,-1.25496673353026,-15.166028254039908,-10.657234819863833
-6.333810508739311,-12.476140050078564,0.5055740763835814,-6.740322225997332,-4.453927281714346,-4.996314040176969,-4.644193649256167,-6.809759572492855,-12.785521976319371,-13.154341984871582,-6.337205763287377,-3.679957287226344,-15.06104599727435,-12.787979280776874
-6.078686665296497,-14.38249038939159,-0.4040865727444114,-7.731533198063783,-2.990544815172406,-4.520092709557975,-4.658376702291523,-9.488193255760487,-10.653886938695766,-12.782298519504408,-14.736112447380323,-6.025682419566145,-16.170987590082877,-16.043332012275314
-6.541564652255825,-14.584820437103868,-1.4290521345994662,-7.948185539517713,-1.5517872855383883,-3.150669550551319,-2.9356834942208128,-9.415638625748551,-6.877068406216914,-8.980472074986618,-17.65439114980939,-6.15268611803771,-15.30404442459646,-17.10947739794136
-7.879009336198479,-13.244838286029582,-2.2617308146951807,-6.849461174472609,-1.028672473943848,-1.5989761849175057,-1.1447745560439255,-7.410750468058847,-3.585390749255648,-3.27979359301124,-16.66996987468031,-3.988027212338661,-12.564536975218063,-15.444748162786318
-7.420768743647323,-11.408936622144326,-3.136297201045668,-5.197845661760233,-2.1133780660859944,-0.9325976006981004,-0.7107020559546644,-5.594255369253656,0.1164822719705142,0.8225351945310191,-13.990676808066327,-1.6990777367233534,-9.649598184637531,-13.88293319909236
-6.397484137085793,-8.42451121967693,-4.801592150775628,-4.4823186359830345,-4.791349135063369,-1.5803257811997715,-1.9756898496036204,-5.496678798184417,1.341859739388183,0.7853516059367678,-7.161238998074507,-1.8851240295972964,-5.919392883012936,-11.532199959715236
-5.792620771483881,-6.932027064694383,-7.739121731786113,-5.594390626852364,-8.08881102105368,-2.7495366208594803,-4.197292653257662,-6.748920959700612,1.3820954603063458,-2.5208069293106217,-5.709759596973573,-5.247934597683921,-3.602094622726126,-10.159123956949536
-3.747742873131753,-7.132267531400602,-11.230789570847634,-7.877082004495396,-10.338497617833522,-2.9130258627289507,-6.082584942324194,-7.422992140340188,2.790114519752932,-5.14604745061652,-9.909057750710998,-9.738563075864546,-3.043377638728509,-10.207528149574143
-2.722436018032692,-6.500478789108377,-13.341892381650442,-9.41315122296089,-9.974481673704622,-1.0752493396379543,-6.437761377341758,-5.647829767346963,3.774779018690396,-3.1005830424231995,-8.467398591115366,-11.98492759771357,-1.150673869876474,-7.430429753586821
-1.136552496387629,-5.602549798633465,-12.226090810528978,-8.420161525668636,-6.519166647278842,2.228929662616752,-4.776361300073068,-1.1272741346365232,4.673092563162076,4.391738392764335,-2.940038272403911,-9.893462018717354,1.6010950892756135,-2.0987233614182697
2.161319966208396,-3.5870831703347776,-7.835180069943792,-4.696145019647758,-1.1599515272879142,5.106231281865948,-1.784690515409773,4.565930067483009,6.147232766642532,14.140402985013136,6.760598751836004,-4.332692559166885,5.955476751493768,4.075048904543405
4.020416866855125,0.0103633844416967,-2.4490114376912784,0.0309255792966638,3.624571038515789,5.594542883623936,0.706005725126035,8.961942548740627,6.4495698768633085,21.3062606863878,22.913953352764107,1.4347373867556668,12.570434530823263,11.9319751056981
5.435859093782977,1.4556134154249774,0.7258606710636268,3.181039914299923,5.394947660746381,3.074529823052689,0.5954010734851156,10.097105473698072,6.393248611390634,22.814339336755243,26.783357268911285,4.086598836291138,14.430848233918178,13.263095549391055
4.699586336016959,0.8421758194347333,-0.0787167320469777,3.0795099759586595,3.290595306467615,-1.307119743546775,-3.028810764020451,7.467567774308168,6.732954783184502,19.16186303873515,17.693301317859742,2.5200440280006893,11.376793047499628,7.209917628931477
1.386760187860672,0.4876756499565342,-3.826831834868252,0.1271613668422508,-1.325522578064593,-5.495373293605102,-8.89573442089662,2.1817027466363914,6.412807936098991,13.488888083006705,7.897942405345341,-1.5795542031779606,6.818277707055802,1.7372875953832834
-1.518889069084161,-0.3429505775057742,-7.514716670422718,-3.466875304922341,-5.705907120064556,-7.922601310961376,-14.031872790086997,-3.5642392814585584,5.875789198462288,9.058607612174152,-6.88183837939013,-5.128367242088899,-0.924037396665818,-5.0904435226783145
-4.173414968616499,-0.4301972497370663,-8.515852370581888,-5.203609327006696,-7.502700237064285,-8.339836998346716,-15.626309376962572,-7.419694861116394,4.640233158649157,7.27653091881848,-12.867585262239867,-5.80773818904443,-4.342848426700168,-7.545140799355866
-5.689914215295035,0.5871711231864334,-6.454262356780413,-3.981109693254176,-6.168568310830199,-7.568081622361486,-12.926468553497196,-7.927821465304319,2.57602214327902,7.463781610754394,-7.672481285729725,-3.4308849588643326,-2.673246452315816,-3.9446393523854097
-6.287659841244651,-0.7373283551115367,-3.131838234907544,-0.7588376299721737,-2.963383733262063,-6.603221731801408,-7.657444787479967,-5.268545081317377,0.1685463355333351,7.954105389040727,-5.210962807460882,0.2657477475014183,-2.3526420031765567,-3.828013665716644
-7.903048061374567,-4.243877323539133,-0.8059307711316244,2.228826171802922,0.2556210901218954,-5.935025247142695,-2.671084274756158,-1.2061604181522387,-3.276259652307113,7.28602391600462,-1.882722044662484,2.979653131279994,-1.57707805466437,-5.698690301935794
-9.133054906454086,-5.6915626835198,-0.4600388445762764,3.0753613133370656,2.3356114006977062,-5.52329585098799,0.0094492543070003,1.9354535974958864,-4.342234213791811,4.755171856007685,-0.7937426566410726,3.2537011848321704,-1.9829569271975267,-7.143109386115305
-9.51523698081903,-5.503644295322692,-1.4517849576625004,1.4326942317126257,3.2389677280145417,-5.140702628542819,0.234280335325165,2.7667968620377064,-2.7586530804892804,0.4795848713978614,-4.006835519701487,1.0862190468198651,-4.481883163573827,-9.659870966077126
-10.191293505050991,-4.028014559836329,-2.4924764846807523,-1.4554419390287965,3.5544645184329884,-4.542778295490439,-0.6747758181765873,1.7777982756590474,-1.2339701021538094,-4.625712791310434,-7.578703672996166,-2.3689039232252167,-6.90849014463347,-10.917836083077368
-9.735229348475704,-0.3439553453176037,-2.7966862060335007,-3.794069865090658,3.836330361151028,-3.3595466823704605,-1.0801657935156168,0.9476859012723508,2.897433313166664,-9.003223663602963,-12.986291952113625,-5.560968345288142,-9.936225527552946,-10.785343846175378
-9.16609644394152,0.859061306756848,-2.413682024873768,-4.477594579790996,4.348485755855473,-1.1087793166124928,0.0707638521174294,2.1986492006459804,4.986880493780325,-11.063130907487206,-13.77357966897524,-7.270470532114804,-10.693539144471098,-10.696429526547682
-9.694935090697864,-0.4936787377111561,-1.788196874632273,-3.654011408587128,5.141203742685029,2.3761324133908017,2.97265590378463,5.834935707109002,3.570237359621892,-10.16804906001435,-9.106255654351258,-7.07363674620268,-8.702986221174106,-10.138112381689265
-9.456467963078303,-1.347126534148261,-1.290413028610097,-2.3646954488039444,6.091991418798719,6.442184984572657,7.024539618188773,10.20617436706454,3.923044696289916,-7.262188030849315,-1.9563666172633345,-5.467741063893959,-4.215988700606874,-7.582314696778224
-9.091690334593997,-2.703581168129596,-1.17056970271729,-1.6795450508862455,6.843142812339401,9.72096966810004,10.959879698638447,12.897557721435549,2.3212224406397155,-4.426392486711591,9.590499639930773,-3.581570009543162,3.789043927214058,-2.9757074391778526
-8.424581995253723,-2.728869495170456,-1.6782937013644783,-1.978370660339704,6.900807270200236,11.018973522191716,13.20834811115724,12.517134870948976,0.7343198735763341,-3.5148566194725674,11.93063378058154,-2.5029187542878457,6.37163010125693,-0.3149232946418315
-6.3205325146888685,-0.9516179131967624,-2.8890171519632286,-2.795925669790445,5.9910066838750895,10.267446137555302,12.684571425326975,9.67577056232702,1.2926610140440329,-4.922348543920756,3.959657747089072,-2.574722535587988,3.145538982191745,0.4716564372262853
-3.8105995762176414,0.3451425681137783,-4.316999082768048,-3.235837711460185,4.334381857847092,8.554482160898447,9.63708768758858,6.434618564398473,-0.5501527749332555,-7.482709926736828,-1.8963742954383032,-3.204765278813584,-1.0742991459766773,0.097391177545806
-0.836613478143782,1.664067635393888,-4.91958830544294,-2.632436839005848,2.471308147886825,7.104339857293077,5.746026088234135,4.732158482102777,-2.0474727822043244,-9.499585349515025,-8.719273546249012,-3.41505417910454,-8.475473310335147,-2.4429887209773877
1.6437551019067795,2.8524546547112872,-3.817953845029013,-1.0189965961820435,0.7939126037852464,6.187295022716292,3.090289795082759,5.047312488339829,-2.164109392140157,-9.950513848248043,-8.881364692948562,-2.684873187509691,-9.366756291435136,-2.459308792466927
3.295228160377429,3.562022344832503,-1.187393996225392,0.9193476834505034,-0.6417087197855427,5.091231530562823,2.6666723839795985,6.245843411401793,-3.116077235405075,-8.90744406155731,0.0824539633386047,-1.316965418889831,-2.664314911529761,0.1614188988724879
5.041412186729026,4.654221351996216,1.6650887998192214,2.3810806550258,-1.7688120144235615,3.1905337367794093,3.7247444459429015,6.569856532409029,-2.897390150464053,-7.08096956212831,3.9553643807666408,-0.0161671220043135,2.65570993573893,3.6665421850440434
6.218833296216843,5.999338940685146,3.334474614531757,3.0509826517578578,-2.1217634116635704,0.9326630003819628,4.53968322392082,4.922927098994785,-2.0062390369083567,-5.16835886262032,4.679532321026255,0.8176012602887734,8.907578172802351,9.21055441569956
7.105428818539307,6.720755878540443,3.5531136967771517,3.247021839077849,-1.1068311007072964,-0.4203250023128273,3.91729171150306,1.5373359398141917,-2.930770383738234,-3.638823218309499,3.8353716236528186,1.308964615376217,10.196076701447383,10.961937522519994
6.858316503863985,6.8800797493266375,3.3310282231157924,3.47217402550948,1.1294331617824689,-0.1328243585296054,2.052457532245631,-2.3240646866491783,-3.7332506156966847,-2.9091364327430327,-1.184531953250421,1.6646765892751283,4.764236785988481,8.49205619066933
5.345532273872684,6.325839319648115,3.746824741218964,3.8276886235285295,3.222516356627775,0.9965258277862876,0.0540137265683675,-5.294124608499551,-4.01496865955467,-3.3821303737616333,-3.816263190076541,1.6844193747752223,2.0836046366006267,4.63543505248464
3.5902412463103053,4.825515381745659,4.629843977767656,3.9413872810734354,3.385183560308647,1.1699403335371397,-1.218361852484085,-6.754082677314454,-5.730073612542671,-5.048788235121856,-4.338264874832549,0.905034804222094,0.5785043020981211,-2.1446359053113557
2.8159186605631947,4.26828797068844,4.66071246674062,3.55850311521875,1.074403162758072,-0.6787648917893989,-1.7752659641010275,-7.032797627768563,-5.248181039236947,-7.009561168947036,-3.501372396495741,-0.6913290244367296,1.3984544417649458,-3.103588686490638
4.677030686881507,4.676310434067805,2.983256615198366,3.1630681260788,-2.0539554356068326,-3.637936454336735,-2.0859354539002126,-6.874881376886378,-2.587172225487801,-7.592200231375326,0.1811068644912285,-2.1883167661554843,6.341294734746859,2.558265947228888
7.286109267462172,6.561708359679578,0.6535110180403834,3.803611065654151,-3.1485763097807737,-5.420926931693927,-2.3313932401049264,-6.676926198608834,-1.0513345036020048,-5.319869312853465,5.212523581625075,-2.1250841224156822,9.44687835141995,9.556026194611151
10.221428413482254,10.50949426405476,0.128991852418034,6.039014438471094,-0.5803159066619958,-4.4326093585576825,-2.318857293352224,-6.202613358519157,2.845292688844458,-0.1557609108128481,12.063140742762185,0.410178901474131,11.37731515848268,20.18601974711989
11.705255501835012,11.634456318030226,2.912026442108157,8.954494787486254,4.326470594018348,-1.4248063382863574,-2.14677493869176,-5.064741162471302,5.303276175293977,6.004493432971131,16.373665631437493,4.851234634533931,12.2538119590886,23.67398333782934
9.248422958607147,9.912195197893288,7.569435718018909,10.398728378327991,8.008766793735045,0.8727520643855389,-2.664434533536664,-3.4846998139121563,2.804441663175225,10.205444957210588,17.611821756695765,9.184429899947784,10.875944191347337,18.7737039908258
6.398211277851814,5.864905739259879,10.35782611504363,8.57295094882767,7.459482736184613,-0.0534048827133268,-4.8574598236722295,-2.44676841408714,1.6209903440807527,10.25439808639944,17.17078963169205,11.027081360323905,9.04994170363492,12.54255256740965
2.840405140324548,-1.812118971250153,8.30070805606809,3.723825115569952,2.7581819623591475,-4.352148676458098,-8.527419491278605,-2.8837132342407354,-1.0359027163679158,6.259225808397785,13.688220741306608,9.11794011863749,6.341564868621476,2.077112127903173
-0.1185883654826178,-4.673177814889053,2.0331677616382398,-1.6507300285551558,-2.913560783872322,-9.549186120157891,-11.685295194668845,-4.572653964926365,-4.0301530904444975,0.7336514614657528,11.039437810220292,4.290980356450968,4.510427532957713,-2.036082027970318
1.1246567892402362,-2.44758337716061,-4.336709229069575,-4.485276206438275,-5.835456185402901,-12.358561566546705,-11.66359768389846,-5.925242497279944,-1.238988391257667,-2.9073895948177686,9.212971657055007,-0.7461972434602284,3.941841272057374,1.5606716874468407
2.337861151331156,0.5474153940758341,-6.4402615196415525,-3.4200135037176373,-4.663249933869221,-11.003598047493956,-7.298389643686821,-5.139679381270884,1.100703890455769,-2.4959802357260585,9.098443994566418,-2.84989607366113,4.415877380334511,5.185897301695668
3.430987955897764,6.332810592233682,-3.143418212834636,0.2467609810556936,-1.1994662172132935,-6.21063864609957,-0.2635438294853411,-1.8250105863382675,2.7006571350011948,1.5207782004426509,11.80615592536403,-0.3342782673660665,6.6036650710993,11.661729261737062
5.689587835894787,8.269722162965653,2.7589304055542136,3.720555009673236,1.4874597808118608,-0.3293596818204474,5.855392934956898,2.422702845718444,5.499224866018148,6.384845660083439,12.29171106336471,5.8749558223425655,6.958338433721555,13.44042386627542
5.589469332698976,5.627885613149923,7.131077264413413,4.947059962301672,1.747396998919745,4.414487477209965,8.202134594666623,5.163821143826551,4.011458714468637,8.78368292748288,10.918344285991704,12.679697525270306,5.453562999237295,9.26062883937674
5.315170446587296,4.419663262295436,7.88307996967063,4.013704831405949,0.4395096431398428,7.080952966072278,6.845720882377087,5.054655827248441,1.2469057627096145,6.920607829902448,5.675178035228742,16.645336280991174,3.0344564853910763,6.693306645670631
6.931444604998438,3.0766194882301923,6.156830556571325,2.65671254731824,-0.3123983760338493,7.971261366934234,4.650050441517239,2.878464604742147,0.2298390449361105,1.6013804071501203,-4.8026723607714485,16.019191192851157,-1.1815771095974363,3.809256205339593
6.541205802013559,2.3541909275621298,4.593922925442293,2.51870584956667,0.7278626304735347,7.875763930580796,4.893899549346876,0.782692413249956,-1.214263871246698,-4.313284675815408,-9.56287906516146,11.580916145694395,-2.9556369492168946,2.434163640117007
5.216068252992312,3.0898961894234422,4.686926995824666,3.7808067757081982,2.9114915826629124,7.473751605343723,8.610884054690128,0.4767510458231712,-0.8571198278133159,-7.706177328854553,-8.804357195688995,5.8672700418042645,-2.0906636252208246,3.723077701280544
5.116749433299882,2.073421951035852,5.770584917433075,5.253671800260169,4.584601598699081,7.235600284066503,13.79916761673116,2.025698228463105,1.191367763626774,-7.077504001070547,-6.423487541541368,1.4961114988273847,-1.8546054301881767,1.2801362306941564
2.6265668261761803,-0.408079980659684,6.288009376535117,5.609900739964659,4.7382428621901225,7.530391354254318,17.049010570110752,4.205314948490521,2.175275697173958,-3.277971946997376,0.0771435403022064,-0.1805233135408617,-1.3220374647177615,-4.470442613432366
0.1876826797082899,-2.379854598173178,5.687984696667295,4.5094733691905216,3.7792217721641466,8.535583968014677,16.190520178696076,5.879763431277628,2.7110510547821955,1.323974496752803,1.6120786649962549,0.6609620303172239,-2.051857226644551,-7.759300972682776
0.1686849994249258,-4.337588078958183,4.915778916149773,2.664396391635715,2.855510024958116,9.960945284608837,11.868571755628846,6.984612597360408,3.3934157757768357,4.547911665705312,-2.432506734125228,2.953502207171418,-4.585088167964911,-9.493057494727944
-1.889143707143074,-5.595035700413747,5.133625636220962,0.9657694723398976,2.6128411875186286,10.965729085801662,6.937045505644509,8.22259803683273,3.5083245466532564,5.673147283697741,-4.278396753022377,5.502436496131787,-5.022428456104179,-7.548377466012288
-3.8244503263711103,-5.796674717409325,6.173540293492211,-0.3954656424431704,2.6396095579645653,10.551700111787124,4.2906659735130415,9.906511226526826,3.741856132079938,5.394146845975784,-5.910781079203326,7.2599683205721055,-3.6661488165396015,-0.5846001017041731
-3.26430928558257,-6.1366517843165775,6.407582526197144,-2.0071989065204203,2.001280604460364,8.256402727727835,4.837474101366666,11.21182593559556,3.933331559639152,4.729820116770173,-6.850965323348473,7.175985589652058,-4.667287278084375,0.4938406557805104
-4.491551394766906,-6.365264242742041,4.195474568806159,-4.518761642182245,0.1939209781174433,4.611115021163091,7.033727512858369,10.667680473866737,2.6219098686505897,4.025326690131102,-6.026511020619213,4.223732115486316,-7.555726226878014,-4.116450964711597
-5.243053230976791,-8.022531902319882,-0.5076079110172818,-7.837063870754775,-2.4009964444884337,0.9114192675039234,8.13754241300731,7.483221110805962,0.7457267412342193,2.960539886162975,-8.028653931273334,-1.9543553792268893,-12.90255491182281,-10.677449904365874
-3.477586479265668,-11.443442836843692,-5.89079057012219,-10.96316655523807,-4.860805364850092,-1.6465896314934212,6.123698525781066,2.463282540894564,-1.3785948434011326,1.3708572660392582,-12.675262190564052,-10.131611053433272,-21.67768079451833,-21.691856360543788
-3.9178123925960096,-11.794297420514,-9.55179228040899,-12.598107355420025,-6.436040925158304,-2.851160981868275,0.9016047758601866,-2.3979867605834784,-2.955841723515217,-0.1783945334454451,-13.875188313239503,-17.345387070249316,-22.1278144590979,-22.45797505813881
-2.760188484777315,-9.189462307762874,-10.113395353588952,-12.00294106250538,-7.010725749378591,-3.619534526456933,-5.8278416074542045,-5.356978551719876,-2.5810256030918217,-0.815370317311999,-12.137175952263776,-20.233146161981924,-13.735042107903135,-11.831471182853054
1.1397914661023525,-3.3228565817271383,-7.888346092070882,-9.44033903695468,-7.025887896953189,-5.140791810759556,-11.717163160489186,-6.151368992950496,-1.7832400343245776,-0.3468915273447361,-8.285608220147633,-17.261473878427132,-3.5198658392110898,-0.5101674012057826
2.558173573813236,7.113379359083567,-4.303697823369434,-5.9253635835079965,-7.032870251226418,-7.63932475028067,-15.009575697486834,-5.955613542787496,-0.7101727720657406,0.4004201130238578,-0.9771143180879888,-10.08159051243612,11.345416002528122,15.069607839576143
3.5697637969093976,9.938154799977276,-0.8496092252826477,-2.582850829617352,-7.260447015454777,-9.903500895528978,-15.184476637374535,-6.149322831591206,-0.0202993122804106,0.4872251754826369,3.3361437024521354,-2.5953968393484264,16.689502015526706,19.78570581259354
2.406111512486293,4.72423431737786,1.5288711944591604,-0.1621340109158255,-7.513872986353006,-10.243891418839269,-12.936706970290412,-7.062789411923584,-0.6184836322899733,0.1621681334574578,4.501368066181159,1.7801675419140386,10.719370923079635,11.163442230997624
-2.468138881021216,-2.222920619115961,2.369768769195716,0.9867101717194328,-7.469260531114263,-8.250204007816905,-9.794844687190013,-7.868395732886455,-1.28029424653817,0.9857653585680975,6.26624219630567,2.3986283861312447,7.0947143655462925,5.715007705734712
-6.67917145081067,-13.857448147484009,1.4454539214264734,0.6597866373657784,-7.112615951109961,-5.72190611824508,-7.594375899825685,-7.685157367308996,-1.9698547449616013,4.237354449344342,7.179819734195426,1.2225671663240505,2.350613540434172,-0.3527613579591815
-8.162184627600475,-17.56591841475314,-1.15419111549315,-1.2785986920700465,-6.895596599648671,-5.579373922094955,-7.781174978763305,-6.770747258774323,-2.430545722884276,8.990564367757628,5.816578112141565,0.4806910095798429,0.3587953773697328,-2.7584639089889285
-7.086207731485262,-11.984341105003784,-4.664182401118127,-4.578137643095784,-7.353606063458132,-9.320427988156148,-10.592996039507875,-6.528903818069901,-3.152716247243617,12.023685385740944,2.247342465530197,0.5165443470033741,3.2939054337170632,1.29694613866745
-4.202193363594402,-7.946926020060224,-7.582655209610797,-8.197994896526358,-8.433082669736292,-15.160296844099015,-14.563016650919236,-8.16410694347871,-4.110191481863391,10.232366562403918,-3.0838586201837046,-0.0498304888441349,1.5880586842966866,0.3009962542666278
-0.0469356687586399,-2.38577966506657,-8.338228097701911,-10.417382605648084,-9.188028907332242,-18.766543231562995,-16.984472577582935,-11.191199034997084,-4.793975047965736,3.642434356368696,-10.557865092849166,-2.1679583708081047,-3.5757650545287065,-4.307466062513715
1.1401177144765695,-0.2123272754342361,-6.396420737916328,-9.726316515898253,-8.328514525011842,-16.39852652470632,-15.476729605999507,-13.334557633430991,-5.718471864854272,-3.919978250870684,-13.584492084977445,-4.669334269245947,-6.5208818345180655,-6.009504864061235
0.0009169176714645,-3.161191301026455,-2.897445220750125,-5.98627939125719,-5.338481942239926,-8.048350676870461,-9.798871777278842,-12.202203454179063,-4.920921808386988,-7.589084418706776,-11.574695133236728,-5.055612964630842,-8.574300258453352,-6.416696872158127
-0.257965524108637,-3.536618427007618,-0.0831248773279043,-0.857338044730426,-1.1911635361495154,2.0898259332881626,-2.4705196425395126,-7.455725494327497,-3.137264795447801,-5.502733441868143,-10.766973982437523,-2.1300000327049577,-9.266071804163024,-6.077992575747131
-2.632066794315283,-2.773473445051104,0.2712902201055822,3.112496087581631,2.146440236291673,8.422169676698964,2.628111410608078,-1.5446909099944597,-2.024323086916351,-0.4949061952083902,-9.634935418242296,2.263722022579312,-7.656597179420628,-4.0727481291391205
-3.410134553801122,-1.802622052473912,-1.748984748472136,4.228895651492676,3.195583324320033,7.945541971478748,2.931883393005628,1.855579187557706,-0.4238885113327564,2.269662479059889,-8.14230594358095,4.437340006206679,-7.136631979586986,-4.367705450989503
-2.2592115544007774,0.5424475542817441,-4.181775855303648,2.865204564864285,2.2143271553798494,2.3388854025122683,-0.8441903508052562,0.6134010643498229,-0.316296205080913,-0.2658538427511381,-7.139071363668413,2.1390822235229745,-7.448418574536862,-7.074336179839857
-3.402405565685317,2.2829303704117936,-4.69190667443289,1.0904126026105851,1.043862034085051,-3.4182673965721904,-5.108424607976073,-4.104406825520833,-1.3480744044895243,-6.477248101935276,-3.54001672085508,-3.1425247766735405,-6.931959746663703,-6.936530793460655
-2.8502084599757227,3.553114293264057,-2.439389438640577,0.974344826828026,1.567966817912457,-4.752881245068256,-5.996330696173741,-8.581408620363604,-1.165732609146571,-11.58721966987175,2.5680463029761613,-7.170450778995167,-6.1780654483892565,-4.548101416058953
-1.6143318622935985,5.153584282903061,1.224928000671464,3.005602884983295,4.07640559716775,-0.6751564863265545,-2.177869340487516,-9.273814496055977,-0.993475769240911,-11.775688523162035,5.7723319657234144,-6.506422118234664,-3.4550296567789065,-1.916228601124854
-1.1702996210336258,6.7414735154587815,3.8275718734388366,5.940286581548806,6.982949809021477,5.861722110631104,4.324109054819609,-5.374980675334271,0.1130364911257906,-7.127231060370022,6.293212375801998,-1.4335795992123028,1.5563132307029304,1.8842634572506696
1.528346860436682,7.929032680806567,3.716993171229669,8.072986351285465,8.186552708629007,10.464410163782928,9.84457307118842,0.7548925978694179,2.457754983704895,-0.9948483035904871,7.807576255415636,4.374682851977585,6.464275790840114,3.617641235717128
4.251375208093035,8.711731738448657,1.2691584528082496,8.654613801064976,6.915200047396155,10.606427106649695,11.80537443971701,5.525257716695471,4.094184526167647,3.218481355854508,9.296022566109352,7.054565145568202,11.663682690349852,2.887702012413575
4.248889523182618,8.09896680125366,-1.5999839287182844,8.186195821942638,4.466429695305471,7.2582935844613665,10.287899263186503,6.79594816415741,5.563176244186589,4.690361818556187,11.751829496509844,5.643098225538281,13.603509712463978,2.62678628500104
2.8256001756758606,5.861563026990388,-3.115527806902365,7.522804344698875,3.2176893596598743,3.792529732767727,7.441279256142733,5.21772065234548,6.563079594347981,5.030675320702473,15.738208733809335,2.3519234436714536,11.486676410666416,2.0449298395901985
0.4292148189003116,3.73147445881353,-3.0403481830247703,6.866845980813813,4.752428176191316,3.2144931216352344,5.546745231883105,3.354897982154217,6.861915344202493,6.028147271142974,17.76102578448749,0.0901316838474848,11.495931502394829,2.4352375714407457
-3.959200369273733,1.4779617285345126,-2.62049770827958,5.704052808467011,8.638900416369273,5.936904366982884,5.437451128300688,3.501142507186703,7.586618451260251,7.791029070175133,18.013798234705632,-0.1762489717104447,12.8343368598748,4.285254586861986
-4.7153444240458,1.5586427688270317,-3.211480132005576,3.663384991699787,12.784583949170877,9.7326242566991,6.347555406851738,6.000936285174139,7.917678723375094,8.977617072747734,16.06470518098239,0.2394334957569937,13.379737927242104,4.747219881414975
-1.1190531815633324,4.570564391703144,-4.856852027075821,1.3151400670363629,14.97608783673726,11.69528783489056,6.937600020617511,9.274696722907764,8.029227680413603,8.506070862247487,11.024648521199794,-0.3001568809264716,14.158228998776805,4.132754177562392
1.9417249054282515,6.998443858185015,-6.106937946897703,0.00546270833087,14.33977575951112,10.484448397149952,6.424223373866956,11.26557388190032,8.360871980884225,6.768535392762471,5.082381355730009,-1.7703674725906158,11.641059032288744,3.948788351833568
8.059590068831321,9.500289798819594,-5.260967859297315,0.7935470365709607,11.6655162598136,7.0579312414449324,4.945541454075908,10.971862820332964,7.753003400817509,5.164818998787463,-2.156212277279424,-2.53743642737145,5.417800625983928,3.75112029314482
10.986692733540943,10.445296854653554,-1.9538888447822047,3.433118575180607,8.531597255227016,3.499427543255335,3.103311038821163,8.898729169852144,6.91754693452723,4.639181010686426,-5.523144825225016,-1.2501607348732922,2.8487124656189997,4.273654338419586
7.383384551194386,9.081487588775095,2.319857360376876,6.324817550522076,6.075157207599643,1.168061718198221,1.2714624354868942,6.329374659526634,5.731347058045684,4.835654296474381,-4.137683012097559,1.5319699100057207,3.5138715893867363,5.775972727257518
5.166778224251044,8.342528078675294,5.251175258690709,7.545977107503038,4.378104039939307,-0.1709897143510717,-0.687612044378433,4.254484478638572,3.383993988432948,4.6506996802312335,-1.7335447266073774,3.698290799969672,4.026632439114981,5.258362014812624
0.0355580081006342,7.673951002371809,5.4830652156930295,6.188119736148957,2.79673118698282,-1.6394893851808163,-3.1050225230139787,2.8502645960193256,1.0293032373999065,3.4314518557822726,3.2399720239658856,3.5217301453198537,5.846312410887477,2.7457051678266158
-3.3366670994378707,6.495770263650324,3.6245944957112233,2.99841267036075,0.7734820917869678,-3.8565015661969526,-5.921362696668884,1.7147666787691875,-0.8560566175436058,1.5097247207908664,5.207758642554495,1.173189052931427,4.79561703687524,0.6938555936941548
-0.5797165766018877,5.221049038974451,1.6854282454778242,-0.1401147224646006,-1.6178685418018368,-6.273386966808723,-8.387934626372978,0.4244169004048892,-2.489011377481103,-0.3525062563706873,3.472704278109638,-1.6325560694952816,0.3068000928343344,-1.4603955595685751
0.2030232957463429,3.3442401146125684,1.446193598491492,-1.4940056011908354,-3.772414459903489,-7.770045579876805,-9.36984099997632,-1.0984354454060608,-3.7006666976914673,-1.81483735128478,0.1985738480024128,-3.3371197533115247,-3.10726206655633,-3.097933465292493
2.7757485853927077,0.8605621122505532,3.1292323419358024,-0.6006904997270635,-5.069778641862655,-7.752572074915252,-8.07723895277753,-2.5538025189967133,-4.774416883511724,-3.123086898824695,-6.283296544646558,-3.7890759876402287,-6.411442629229,-3.78565858683773
4.00652747475204,-1.1890110078417448,5.390841095207945,1.5330866677839765,-5.29512886965146,-6.593274328800537,-4.689402082419189,-3.421762610431881,-6.23865097609506,-4.53124967791616,-10.35094139834435,-3.9075196024879935,-8.827064589146943,-5.607234681199036
0.1655154244469684,-2.822981300721916,6.492700464339677,3.199628228450601,-4.678849402197478,-5.079747995417211,-0.3891210105470701,-3.186335687493491,-7.435777734285998,-5.816441589304084,-11.80199916552532,-4.364223972507554,-9.583468609581267,-8.382225595181433
-2.09690405155175,-4.322546705546845,5.597365534051921,3.0867816543154345,-3.6794648837248136,-3.63347203472132,3.2510459673209224,-1.6206993704957655,-8.276166204462994,-6.538538948396766,-11.954159482737078,-4.823983669243249,-10.76191736743634,-10.612201712860724
-6.201139064938984,-5.435185336162908,3.197207855751438,0.944565797453682,-2.7944334236554,-2.2173524680943704,5.1368685643796805,0.9442684529985684,-9.241074167078484,-6.718545105648525,-9.326114375282668,-4.510907070190757,-11.962887917068151,-12.605054402249134
-9.708212343045194,-7.113434891963218,0.5267961344516765,-2.4859883522317383,-2.5021585213965114,-0.9483243214030468,5.2197629101321015,3.6143074650606657,-9.603042605895295,-7.048299045345534,-9.47110630555738,-3.3536718846476425,-13.276006751431348,-13.532021064216638
-9.777128722418858,-9.391113258607788,-1.397931043150802,-6.038618898840872,-3.204551251391841,-0.5235336436933187,4.4150588598758285,5.364850732843184,-9.827580563667055,-8.27940776676746,-12.476513516179953,-2.352026264690398,-15.031471939196967,-13.054434153602116
-11.83485467638597,-12.897624049397448,-2.341861919494108,-8.744401630314814,-5.053488801714182,-1.7346120745463214,3.9388517832120913,5.696696738813926,-10.246090490024631,-10.43115467183382,-14.15665480636746,-2.6902420720970683,-16.734442745900804,-12.803921525076913
-12.645233147405264,-17.972835228655196,-2.722565290734296,-10.233036200270693,-7.751983737838013,-4.439738365141699,4.499400220483355,4.981118713714482,-9.84150266776111,-12.702589394998022,-15.621378145182716,-4.484634193559234,-18.52909056540776,-12.536775788184
-12.037484905199149,-19.09728770703557,-3.07147075480994,-10.817310707169824,-10.536581581662592,-7.150475410642449,5.890450473595079,4.140507437261082,-9.11031952060046,-14.180739228397336,-13.997692926632554,-6.446741782104583,-17.791153440864957,-10.92334618489443
-12.010298345022695,-16.07494479403027,-3.582003906710826,-11.203272483571954,-12.417415745025256,-7.911174860463348,7.271953006312556,3.907117141166829,-8.165098758872377,-14.549465585628791,-8.451811203747008,-6.825538638136717,-14.209007701364518,-8.13025245117554
-9.582722211318163,-11.518351405773146,-4.052712602416564,-11.862625518803863,-12.552836617997333,-5.834956245918953,7.909434809963018,4.314185513649201,-6.2848873459737975,-14.065537162800378,-4.32589476884051,-4.770041796692144,-10.750941922761704,-5.067405778612378
-6.3240467443246535,-4.050740660859102,-4.170065777539043,-12.43092284649433,-10.591769537012985,-1.904794463554896,7.740746948727656,4.838981702729212,-4.1634705833738215,-12.987628142880904,-0.9387863410882258,-0.9475128418872468,-6.8146657632040455,-1.5390027524124326
-4.678847023461449,-1.1307470574475478,-3.82557634872873,-11.753224545928708,-6.904242504586436,1.7100023776001434,7.2502517984235855,4.959381596222213,-3.0140809602248755,-11.284867125097112,-0.0812094198059316,2.960954814197791,-4.846619446049214,0.1494982202558551
-3.3126932960433035,-3.465299616361721,-3.1859137956400314,-8.865438130274502,-2.633819863955548,3.19619359341414,6.762773574654977,4.510584318479314,-2.470793096438988,-9.029181691391578,-3.0103791966425315,5.307593998533488,-5.574081738693471,-0.3906428194026687
-2.0539229451450605,-3.923991487683468,-2.492944339443653,-4.272890456891455,0.5850352232642386,2.1770964972509548,5.884231421823554,3.546197024647768,-2.048190038346839,-6.896598746535223,-7.210054708865436,5.266413581542118,-3.692007555924553,0.1924237077424787
-1.5260851325767897,-4.206635867115113,-1.8399699131948744,-0.2432252751648675,1.3477200473439197,-0.3817773706422791,3.7589401564896097,2.0273174623306502,-2.4635960093174507,-5.898265796442621,-13.609653067505391,3.063059009427535,0.2717711506290873,1.3837805349399257
0.1941861755413946,-2.85667812602298,-1.188533487193138,0.5994212265515984,-0.6229584118952918,-3.0234025360337187,0.0203197089502751,-0.1518712063886766,-2.69926558146735,-6.3186130587482845,-15.533616534654607,-0.1769946918313278,2.3478100435611835,2.322279137656025
2.3050272646091177,1.275586657215802,-0.6086014703860156,-2.4867854947874517,-4.049441348926512,-4.549606884193007,-4.480629280300518,-2.788059593159197,-2.7194789149437004,-6.956486206037984,-12.176331265016524,-2.8144064986560693,3.2823476292220857,3.5487068155814603
3.6810043520048215,2.728080060340736,-0.4242683849083244,-7.273182057365591,-6.680144816020453,-4.317308865474947,-8.020324618379407,-5.193003035833981,-3.872694638783638,-5.780102192372564,-3.8346998628440137,-3.392027588693482,3.279008523958037,4.764584721867156
5.922593594890961,1.9250117991028128,-0.9883110512317216,-9.909399738254614,-6.679767962086734,-2.3336945666679565,-9.288618105763645,-6.65352363684923,-5.044127051829917,-1.766996599868672,11.751497555864054,-1.5474608192979398,1.6457125125071446,5.982177660248508
7.735556246126453,2.501488454380448,-2.212480587617412,-7.842977190766729,-3.8528245429088273,0.6561332427497373,-8.48981825795724,-7.190618060765182,-4.269320759437494,3.727208862722196,20.03993387833848,1.4745729412474642,3.645431642533012,8.520892238502585
9.402014820131152,3.593105280589592,-3.341466202328852,-1.8346502694382467,0.2888039671256823,3.34539691747755,-7.176139315006663,-7.729651381118514,-2.141323555755967,7.647543575260218,20.776530931926377,3.444953886683926,9.516666968200097,12.46461463879334
11.956202202441816,6.502950022604433,-3.3239932454257017,4.757500822433734,3.698382743887387,4.5614058624941975,-6.877794955224296,-9.241977473583033,0.9311925261838472,7.750222754240486,18.008844556976136,2.8323410341558715,13.37066045976444,14.432574469163278
13.717640052798624,11.912169844413592,-1.5691238519841093,8.797205486488613,5.229154587794519,4.091384438210714,-7.77730960240152,-11.537487176018857,5.8294413965676295,4.809209975271257,8.030010248364341,0.3011150866852379,16.182965541337555,14.495595443929368
14.91154097514112,14.08432115626998,1.5680667099615864,9.735483203846986,5.147381073735477,2.806706696292248,-8.687657018347409,-12.985240056406802,8.57284809427519,2.3183073475203937,5.426784532557866,-1.4615895247807442,16.85205688579706,14.531105780158766
15.271062531024828,13.14348419576198,5.050924369553372,9.477535918807204,4.422267736996832,1.7904640549698154,-8.34838975920563,-11.70581233623932,9.563054960113035,3.623811306456081,10.711061620632758,0.2047040903893435,14.178731131263568,13.827501759062876
14.374589777489607,11.28271078279176,7.97837524416902,10.147916432676189,3.6379088455026074,1.2701135567175177,-6.739405473166349,-7.320381736413176,11.85340933099329,8.907137779588155,14.333730785782707,5.601502098938148,13.46052566071867,14.820627197471682
13.281797935530104,7.219411865453427,10.221284874111811,12.077953606307505,2.6685432942740634,0.5173617953674903,-5.0803627080002345,-1.625853787728147,12.211027981015471,14.828966537909366,19.528341420741032,12.158281323375428,14.294416999726517,17.885674588263402
12.131966136269996,5.16544711878076,12.290321975476653,13.8707681913157,1.380361699330504,-1.1044851222551555,-4.5270572805896006,2.5665589305451544,12.616029373461934,17.33182335144852,19.478593113269177,16.339151933732804,14.545232013789091,18.083722813759078
11.152409951110467,5.444221759072265,14.553030220883889,14.150999817818416,0.4511943394650197,-3.089260852898347,-4.948163455441284,3.510141025571292,13.531215462644466,15.13730463882618,12.669847154480344,16.358535297803424,15.195379604545336,15.771479883983863
10.244959539199956,4.932639170136199,16.54884928672447,12.970263918630954,1.1646418092052944,-4.000839605169594,-5.101953994454615,1.7448601636874104,11.891084095019115,10.741522941632306,10.695613951418697,13.340365883246378,14.833358664748827,12.95827733953851
8.640662322640225,4.617102098820504,17.1073979164684,11.44458670922968,4.1014157897456265,-2.8554678114606054,-4.030360394143674,-0.5151567797157091,10.480461462588824,8.031234593928255,12.12054883750866,10.038769666035884,13.256223590183296,8.685109695293756
6.297938697725302,3.003335512478766,15.27191455595571,10.240923595101812,8.001335999842807,-0.205376164897129,-2.1254343886056155,-1.1695014920817477,9.63546802426428,8.819742939311968,12.883903609634023,8.493344432612023,11.999130224271426,6.930791188440011
3.4698769271160685,-0.3617777586249909,11.258705682928678,8.739805452610181,10.21769220455374,2.3294086276395767,-0.6271393950094168,0.3577762758224896,8.150399218840931,11.525272754191452,14.93411075582061,8.77261095800783,10.753280387561167,8.138413807214553
-0.2557046901959162,-3.341506686177775,6.547589882012153,5.828323825908644,8.755809077686408,3.662861084931354,-0.0535307412146339,3.0651439946341816,7.085848474035671,13.019493372404945,12.25170379953076,9.610895194841564,8.79498502183446,7.635394786762519
-4.481515855964116,-6.348463372678125,2.8938244361528644,1.3891019887074665,4.170233238726133,4.258880729556678,0.631352672827405,5.369706925911178,5.744325457479007,11.615109197297322,4.122323480160558,9.843342349375362,6.295273087616123,6.266368036931468
-6.534157320186079,-7.1515760675912246,1.0332026945403363,-3.225987469429559,-0.5700948286390402,5.415527387420125,2.980494113366606,6.141009695013681,3.7147612424603382,8.293079913538238,0.2549524473437734,9.09873143154881,3.578723513925717,4.312232570202131
-7.15056716161196,-5.177510835226432,0.2214525026994032,-6.287428120260052,-2.350629542911064,7.5660320294917085,7.0961221216165375,5.1141454366672985,1.5179283579263738,5.29046455862391,-0.3587214243148038,7.454753434183813,0.558919235071147,0.9922470020186628
-7.305522200949568,-5.093982725786969,-0.9311153278494092,-7.153314613988298,-0.3407589341576837,9.494921919337171,10.902022662728722,2.7779347363796445,-0.6636954978304875,3.816956039069602,-3.2543171011355883,5.013121545977474,-3.3609585471613155,-1.6540979467252204
-5.227364354754272,-6.447094619958132,-3.06542826665365,-6.55983155140354,3.6065546844388088,9.453966194466105,11.72820771384233,0.1113394940627552,-3.020558376914272,3.2409778287907702,-6.883902792849397,2.12267632187807,-8.192639623119382,-3.744445473122095
-5.278841678349905,-7.022275403166802,-5.4382412255852906,-5.568403029157174,6.812778682169798,7.1093216375482005,8.849748838746839,-1.7411647769607903,-4.382180313997487,2.24829993405287,-10.44754989503117,-0.2636114439711745,-10.901208493132266,-6.279508535297215
-6.641709785860425,-7.6167231117297565,-6.682352905095142,-4.497891353099869,7.962122943191096,4.247241303408988,4.434620529083023,-1.9808305958599155,-3.192607525666556,0.4050648515281647,-14.580510910791348,-1.082143316860921,-11.352490063630391,-8.892744652137338
-6.0277949015977015,-4.125951414706613,-6.236956623828348,-3.0628735613828137,7.580602935271141,3.3406272733839995,1.7989869271104446,-0.7108320039664857,-1.0946279972928517,-1.57778379634569,-12.260317048970949,-0.3994804751237542,-11.075039966544594,-11.735087613330911
-7.513305124293188,4.060440146082906,-5.026320338372404,-1.395257957611367,6.729684651826037,5.258794380326309,2.5537537675520667,0.9757686826722676,1.768819904277699,-2.900264740454425,-2.8306672910964976,0.028481165774048,-9.29820145403491,-14.899369186149908
-7.880714872546191,6.821527950895238,-4.687024556241589,-0.5007662094003891,5.670087978776495,8.342524142717947,5.37553402976685,1.7065289326378412,3.906236909404485,-3.6090815287913465,0.3769207514586372,-2.0013086974329326,-9.4369614158468,-17.369090601666596
-6.949935903276064,4.5792853966744005,-6.086958313544466,-1.3731299871349891,3.974895142735884,9.78559039539816,7.50696896548885,0.907427253654154,2.9709580058225304,-4.311123791289429,-1.6932415280315412,-6.928823829014611,-11.826246242270315,-19.11807862363531
-8.61593542415666,1.3462431527169212,-8.574564600231243,-3.698520883438954,1.6569009535749544,8.048217021091368,7.369446087099448,-0.7125028373079143,1.384806550435656,-5.134266627822413,-5.132635934010179,-12.53180731433353,-11.315412561080649,-19.273390630009896
-8.471756508800127,-5.037141169596593,-10.63969028025563,-5.78831989154321,-0.3516012266541182,4.082757528817773,5.674032129786443,-1.810388026098705,-0.2241874274264061,-5.319728193573269,-12.712820519591226,-15.63975910991538,-8.488574127269182,-17.449148920049733
-7.946715341525845,-6.534505076802487,-11.270369178392835,-6.109957260097298,-1.1390149530353888,0.3498936752351973,4.12531377113261,-1.646307983846219,-0.9271107538029716,-4.048004952913077,-13.666844455419277,-15.08491192017103,-5.760580968648574,-15.386487970922545
-9.005691866507401,-2.4044416898215624,-10.690362116014615,-4.9040954446514,-1.0606482615653867,-1.3122637386514209,3.348232431439367,-0.725425112032017,-0.2355991703036749,-1.5742491020206408,-7.326462452248582,-12.959444293138644,-2.282575030668048,-12.798276660546584
-8.01416005205535,-1.356272526621537,-9.90045872027548,-4.0588106691888655,-1.611693282795759,-0.9835203494536522,2.346857384057081,-0.2175909566558012,0.6189142707279993,0.7234618192077704,-5.731240672890796,-12.702238793204693,-2.4377588669513512,-12.02474736954404
-7.57104383093246,-1.7068595905703,-9.651660751003163,-5.169841558418447,-3.7714268621581866,-0.1451637326146837,-0.0093087234769733,-0.7510960912442393,1.981569683561096,1.6070733009305798,-6.844134476709145,-15.709115766696671,-6.897973565587116,-13.614071090299928
-7.471838342737373,-1.938841958516543,-9.893034341692127,-7.7054103407993715,-6.558018473171337,-0.1445889125414474,-3.255354972454761,-1.8007588578358489,1.549070332032244,1.2459860934296216,-8.791671968952473,-19.79165095278048,-8.14510269268774,-13.21334675182558
-4.32693269740916,-3.3469967423663123,-10.07630540383576,-9.219278742341558,-7.559455731530971,-1.1989308905188842,-5.415011168987846,-2.257512249772489,0.754163032634338,1.0434125357029131,-13.568413739923145,-21.093453929977144,-6.9799412293126855,-11.330941882650718
-1.2734074324379507,-1.141455312754238,-9.796572745992147,-7.522750313194123,-5.19117353584701,-2.676982838176176,-4.961311474406944,-1.5505742394426392,0.7843908033185099,2.0793495869928265,-12.568154204501845,-17.671293713235862,-2.7245311091908118,-6.651867627574083
1.9944699731932647,4.935758041003632,-9.054472031528745,-2.748461162951859,-0.5038775844540524,-4.037458571640098,-2.621944249338945,-0.1725361061790771,-1.2761423863984305,3.7796596853635407,-5.422953301869319,-11.296444638067776,6.313888091495251,1.8660886876835887
5.756899874200695,7.701318699105037,-7.988727236576715,2.6504509366829154,3.369970994626001,-5.313619954153758,-1.0414495260905705,0.8642773117725433,-1.8322197354697165,4.294519205725372,-1.3296331579599792,-5.7913302089264285,9.86093908735538,6.378034923108457
6.425605630754822,7.848094449287295,-6.525331136525843,5.90685356563975,3.778372965209371,-6.754495736809815,-2.458542191192741,1.0094145423555752,-1.9846779391178249,2.314716770011568,1.299328950427498,-3.5801297694564878,7.977992258478275,7.01667195125561
6.65114016886938,6.70757458565278,-4.395980101692974,6.069599550737056,0.7907292049348733,-8.219388652154986,-6.574211478008895,0.5985584723600752,-4.366433980478297,-1.48952151218991,3.6854335007552073,-3.749741209851905,5.733517178225095,7.959452160374377
7.493118150236016,2.8072297295501274,-1.500387971209058,4.460385458465716,-2.9344775548100586,-9.110253461493969,-10.644706453798982,0.3947013919553157,-4.670104900026777,-4.880001750353621,4.29487927430713,-3.292308387953046,0.8777058075786383,7.557653244833283
6.474980165608696,1.5456484272635125,1.8016104481691428,3.326483039241729,-4.477588277909515,-8.930835955846575,-11.722423585417369,0.8272600126869101,-5.503418417428373,-5.905356111891699,6.708668924013954,-0.1121212426860722,-0.8074866584052415,8.297384490588957
5.870330409592839,3.044351576157612,4.800597487843433,4.051221086834971,-3.026396894797412,-7.834144308602561,-9.016470327425218,1.70420858013793,-7.105439286909228,-4.381917212871237,10.836567634689526,5.106195465156059,1.4156673895714538,10.673087312774133
5.344420913481957,4.130080728728185,6.875120037494206,6.328474898773937,-0.240748464253734,-6.545996760637042,-4.365191496125391,2.5537013070718686,-6.588639734234792,-1.7067182148779132,11.776142568028332,9.702515516026054,0.78635495143194,10.61185481651488
2.312795705305564,5.99335369513685,7.86988520009325,8.628683825592827,1.4670887302804658,-5.741221290519491,-0.6124200580116366,3.088073975949925,-7.475925202401562,0.5076465445470753,9.90607449118858,11.435624291671786,-1.450865764033216,8.598550487899354
0.27709725769893,5.257247087591948,8.080398070733224,9.297363698304686,0.973035457147624,-5.523789249243251,0.5576630486665799,3.2752009870989127,-8.017859940205362,1.4395906556468034,6.93992270925783,10.14028211799796,-4.012435862147387,6.263033988508656
-1.042231075992497,1.367904593265467,7.865063029010113,7.474608163628154,-0.9951074733594254,-5.524259554162988,-0.4234267195067573,3.0658343240179526,-7.320851124184915,0.9127704263881532,1.8896031012372108,7.391324363087879,-7.920488409275885,2.92893786971181
-4.361271055709382,-3.0527512507718804,7.251134044672263,3.4639003541524502,-2.9587438447771888,-5.446122644164099,-1.7469942034943315,2.25463841542156,-7.860708073703763,-1.1977982225882258,-2.2807852895245584,4.916573724310467,-10.105483702673258,-1.4537484494610124
-6.459914570955727,-8.943982722937742,5.941215739198288,-1.42457941240259,-4.096220741036568,-5.398726741923902,-1.759937853150408,0.7503915817394997,-7.0252802249146935,-4.881968284994215,-5.33120412233965,3.40294717085866,-10.416835382709284,-6.796064153930151
-6.5667763390632246,-10.896388070343836,3.7838762658159615,-5.410085101003165,-4.59136672437209,-5.581239863648214,-0.0237376705647385,-1.0307542815280648,-5.69137579959284,-9.221682195317271,-6.090964864623706,2.5565250843018994,-9.70213486589376,-8.585923149942346
-5.754438141158841,-8.178272648028072,1.3029465141274983,-6.987901348006833,-4.879440657267303,-5.635866485472697,2.6974532056925185,-2.1865620283575105,-4.643804905830545,-12.130354166767994,-3.515989338408281,1.936112066412136,-7.148031267583893,-6.353305136085082
-2.629534079155261,-5.256699375232003,-0.2805113629404978,-5.6120306496483074,-4.885217150422104,-4.487242172351127,5.216782530357342,-1.907621967598189,-1.8873016200732968,-11.51739767565645,-1.0374247705124433,1.5631462887394534,-5.251929863517135,-2.5132115917137936
2.195230417994141,-0.6987554603586167,0.2659890942367724,-1.9690020083421764,-4.147000201676832,-1.1263560110569166,6.7570310797947,-0.1363239753288638,0.677071767200813,-7.1649522860292585,1.9267235198352717,1.8386812741498983,-4.038033421809045,4.224640555531934
3.7427660859498033,0.8592045395835332,3.227736477633673,2.344197926423135,-2.5643132009632907,4.189391455374565,7.295440701377167,2.3288067958278944,1.5278129905923026,-1.4687944486720284,2.446205564730757,3.0455421016186506,-3.789378064620547,5.701267108775091
3.1061532423953992,-1.4632136759755705,7.475325645956397,5.580245166761923,-0.7855743887859212,9.505211588000186,7.323707692166216,4.3984266527480855,1.217891391036594,2.0183610356462047,-0.3638797929276469,4.943151130787836,-5.212596709142793,1.1563871604669835
3.016258871243389,-2.196578975962247,10.935014011801726,6.612224772966107,0.2707041550424698,12.224970988192204,7.30281877262486,5.38978496033528,-0.4783070626878648,1.2303103746848532,-1.25271510798449,6.717725229898257,-4.7778887149447895,-2.8840538680082206
0.3515601135826158,-2.515707502681447,11.72963691034231,5.319069627518156,0.2340431911169886,11.035846305424704,7.2464646034286275,5.230492409866388,-3.287924645301183,-2.8566984040808574,-0.9803674546309036,7.292868074332514,-2.605514112308939,-8.413106870809246
-0.5722712989736292,-2.111738545198238,9.231839777357653,2.4703570094717424,-0.4514649299988758,7.098160236707034,6.749835449980189,4.115529744164867,-3.960787828198749,-7.130785270091641,0.0528139707874268,5.895636521579652,-1.3414369750817725,-9.688944778463489
0.1243082435549913,-0.1279520609253919,4.381010838427634,-0.715530897413406,-1.0360883532785188,3.3260524753628093,5.43649378513992,2.1546904609968767,-3.3018636147333384,-8.868721003037233,2.805514326289433,2.6363812553851567,-0.3681636210923297,-5.460164276763135
-1.9161918263737163,0.4420809007939774,-0.8441162167317318,-3.0701339038693654,-1.1218001505837294,2.195665753292176,3.4298347499119703,-0.5185161055923437,-2.99784527952877,-7.634581335611177,2.0778136766576303,-1.3166331912795606,-0.8908259459954914,-2.8145261876408867
-2.252626971490403,-0.1884901933118787,-4.414302140298078,-3.855723318571528,-0.7887712197863466,3.873117908427989,1.3905769542205064,-3.341693790285382,-1.064550832244589,-5.035958676544922,-2.2661090714175693,-4.2819855693732345,-3.429640821285491,-0.2476138673388565
-1.8805218151366567,0.0133332547334368,-5.162471382900266,-2.979248815163341,-0.2174925716933398,6.250676617824574,0.0332074193008486,-5.248260959657671,-0.3302947428752996,-2.865656696608984,-4.703426407495906,-5.094584449258761,-2.941841497394678,1.232728464273793
-1.757978998677329,0.5773846973842653,-3.221226973416063,-1.0192258532200515,0.6028552955834794,6.841212481345806,-0.4456286451816909,-5.25495630168609,0.353993345061078,-1.5246478178360237,-6.1588309442455165,-3.8382346992159695,0.4850161985306432,0.4485593395257786
0.9685299922039112,1.7589155937994527,0.1604142585813064,0.9925734893250652,1.7034598467221556,4.878527951268884,-0.4587699958634155,-3.288027654752389,3.131360853371992,-0.111868216130019,-4.902825326446571,-1.629603612029149,4.828571349585816,1.690438335451241
3.561575678501903,3.8965875238188743,3.2865067771777143,2.051892247139061,2.77283316400909,1.8337327207844825,-0.5343825570548839,-0.4437348419503664,4.539174317171162,2.1687348838286717,0.2594331220950576,0.3480898912845269,11.222476687070472,4.514445981673982
4.2927916844865335,5.422648002431889,4.802821240332083,1.751422042917432,3.1406441924087063,-0.0277540660621991,-0.7612095965087873,1.6649274995219072,6.213441617811037,4.852016663081761,3.1076775209297494,1.638142311428675,14.470635677373124,5.8765630031827545
4.523616992969647,6.418906227751887,4.196946321519707,0.5807935587567155,2.25385350181948,0.266034342522266,-0.7979602029111845,1.984982044057423,7.600669027490424,6.492221316105928,4.1260999899812925,2.434557464030622,14.11298995932236,6.360608773651406
4.085716470239124,7.642012098650614,1.840394203911796,-0.3351406369229153,0.2285582353706168,1.4945446199323378,-0.4452200170202296,0.6643232407141006,7.062746140471708,6.0954177117046,5.302482798457579,2.929415420372294,13.83142308004169,6.1989874468317785
2.744495560114953,8.791961977159673,-1.2689527546006438,0.0208413485052574,-2.0432262310689038,1.3233125458069068,-0.0806809194215425,-1.1685261924655634,7.64936282533693,4.311904891720356,5.4262955747136665,3.001950472932052,12.33595001316803,4.873607736020709
3.037659299787252,8.362673434659683,-3.820905251329471,1.8211840274472308,-3.355148066005917,-1.5505490201545271,-0.3320528790968708,-2.1833917361409405,8.522212449436294,3.227435157414032,7.589867674012383,2.6664428990712103,12.385231164600343,5.292654659381981
4.68965658990168,6.244202875448628,-4.541187121516078,4.199767877163701,-2.893437018211152,-6.035615422144009,-1.245737771292745,-1.5667492828889635,9.532607427863896,4.836772598183124,12.001405578683766,2.6316417829357803,14.539971021820252,7.552087306990505
5.472354227332852,3.891617509825372,-2.715022367853024,5.7521623093631895,-0.7465560253085073,-9.307810528053745,-1.9469960951334853,0.6797687352192234,11.488926268784228,9.393219251868864,16.4572087335574,4.012629665526674,16.472351575349112,10.405722067569249
7.396238432913148,0.9553741982945056,1.214558309391741,5.374516009389716,2.0528632005646017,-9.04574689230521,-1.4159241893368133,3.8173192585607936,12.766002284087508,14.922625070720764,21.661635919555668,7.187150218870087,18.97766962695244,14.57261439797148
8.32733548094596,-0.772174161004639,5.5007375964774,2.887969306392762,3.9880879417760298,-5.398890706046238,0.2465470323335736,6.668278433094301,12.778190116220818,18.311955745549355,20.995936774009536,10.979763895724588,18.00002099598161,15.91302401188554
5.976512633304672,-0.9024624812054752,7.892359305168625,-0.882723938305503,3.854309574448166,-0.984209141838555,1.4720826802292135,8.090341271289446,10.485759439646523,17.27257396658016,13.571473198624924,13.30814053073933,12.94780087586916,14.06550855107672
4.294115185500393,-3.0885339347474225,7.107190897709124,-4.532823247124753,1.5286724184670533,1.1585255912601653,0.4799532545494358,7.567632123537081,6.950998606096696,11.889870853909414,4.694946892326177,12.960270206283916,6.5957594253245295,10.071752702774653
1.7232055170825855,-6.9976922378256265,3.867242691094447,-6.730154720484812,-1.7669893870868378,-0.0439138793852436,-2.869309859226888,5.625732032187017,2.8680246854624145,4.722156692213275,-7.419952295156543,10.80769303612987,-2.2099582477729167,2.703740929598452
-0.6169725616754397,-8.027100849750246,0.4712584364696255,-6.803873661767696,-4.032254850627105,-2.975934950507572,-6.493767658227682,3.6572137782410503,0.1086986212893628,-0.6880681921163259,-11.393761182329438,9.094538358543488,-6.14858593205702,-0.1932848433649736
1.8782839710692845,-6.520899959072067,-0.9274033228782556,-5.027666217950795,-3.7025281613499104,-4.828770052963236,-7.616387490004968,3.0708911349123724,1.7816572142541545,-1.9935173902451384,-5.625064497058673,9.32254429317438,-4.372910947514408,1.7636314623882718
4.480419429784964,-2.466617077882219,0.0741585039522902,-2.4370876408236413,-0.7707156661755263,-3.932768852013624,-5.160338126829807,4.279330019422261,4.515843411629174,0.5118072314376008,-1.449855689729707,10.767821718483011,-3.7880908237505806,4.568733235798361
6.964748630843649,5.248240515214258,2.042723687501727,-0.2157586476598609,3.0482689392663787,-0.9113335910653148,-0.768599190736829,6.327236678173854,7.566665968785726,4.19141260335828,3.9908227029793775,11.151172574667529,-2.6195692621486355,10.174063094781234
9.385686578048215,7.537912192565922,3.168758419865455,1.009071122823073,5.404140443286799,2.1701218453480493,2.6029296138865448,7.544908835590391,8.864117052157686,5.929646691243335,4.491246699597873,8.86216538882067,-2.9303401300465306,10.59974127035225
6.515503849927438,4.0893493847733975,2.8592372692444314,1.45986385021358,4.989401241164757,3.6618311366642544,3.260337347665498,6.769410427699611,4.80260513967797,4.218069702465506,-2.065540234277946,4.558500855661741,-5.820213055424655,5.030759324702918
2.5114321324381943,0.3005921590039317,1.9873921036720572,1.8361720701145785,2.553112415656898,3.458794214159987,2.116781020073404,4.160632770627316,-0.5191155676223361,-0.0642936962779003,-5.619895287123408,0.5647141199570314,-5.9718350913490506,0.5019440577606181
-0.8009757723698944,-5.950793365930758,1.6947258488640884,2.568804251696932,0.355486963179402,2.5849351481105884,1.5803596938508877,0.9640860646802594,-6.521445483710656,-4.676021853723476,-7.954388935688962,-1.3284445982419086,-3.962666627611636,-4.877866459516558
-4.1972282669239895,-7.607511496808152,2.0575710208281706,3.352751974245592,0.3584527890818805,1.9458383722679715,3.103801406780605,-1.5352115523213072,-11.102904542437347,-7.902845097219114,-10.58050507546322,-1.5108597972913245,-3.230365672405794,-6.824788707491679
-3.674106156103401,-3.652617439520201,1.9858638904355672,3.3902548275409288,2.563703576027088,1.5902771383401344,5.745266845415024,-2.9639820823502063,-12.249092201270145,-9.735811937584169,-11.943763659505375,-2.0932720513802963,-3.0159420999806925,-4.039033464569704
-1.78288814736564,-0.8990864288282634,0.4234033784079827,2.1389543848737773,4.937941101753438,1.068909384775779,7.060978121895772,-3.96935659648674,-13.533042124755893,-11.463424117528312,-14.22090378539616,-4.857267798233913,-3.2105763998024104,-3.517452097086122
-0.9440979516331548,2.4154098765513003,-2.389414199819612,-0.0989017926323256,5.120971056700782,0.2688515566939955,5.419451659196618,-5.509310195437422,-14.089782238483238,-14.192060201082596,-17.255734724412893,-9.588595944772608,-4.361826191807999,-4.123283960549658
0.8411970983164287,4.530723926282967,-4.858130905238888,-2.251856073759555,2.554949127303267,-0.2954900305215133,1.539113247069352,-8.00207453647495,-14.670796159959089,-17.65123366136794,-16.6424952788618,-14.258504251617786,-3.8457409054681286,-2.9258740145952467
2.440331688181809,4.40493103740664,-5.254969568498431,-3.132221176933122,-0.8132641382886803,-0.0230885432469136,-2.137631367475784,-11.000315372810256,-15.179819997288249,-20.27156918185834,-12.378194756749313,-16.70164044532722,-1.6390604639639117,-0.8797072237639036
3.549690967221348,6.431399319904126,-3.101749551590956,-2.127528776238549,-1.9752719821509928,1.0905511972011013,-3.5786857896214173,-13.523920558321429,-13.66935978419016,-20.374492501029685,-10.144718265289756,-16.164985220368948,0.1807864974391993,3.3236919403083567
6.432215997492914,10.05503215193425,0.4597981265953379,0.5334676542320196,0.6683387560418694,2.4526294611284456,-2.8224445384376224,-14.694730929448076,-12.064168419310326,-17.435997008683565,-9.281166889037417,-13.490772736334549,2.124681368399561,10.14966239282347
7.081730541820741,10.315508669814218,3.487676843887492,3.976238455667648,5.860522755179311,3.548758829170588,-1.7293939584548284,-14.231160354699966,-9.739268044188464,-12.453939508010734,-8.059181485711214,-10.143342285533087,3.22838390398163,11.335147395261432
3.188663126456179,7.571111265879669,4.430381468649557,7.055226124206349,10.285783071233247,4.457935655630841,-2.1871944657355016,-12.573726683957544,-6.769604076138864,-7.250182114308295,-7.518895984763268,-7.242479341355768,3.1018780481077863,6.61844542186098
-0.9678853647916502,3.091285190325576,2.785478114555076,8.670971099142246,10.963040394273737,5.523026340440161,-4.465345623074192,-10.621605686698755,-4.279923150248133,-3.322849318055198,-1.940208307660248,-5.388845518340876,3.9045946300731953,2.4330895362675307
-7.502935351976208,-4.207035771798964,-0.964724577117007,8.023826672330586,7.313496265912967,6.528060503965783,-7.129184580572243,-9.187454267948542,-0.2654944660959033,-1.061339932476958,9.18805055254338,-4.983392370504532,5.389172238843205,-3.006291396586942
-11.554480518626953,-7.16536640171536,-5.698119880308301,4.895416343358821,1.3653272487912318,6.467371555029452,-8.414117774470732,-8.432787003368471,2.6783185064649797,0.2493069077535992,13.800948675160566,-6.240486891913118,5.971680697680467,-6.29623635474437
-8.619745883682041,-5.291722260155062,-9.908338232393866,-0.0965314420291534,-3.8519501341613527,4.463863784574773,-7.700704494297845,-7.695943218372708,2.988420767355038,1.7629115479055777,12.506150350108252,-8.684937246035304,5.9362933401056175,-6.3105956246445984
-6.024787765400154,-3.715397669615721,-12.0040390423225,-5.504520543573374,-6.313125493766655,1.0358498346174585,-5.816607887008182,-5.996003068919936,3.562827587835215,4.222459091463641,10.028880601480786,-10.826674625830986,5.18374541461547,-8.233196863805922
-1.4526083113372228,-0.7239442126549426,-10.947059862428931,-9.503793708523428,-5.946457394398383,-1.771604052788689,-4.094704158517878,-2.974995881963292,2.6527577585362283,7.4350213731785,3.838544685032803,-10.779369499597111,3.4098488902101023,-11.081993952296008
2.3063758152813403,1.931711703137667,-7.0449125373702,-10.67235320522784,-4.142767799116131,-1.928510933520469,-3.20962315936078,0.4930217897497062,2.0920362934135577,10.373523308275423,3.3711535644037256,-7.625647011392433,2.805583654099797,-10.26502639693593
0.5030754315122582,3.630667051466901,-2.1571265610321277,-8.669691295193081,-2.548419754302053,0.6040841037604903,-2.841484515729279,2.716713844136501,3.691329439891646,11.859632950622496,9.509178984222835,-2.357123111076909,3.4081869236543123,-6.153024742562475
0.25874699951613,5.852221066457051,1.2356258198697525,-4.371488141194279,-2.1188575437881214,3.428625757639741,-2.3039027261303247,2.478987902563601,4.296671225224611,11.41115973389833,11.146618152707346,2.62683838997614,3.412966421385586,-2.897685844452875
-0.2585396604057213,7.981744441716177,1.6737299712249154,0.6315008800550554,-2.862809178128003,3.489628417203771,-1.3937951251196985,0.155500912196433,5.079527684037032,9.650115709693583,10.176231532660536,5.210371788217239,3.25649312865705,0.1965103875383887
-1.7517217102571765,7.7449331684113405,-0.2022206764818379,4.823123970574295,-4.085642466089138,-0.3632151069191085,-0.6396079447917193,-2.410183043442731,5.220239341994886,7.894196860033065,8.1816563528194,5.045944155329353,1.848558317951184,-0.043481933371451
-0.373152642896857,4.943876517609231,-2.1475684501986643,7.331307738027119,-4.796300060072306,-6.314184213212425,-0.7762385151118543,-3.3049610399652645,3.9307393675521687,7.160566648979726,3.3281476479703005,3.584001543723116,-1.1789921546949331,-4.730173180758014
-0.0204119878249844,3.693366706680101,-2.0974936399179844,8.024941972144344,-4.158524964425676,-10.96154411062546,-1.968965004430399,-2.0438906895219366,3.0627641397648966,7.356749172055045,1.859352090852532,2.709808800794484,-4.718520513177868,-6.289601677340061
-0.6603196702031336,3.637319650688306,0.2163676541458983,7.289278825118331,-1.9690464677635424,-11.858240180683326,-3.4663610868482517,0.1876233427686013,1.1690164299725896,7.378596499268025,3.903172215164474,3.2436885049120754,-9.151964324396529,-5.435462091010935
-0.2714925102400926,3.0002658224145944,3.1689260955630223,5.782111362336002,1.0462709041321876,-9.021664941740957,-3.9757128208335226,1.787746673106236,0.1790679447888758,6.096110270700539,3.745144268789647,4.536437640291904,-12.120224514887994,-5.613322347267493
-1.4057577938231005,2.542431104624741,4.693541133184228,4.267592412891775,3.472863831534676,-4.385710602214836,-2.5045614668195784,2.318806085939264,0.6307556218734243,3.397847635295175,2.538431495393939,5.302653683290888,-13.304289047789151,-5.509779589558024
-3.195054821523613,-0.1619028189728467,3.985317980541178,3.375583841757054,4.050653245266485,-0.0878457559385079,0.9098710233287955,2.894125404782581,0.1804807794503609,0.3707746888816547,1.7993397630245656,4.7993418031989865,-13.477572819415045,-6.53503219391
-4.182917508595422,-5.443653971949328,2.0187802795385696,3.21563669099333,2.595230380133813,2.755357942100545,5.08745797429531,4.957504084631699,1.0273970237926393,-1.5376999007490575,0.743262739548464,3.35863891132294,-11.893027936187394,-9.085280069766632
-5.751908332710438,-8.31115199450444,0.547374567842617,3.1285693730555337,0.2049412401320616,4.037104283255319,8.323185045383541,8.594382617750158,1.4972069501853813,-1.6138474154763325,0.6086962007854235,1.9983119433635324,-10.448379558384897,-8.46464519148418
-6.91557430269764,-9.085344937829296,0.5437107264982792,1.9944737068661524,-1.5530475984704104,4.016658824246196,9.370333230805675,12.03179453528544,0.5101490784829307,-0.29271191370335,1.5543599105131598,1.580002239980793,-9.115347695409582,-4.751215734138956
-7.277452956973934,-10.658386333355558,1.4163830953783485,-0.8983910926371195,-1.8736440956146936,3.008315674842919,8.161352143637043,12.928188940082538,0.7065037671161674,1.3448282054185796,-1.6062693876381695,2.189742845366645,-8.535289193303022,-2.398764667379877
-8.40348272856898,-12.12490057981084,1.5962046193677182,-5.070039166149666,-1.3012677888606916,1.5906870993658728,5.79686530727076,10.390024294916962,0.3175280592808697,2.4167984134663385,-9.004927433149742,3.1239490862416446,-9.25648528814142,-0.6101875675809012
-9.066339260263025,-13.196200110032892,-0.0550535560389171,-8.939912569898508,-1.131471310891257,0.7110595921793852,3.830995649585475,5.928284389127231,0.4181667582246329,2.708879648754344,-10.965854458050648,3.432047957419272,-8.36923292117039,-0.6433023070587192
-8.720042366921447,-14.1528979613826,-3.175304403266132,-10.891898632528733,-2.16977457828623,1.1721012395357526,3.35012012577392,2.474638089384573,2.252102166357233,2.575388605583502,-8.016983138459779,2.6427903657757525,-6.065485617014724,-3.4268869926874785
-8.681654864058197,-13.024458994504002,-6.029920351751876,-10.472960901229852,-3.998038606215648,2.831694772633984,4.428238324829632,2.26051425203508,3.7967851029675392,2.5840235817701256,-0.3982003737522925,1.177335627283302,-1.5937751707865084,-4.612926494493356
-7.866227297458991,-9.645403771263622,-6.770464349810769,-8.665133575565484,-5.415560564623824,4.384598470781011,6.215863086716801,5.29266384590273,6.248422925003323,3.209457390864152,14.274973335696496,0.0917380666128622,5.805406512790763,-4.600033110719251
-7.455604498144534,-8.46133117898406,-4.895822985721651,-6.988535685405417,-5.585940269597543,4.169082888792996,7.494444461568051,9.550901112923096,7.279937483799301,4.585660474853327,17.732094114519253,0.2336935554259867,6.771570637112023,-5.61963429282216
-8.930537768765731,-9.29516411168465,-1.7943673956645014,-6.280854533986751,-4.749253828396849,1.4534435791335485,7.321149067191339,12.548597826270896,5.932815158887602,6.274654678825691,9.360875608282177,1.4052144586877624,0.9765345716845883,-6.950837860250153
-10.289261957620374,-10.152081943764154,0.1077374901580938,-6.264772639345541,-3.827859301917883,-2.8865792652047557,5.45381557514731,12.897478850883063,4.783333737489499,7.256425700377939,0.1863792965267068,2.2529194975941067,-5.503037503660939,-8.552665997545132
-12.047003676980683,-11.96618700546076,-0.988286810862718,-6.191465592467377,-3.390086541913284,-6.92475081964675,2.415952352609942,10.773593342281696,1.907389698631465,6.409556250185325,-14.025250790553846,1.1097127872927857,-14.821722396733708,-10.654529188680025
-13.844023353340011,-12.97374414371089,-5.015678593851682,-5.78395181894912,-3.0815096714242216,-9.042916095057263,-0.7941909753552174,7.261735252771242,0.3359447519768785,3.3331308745764083,-19.90935131387955,-2.780329943087068,-18.489086507458943,-12.817370938134772
-14.398584656298308,-12.957796428349358,-10.156274616417916,-5.492578077100134,-2.1212106132722437,-8.971800343847832,-3.22145770683834,3.400970477470178,0.7688853419927015,-1.1474939187668092,-15.438025028632028,-8.607983478980657,-15.169184527294457,-15.082173837109671
-15.058880887176173,-13.600410406018137,-14.147002562403642,-5.878455883224572,-0.3142090148905758,-7.693089552962181,-4.438302675540104,-0.272167575381669,-0.1707790953824321,-5.37053977664025,-14.830707774847724,-14.444632354139474,-15.441015143568167,-19.980576774859937
-15.86582269105891,-14.498811825832508,-15.68781076809152,-6.878052149964564,1.5416414274071464,-6.3836613401235205,-4.696585731375734,-3.551064115466076,0.3350171578647259,-7.9410367919381954,-14.837273669596213,-18.42076860737283,-17.347101867302474,-27.683833012683195
-16.14787997184157,-13.698557102940851,-14.907089881863154,-7.785948222456842,2.356320374125609,-5.4011560002425085,-4.622299649802894,-6.19922330067168,0.2523471548566652,-8.651545159759113,-14.3886540230938,-19.717372214061523,-17.22777726464523,-29.97547914382724
-15.70734074145793,-11.230992671958996,-12.781334900585184,-7.97063580644684,1.8702100240482624,-4.21198180483524,-4.665071752338463,-7.869310217855464,-0.8807454279079294,-8.42985161998315,-15.419770160874236,-18.70617494528769,-16.498379185698496,-26.820059727006264
-14.909174400346023,-8.511999808394496,-10.282787442642128,-7.524003126815966,1.0169722783739346,-2.24959947712658,-4.737544930903326,-8.352336596398594,-0.2897102510392671,-8.391751387824495,-13.143399551692976,-16.351917724023508,-12.31473902146434,-21.134862787092064
-13.625459413570876,-5.137985944625835,-8.013370613026364,-7.105875894049529,1.0892305932586517,0.2084220586301519,-4.357282277630198,-7.834005934371945,-0.7983096955839507,-8.86541907538893,-7.72070412902088,-13.52038252519732,-4.07387365955652,-10.901172896209294
-9.8726379029953,-1.942955278995439,-6.321265984602599,-7.117060763680717,2.5026096420501105,2.087623193741728,-3.186415646891618,-6.840393558405413,-1.2821580518291795,-9.218198553058768,-5.1662795490408095,-10.692740130098212,0.1070177317234531,-4.169684759186871
-4.555319999397391,0.8184990540094429,-5.341920203356002,-7.084735408806349,4.386227441483829,2.528123863113944,-1.4971997162766648,-5.889709295108444,-1.5390877970629693,-8.561670818554187,-4.936196584730404,-8.04639671246112,0.46967418443255,-1.4350835527460282
1.7304036851727345,4.8490880560475045,-4.69427467941059,-5.96668274111655,5.403818804154689,1.898372861689932,-0.1054675469736672,-5.171201962028208,-3.354614309235316,-6.669383093023424,-2.157044504210352,-5.550948893750142,2.736805266198697,3.5092434327002877
11.00980170483698,9.963302201255482,-3.277544752793995,-3.1237333461665404,4.986000933214672,1.7353664315132384,0.2642502510457802,-4.533479541062521,-4.269413393399095,-4.321557982026887,2.287101246282091,-2.920287829178358,5.384281510679869,8.852762573480463
18.583008074740583,14.87074662437773,0.2283804063683518,1.0389214028831368,3.790885573975912,3.5062835583077376,-0.2908410982630798,-3.731461306453322,-4.232219205183239,-2.7827205903105305,5.950932747666808,0.3833469549561297,9.054872322111198,15.680114689936236
24.221248220491734,19.79909687973949,6.293216008423894,5.480529158571217,3.0252573102343465,7.256948960143152,-0.6689732677585596,-2.620978207778577,-3.349338874567399,-2.7801704868324624,9.471693350619145,4.869771484373231,14.563165029212453,24.7899970336478
32.179871444631175,25.04590755004688,13.86512960818614,9.604112867322538,3.359574512852282,11.424836029538705,0.5789161404329999,-1.1065355814569315,-0.8470194578976533,-3.743542194113172,8.687711371279038,10.585803803216328,17.17943718270984,33.769404179624175
38.40917244363713,30.400864219279157,20.924388813482807,13.826670709624484,4.447723693993567,14.057973863635551,4.122250068221945,0.980632480875732,1.842676714615601,-3.967096915509455,2.806908502841709,16.917721544377876,16.99177548746965,43.04669767113211
41.79342595649247,32.76350490802237,25.931202468369847,18.878966170619663,5.354137339824483,14.344757930789974,9.088435710963974,3.745559033148368,2.985268365441244,-1.7736826645009174,2.922367051135188,22.85397585985373,18.15783570157344,47.62797747900954
43.677020334698426,31.78875242579908,28.84169465685797,24.42184144843869,5.328913533089136,13.047792503073763,13.339212407988429,6.82881844389142,2.731523167403552,3.0317686276357207,8.58515060280692,27.486740271076822,19.865480640803447,46.60284677590639
41.899375509244415,30.75446863154591,30.68549837806547,28.489483735249408,4.207671753595778,11.49657218599241,14.720510145687122,9.203521448956156,2.003036697821082,8.568282104945313,17.599418788700998,30.32525935369909,23.621069777318336,45.21507326438736
37.2929709299778,28.921155771005665,32.126032367260905,28.676825468499736,2.263909919055866,10.21011005279431,12.44663042159095,9.630992315285924,0.3888779610832901,11.866455604318755,32.56089293073875,31.253294985433755,30.28771963242473,42.10291635897549
34.98348495586067,27.217901570298093,32.516864024126264,24.274126330518023,-0.1040526813294402,8.561535051996799,7.625234441301023,7.611921759467632,0.1223921477699682,10.958331252757269,37.77924087761374,30.365338602532297,33.43146457625547,40.2662326643209
33.23414859303674,26.2229168649074,30.526727520637323,17.3817828094046,-2.4602492192386323,5.790992479382092,2.5661378007211715,4.03036407520669,1.4563255770889112,6.517734164762277,32.482757561222044,27.97716229727719,33.26784088242148,40.66738941347569
29.327036535940454,21.238890475023748,25.797558264409652,11.728058209681572,-4.221253569204588,2.2401087046286805,-0.5821755784532523,0.7801647868158095,2.083856538017756,1.6061856835196269,26.57922746190876,24.772699390875957,31.754354230947023,37.41256884282208
