AF3,F7,F3,FC5,T7,P7,O1,O2,P8,T8,FC6,F4,F8,AF4
1.3790366653620243,4.008661711515558,8.205640152228733,6.456675647064992,1.6185901198342745,-0.3847285715578519,-5.784541414308182,-4.3419109152218285,3.109786492158825,3.346849111476148,8.112367009511011,0.7714986134838591,-1.274854352813274,7.978180709738815
-0.618479439991674,-0.0439007012504806,6.528342586974763,5.123086293808336,0.6648681790057352,-0.1682701524785846,-1.9020591439374248,0.356648995552996,-0.8546275622434016,6.385264984572375,9.813693884517392,0.5578678650268473,-5.181119451077082,3.92623701725742
-1.7390545056722595,-2.491121264128336,6.511854192281582,4.047683822474822,0.1005071586042733,-0.050943424122909,3.7768457726665474,5.297930714823989,-6.01918736379217,6.5093496830197175,8.74607800785064,-1.3720541624223497,-10.452729460609856,0.1901248007320169
-0.6798964745921231,-2.5273159700618955,7.670050418847349,3.626246694715389,0.1862558757513018,-0.0537327454713713,6.90289032302328,7.10676376555934,-8.630022991820862,1.4132139027723754,3.8323915261290153,-2.714930303946434,-12.818474411946806,-2.1346814798884823
0.6594570386903809,-1.0198381324495809,8.452775699504809,3.9584205189195183,0.7880768004265116,-0.1313692199205519,4.108795270670285,3.8109028091419073,-8.048613395288983,-7.432498444553792,-3.5046225381773173,-1.1950432075950022,-12.161499531714997,-0.3200718250305726
1.3548545097755755,0.361335436711486,7.631090836119247,4.733590753224293,0.408547953927516,0.080207022473976,0.6764970266856029,-0.3088896838463932,-8.542521128125747,-15.596800508027096,-9.990780827019634,0.5659641031366591,-10.939793137082892,-0.3684095313560662
0.0458102436716728,0.422269408935958,5.2998494062101,5.369185126589041,-1.1691496476552654,0.4661122062773336,-2.7488937235205366,-4.0515183360549365,-9.177203383450356,-18.80952357283116,-12.614495433437527,2.7544492071910134,-8.153063576683541,-4.5329104642730345
-1.6106493260615873,-0.8526439020899873,2.689895861370263,5.356470796212443,-2.285668232008979,0.731006733822737,-4.280521918722809,-5.056849319855278,-8.630541975082677,-15.925753966644908,-10.699395904781744,4.093663210259375,-6.557954667416815,-6.9929357919653565
-1.4765918032746574,-2.523085307062498,1.0773506409286349,4.543045386388274,-2.1406373067912985,0.6930308606398098,-1.5399440120207497,-2.3452302606936715,-7.402132758731377,-9.480858269523072,-6.346773963728242,1.663139902563399,-6.552381642176117,-6.299348915273463
-0.0174821748110995,-3.4473123197185886,0.8083959071707243,3.1307236138335077,-0.8763814470009027,0.2564146259467467,0.8850678663264913,-0.0576192193438749,-4.915658313001575,-3.6028529625552848,-2.8893749083635214,-0.7921015276657414,-4.8859688049793,-2.743286379652099
2.689743298131977,-2.9571333909661446,1.1955095599067098,1.4449094623866805,1.3075845947002602,-0.4897745441382267,2.139712324961149,1.687074096755102,-0.9825789286367568,-1.0949490086283378,-2.553022113935428,-3.3942576371967395,-2.1789684395020528,6.149140734699091
3.766091208171964,-1.1387714962782982,1.156635889244696,-0.2743682476510336,2.556382444068481,-0.9863588908754096,2.2371381435079694,2.4521372335269493,0.104243769599018,-1.907864120412344,-5.087887828213333,-4.922582896829909,0.327710514028056,11.73162050329936
1.6208308786753536,1.2409483679347435,-0.0985614781242696,-1.900315148975684,1.7701022782802789,-0.7691642045500549,0.5498954645384168,1.282696843132504,-1.8507191627287465,-3.8528149780737606,-8.256815272409428,-3.023484669868876,3.046780638934357,7.470747622701601
-0.3908144707931432,3.039029184024894,-2.808818499942492,-3.339843405239716,0.6092956976431972,-0.1365371165634987,-0.7171630972199716,0.7732289156078341,-2.8696674818730306,-4.59434031008856,-9.589894573761088,-0.114490759807914,5.342247147931048,1.7307956725914506
-2.1062974686819818,3.2266617363280705,-6.716315710757975,-4.508353487465112,-0.3026555413324169,0.587080908291164,-1.1324819579293857,0.3727454755976275,-3.85116245974796,-3.22265304263766,-8.011094863227463,4.052599998631426,7.007130964580692,-7.059182720175175
-2.448566474121429,1.455318991986123,-11.124087982131972,-5.38847500992658,-0.858303407216876,0.8739576340183712,-0.6627782201870992,-0.9082531722474994,-3.632053973487837,-0.433436293700808,-4.332877706816074,6.121349286019866,5.940445402765994,-13.17606781915143
-0.7046865189416103,-1.6263116498182146,-14.968903604172407,-6.05750545601387,-0.6455884006736541,0.381341462159632,0.3042968787543384,-1.643570080224488,-1.4973812217447304,2.359784853551333,-0.5994782516308206,3.859100765993131,1.6483243303483202,-7.75040017799077
-0.74383015240953,-4.6602849158296245,-17.20101992033628,-6.61874404708774,-0.7571074288208691,-0.3033315196766704,0.2988975210006228,-1.8115539436347208,-1.0959942773174944,3.987058939506257,1.0913993036375669,0.7056029913431818,-2.3328653127310552,-0.6170103483170962
-1.6442967146610643,-6.427946271205775,-17.467537845053045,-7.124688640506015,-2.1984851862395054,-0.6835766869078608,-0.3353300481290885,-1.814685936778364,-2.1105054212420877,3.927659118633677,-0.3364384008010841,-4.146490486658407,-6.520130645340764,7.637128535643274
-1.7680691000529298,-6.666545446038313,-16.52435372590685,-7.596174096162477,-3.06838420639904,-0.56611452361169,-1.1944956188996465,-0.777166171179029,-2.163546348349145,2.2877607847838624,-4.328540458925012,-6.965438587460064,-8.330993006532664,12.595755132930677
-1.150053384109161,-6.158971913244648,-15.760615474910804,-8.079573789351047,-2.1483737953480198,-0.1018194889857141,-1.7401920498698502,0.3850762546952011,-1.8208675924436268,-0.2491867358899235,-8.805734098897574,-4.059751157881853,-6.824434596864885,7.304015099991933
0.609250321805723,-5.982261282386341,-16.01286637086212,-8.584639243837731,-0.4971628842520135,0.2304492673189607,-0.4718061620675504,0.1153847996716782,0.420119853995067,-2.4781907631891,-11.133193298318393,-1.0122771656026803,-8.173865745728442,-0.4164859258216848
2.344103417577412,-6.567740971664633,-16.718761596351328,-8.905933182006338,3.002362679360745,0.199312936204545,1.584104941532691,0.5933125964371693,5.073424929998612,-3.0902918209534214,-9.673809574373308,3.2829555316224424,-11.776820360768491,-8.50469389315687
2.6537601665513626,-7.3902297514141395,-16.35205974092165,-8.575486925936456,5.463888272431793,0.0048414850962724,2.771577960649183,1.4424149673053752,7.907895818869613,-1.5285689885667155,-5.02086008781178,6.811337477436319,-10.88496323637731,-11.279512518063148
1.3235533404546374,-7.485626400314827,-13.882835185205847,-7.150472511996066,4.048320797167169,0.0352579116762989,2.5294693588227397,1.6121584582334283,9.176975433456466,1.3508432789761344,0.140841764094715,4.430402255444336,-6.1498800848529775,-4.876766872693738
-0.0938057219347788,-6.233306577304107,-9.878269797810365,-4.656562913956921,1.7649182639520506,0.3776193794296974,0.3351143551293966,2.6914229556482274,8.0760891977679,3.66784640602612,2.777891277275618,0.8378348364851226,0.2732967461476008,1.8420567862133093
-1.1226334981244352,-3.713193861879228,-6.063839358995612,-1.7232742859581802,-2.0095465384257647,0.8570067722632073,-2.283729449797465,2.00085740837439,3.502778095774477,3.989138392028088,1.7554972676616505,-3.897775340110808,9.713325822386093,7.840420850303196
-1.7999815755156066,-0.5078849244479757,-3.655844378306554,0.818270343921105,-4.799531214916108,0.9021050545090428,-3.3003558028132702,-0.4596567515743094,1.0352796822955292,2.6978988420060164,-1.179086223992598,-7.735835998430672,12.095332308452685,8.75663211221321
-2.354073350340298,2.6432443944449364,-2.099216908638565,2.524592424881508,-3.307229455961577,0.3796187216343013,-2.3838179645167594,-1.806743782635956,0.4047873057749619,1.8267296405112097,-2.6583729605561865,-6.355414418435807,6.505134159084397,1.8476351421896773
-1.5549664615278616,4.997286022664483,0.4288961681244552,3.517137765834009,-1.024123137616982,-0.2407761329172614,0.2786231754680728,-2.40740769981647,2.160158759993477,3.1945185502305224,-0.3938628943425781,-1.5766870923852987,4.045202006948744,-1.783046298549233
-0.128371759989563,5.894904678348123,5.106166377216651,4.087814564237303,1.7216731660314162,-0.7382456120290826,2.8113069501583783,-1.3140417721014088,7.7198752539199695,6.439537368906626,4.812866126449825,4.418989202926249,2.5696900770025994,-3.814568351172348
1.0848898930762658,5.0657166831795895,10.987329142205544,4.2403459311836365,3.618692766916579,-0.5543119292087305,3.3640032759588423,1.163560720817753,9.36901211951161,8.945189759545293,9.497922818410355,7.8288338399163795,2.439453520321304,-3.963967145661471
3.0038115525484,3.039808563251124,15.510343895168456,3.7593076275489743,2.2607840338325635,0.0406978209399875,2.151979134975754,2.117676578798494,7.264186009691791,8.038213909346513,10.227578657561107,6.741251020151962,5.542593613483689,0.9076979114070436
3.5859776400599594,1.1321641365739852,16.647758243560737,2.738072381923921,0.2299594376804519,-0.0825968267977212,-0.0727076411568519,0.7782410164945841,3.362836083704575,3.592905374840586,6.443023902399924,3.270040695101657,5.15849112585811,1.4821277707193623
4.392113604361548,0.6788129212649565,14.698358043464149,1.8504137158682616,-1.4527171701422348,-0.693396986578227,-1.7522473160287886,-1.3575802092248852,-4.144834401414981,-1.469059023784724,1.0642094634546462,0.3474664764133878,1.6748248703918915,1.3475524897764912
4.568257307018964,1.9672298037653344,11.95669187048824,1.8479180708751064,-2.3559653082983063,-1.3412677848744257,-1.876154895503659,-2.992918165951238,-6.717409624234452,-3.5056751406653577,-1.7848579865706744,-0.7889887299076034,-0.6989770070257406,1.9703573497256133
2.5946300805495808,3.801525054658861,10.50722467078574,2.6807323011365463,-1.4553085918151831,-1.600687208971149,-0.8538396597132019,-2.7694686243202,-3.951168798684,-1.374753438456171,-0.1478078074675228,-0.0748744410883682,-3.1083889633129305,0.0708934533043306
0.6504586886104979,4.247965925242784,10.246448054213085,3.239471224545724,0.2546615457477997,-0.245810529277229,0.7937418493516224,0.2065937983066351,-2.009419837649137,2.3690149932254547,4.104057266237909,1.043249753448804,-7.37592312339466,1.556600171701782
-3.644024248162284,2.10093583500928,9.088179100654202,2.2188798757410684,1.5638775370479756,1.8520891344655597,2.0251697920243528,3.0090284951516275,1.0183214068626174,3.503488818894037,6.78291673366413,-0.1050969546316677,-13.142906294160628,2.3029213994314177
-6.63441566753664,-2.0719414697678524,5.21361424786032,-0.5648841325397771,1.7589558729925514,2.7390530583323653,1.6867447707920171,3.352038995346722,0.7866421453723141,-0.2815940324597246,4.855531948600278,-1.8309845740394568,-15.700867020791016,0.2177235445310748
-5.7456163077640925,-6.162198478511639,-0.802620717431041,-3.6822916076150776,0.6843815307767069,2.0254133342502065,-0.2435209893441586,1.66587235758389,-3.773813077049105,-7.335324786431433,-1.038650965007598,-3.47706740939192,-14.924927872230455,-1.887753926909116
-5.912085481644292,-7.890017974523992,-6.106185314784793,-5.0352572534678455,-1.0842192421961474,-0.0400003682789972,-2.996255842652471,-1.3976322599442832,-5.674945434894237,-13.27109291437992,-7.134229323463425,-6.97273156268414,-10.5171424391442,-6.934885679149289
-4.30381963437358,-6.305162194541873,-7.882288260872943,-3.5075482853363305,-2.536350589426287,-2.344376897678364,-5.7844509213574575,-3.102128950186174,-5.939377131523391,-14.385815763983883,-9.619923474532207,-9.728193724969016,-1.0372871258822212,-11.394210691777744
-1.323813717528792,-2.3464127352388644,-5.695950505046738,0.1053123132464497,-2.4656300596836043,-2.924670061247235,-5.759459382650277,-1.8970551598212055,-4.94655095255285,-10.39321646961268,-7.571292374120306,-8.903243893959798,4.260816836903942,-10.09889771084736
-0.0979284349571422,1.8907288194790164,-1.663587062571073,3.6826971804079847,-0.8125394942599755,-1.431915854431097,-2.143392512675582,0.646527604133483,-1.406142121346792,-4.309481687210618,-3.304394513544823,-4.452596705536395,5.335455380372178,-4.534241203395019
2.7937600292758846,4.59552660705814,1.581998087568958,5.348501315757751,0.6239068560140356,0.1862774253842047,1.0096763922395748,1.819868228337233,-0.2007799603717427,0.1895566826896271,-0.0828769876903106,2.555516972821933,5.864440083676968,2.1042315643273617
6.111656161517068,5.336132138390108,3.0434130522797824,4.708500364230214,1.466333682373956,1.0975064612912928,3.816014771332001,0.4894232519179563,-1.2506897490750288,1.576826988434605,0.6106762094861911,10.836181897960202,3.670917489133808,9.119053237252531
6.011908497202005,5.060455133593796,3.579273031504627,2.8517482477785205,1.4863899570794956,1.2259057368554882,4.598471913843014,-1.77360590228835,-0.7908927242132627,1.151768919950631,-0.1292245676502417,13.43232856671837,3.1008233498265168,11.68375010310735
3.962383529466725,5.100693690014421,4.25435340182436,1.32309182899115,0.5627376791204086,0.5712750709014154,2.386825928815404,-2.7437373112230987,0.3002720950384167,1.2857557855344304,-0.173744208418888,8.545342722383628,4.390533183713122,8.862177008489741
1.9676962574370311,6.022459234660845,4.810248217412288,1.0296624609761404,0.5436529312424144,0.531711905002767,2.903470398117969,-0.7150170172820796,3.370906126781579,3.039157744508633,1.4803978650961551,4.118044405786172,5.873083294092773,7.646231582053703
-1.519046770420549,7.2223555309597876,3.98540836322817,1.87360683141616,1.074301893470502,1.5652732582109203,4.647163962928173,3.4909984974913337,9.119458364711669,5.347131037252423,3.9789234457118,-0.8680172955198381,8.631626103316956,5.783233585051905
-3.684822154403205,7.525445014143072,1.2894927078701766,3.139321065069434,0.953105516687099,1.9283046296315092,4.560119975546741,5.855369385117056,10.098442305808252,6.362824567721534,5.735880165777971,-3.731670079706331,9.283061717657407,1.7808681914812556
-2.8082531593884785,6.212039839650174,-1.8373856738471548,4.089475395622888,0.2437736167041216,0.940856811184135,2.7289247648806385,4.001449124365565,6.277681757771802,5.469043440708644,6.019758705187533,-1.7354365465752513,7.639817691085173,-1.3820957205102078
-2.516876649858639,3.609860029775846,-2.964879249549547,4.279708836457404,-0.8534498542308846,-0.3705079708464768,-1.9816544293216949,-0.2882907071478691,2.385236123796206,3.891411154384707,5.360556391927394,-2.212570432448239,5.332382530532756,-4.461610321580393
-0.6437621116762762,0.8227281495245036,-0.9620181488876444,3.549194034007203,-1.850772158398028,-2.368904654334912,-7.8709930133265535,-5.053974982308811,-3.1680835806416807,3.3321543911273213,4.590348089167403,-3.4562579802028544,1.5216751651964988,-6.819841460369431
2.583256633382777,-1.0946111814699044,2.6514409873223164,1.9502053339933307,-1.3635063208369895,-3.0044848788263434,-9.103851822302918,-6.473450286670864,-3.326265189841534,4.122012652374574,3.839378081273201,-2.558848042248345,1.4462240897774192,-4.58089848214821
3.329826087783182,-1.8066061126268789,4.790601253331845,-0.2142133717736489,0.4336040306386132,-1.209294540602088,-4.649165434954481,-2.9636496926593634,3.056555963414349,4.920655991709882,2.7483290543179537,-1.7689787468365088,5.615790780908404,-0.6657193699132884
2.4410578962800766,-1.720381840573888,3.4787251767300984,-2.3511054447610684,1.327038182744833,-0.1355789749452794,0.203685907217299,1.131219766593857,7.507334184583522,4.363946067363445,1.6170189357012212,-0.5541888240577405,8.53250154099488,-2.5324640971602888
0.1736562385493415,-1.4428570791633253,-0.3230317351647485,-3.730735350254682,1.675365149707828,0.9978696872826034,5.262218643037421,4.302771322625034,11.71522053620824,2.894095586375612,1.9265686952225165,0.9099084922593784,11.353228638017644,-5.4347873170048295
-3.0082253640534056,-1.1879779840338065,-3.4403563454569235,-3.833017888316977,1.0219251630012929,1.3500391191981456,6.558431166968818,4.584265498732414,11.704432978869686,2.6424462818061865,5.178956412716644,0.4683286043941049,11.158911178324647,-6.62678483879143
-3.8704824158378393,-0.646435530455034,-3.1706312419014218,-2.6640155568647965,-0.4455827090574854,-0.1495303118144683,2.340943456034295,1.3254793867355308,5.703142578447752,5.193051788986978,10.905987134381933,-0.5768600700600759,6.788889370611377,-5.317265619791126
-0.7833502927168082,0.5732228941184059,0.3985212893609993,-0.813084562582827,0.0533324947944585,-0.0296325514365437,0.00955428804827,-0.8380085495431414,1.1328615079840845,9.397587556121543,15.980668127672892,0.5205875825895325,4.565066946693219,4.022435339349916
3.017223699000233,2.320000597591771,4.396407950198491,0.7948337561321741,0.9162513556832328,0.2560607117929125,-2.045417733500305,-2.0086212741887413,-3.291477237799644,11.64785273388888,16.455031248287327,2.099831890670868,3.709936687341836,13.516154798707891
4.733087152387794,3.69708338039117,5.444495947804476,1.3324853046290257,1.0243566504133046,0.1545606478287199,-3.183481613318617,-2.2858215209813486,-6.98651229226193,8.731984540796802,10.71305723092772,2.3660038657760816,2.2664828617430604,13.347992654003187
3.1721709766306034,3.60196723715988,2.3057512677812904,0.5296546683194228,0.4664772524473086,0.799832377604766,-1.0830077374637457,-1.0047258029717208,-8.623136302728343,0.8045976034719002,1.1743783376511088,0.9664488307148726,1.3112208958692753,5.141312280952119
-2.432243997471707,1.6986144734852564,-3.1536647935535163,-1.0221255843618735,-2.4875148583515028,-0.0736819305009141,-1.108130380718747,-1.1156611659219278,-11.56649576343742,-8.30723060503487,-7.180352230950232,-2.299101355663124,-1.4026821021870988,-6.089895223508885
-7.920628633245744,-0.984380614279736,-7.296832442560454,-1.9574865415508484,-5.8219609072527145,-0.7370573149476466,-1.1074690293842004,-1.548573385537713,-15.3002794476634,-13.881368833325386,-10.391334863987344,-5.523431444193847,-6.077692815644555,-15.494674417760551
-8.798192986525898,-2.4956864552521445,-7.209296568766435,-0.7991365987855985,-6.301168798786603,-0.4353077933028417,-0.0491570826787488,-1.1124163742783528,-14.425664235220314,-13.798624671474428,-8.225129939305656,-5.395127547032212,-7.191034388004632,-14.323686934190734
-4.9641721776574,-1.309540272413713,-2.537226386958343,2.9828621855406854,-3.8414570090142814,-0.4542754051540855,-0.3304481956820178,-0.7292896993700971,-8.97604873999925,-9.804358907548078,-3.834149033321088,-2.336937749130498,-4.870958426189596,-4.140494594869162
1.5051719449754295,2.3951029894754843,4.455235947002718,8.196743579396786,0.8380462519658757,0.3659401422955355,0.3267495691449583,0.075055733143042,-3.603374385545258,-5.640103346128148,-0.9236809459287864,0.5727044253143294,-2.69395481795423,2.412639480508154
7.589102751882613,6.606288871903137,10.416360209958514,12.239357725565757,6.504650356062598,0.4712249377541411,0.5919286464598668,0.7519004968080276,2.7338706108068846,-3.8755728862694463,-1.0076333989101904,3.0113607403389397,0.4398226072533053,7.329398065709157
9.101024142264755,8.74565429578552,12.88591314379669,12.64034247251166,8.49303411090441,-0.1828779956633937,0.3020990426512476,1.0764230825443195,4.75422082913313,-4.188080787671913,-2.888126807021992,3.7359761678714776,0.94201785822571,8.77101135934625
5.667263908965702,7.438403176263236,11.508613429471756,8.908500404588079,5.556005456686241,-0.13124173213218,1.2616965794505122,1.722699036252457,1.200554534323098,-4.3066073486775895,-4.289524774724128,3.1912295613414003,-1.9393923916158504,4.773022009667063
1.5095589321688156,3.440782122447871,7.895718606587228,3.194426727084559,1.563382658740094,-0.3577873866223439,2.081405733358463,2.802335197418573,1.503438411464346,-2.443315011935926,-3.8526007687100368,4.751943593938208,-3.1144488092471145,5.87084737218339
-1.7378114605324009,-0.9749216478274956,4.387513957595797,-1.0227771926898623,-3.2271748226805315,0.4244898398347664,3.580963683061519,4.4223135759466725,4.481811840475601,1.0497689801361003,-1.882543912070866,7.210743197459696,-3.444923690692464,6.346365080494042
-2.6459922288531463,-3.659980984538128,2.562847140397317,-1.4370090865739562,-5.59338705093378,1.520513564182841,3.934217335928496,4.416688004708557,4.864455702898868,4.068758338550036,0.273221977942268,7.163539604386724,-3.7699636608270017,2.550328010669713
-0.6416954877380372,-3.9689539669702967,2.42358766843915,1.3290763402522563,-3.0695487971279243,1.1291356900479563,1.239245711777333,1.837031732030589,4.024864339985466,4.548498805684626,1.2492496276022478,4.4377093074070215,-3.2731016547182854,-0.0439058362305084
0.5156962501156568,-2.8889218143525817,2.7125651361210457,4.2237143749078845,-0.7545214188755616,0.6935656319736688,-0.5129519929909646,-0.7942565348711603,-1.0870279893615384,1.98133057413014,0.2773204365036141,-0.5827508738982206,-3.873298189491873,-4.585596871218201
-0.328020223869671,-1.9816355785535045,2.0499450912637576,4.222547969620034,1.0507715752598012,-0.7091817233890911,-3.1774753575564803,-4.543501594114398,-11.535966895739492,-2.4294108998078947,-2.6316744466350825,-7.381627425668545,-5.577636438580326,-8.626492612726672
-1.561228577888199,-2.1125877025506847,0.0089310800922177,0.7495726439178434,2.32985035033967,-2.125337304464076,-5.132117953502604,-6.324016566508395,-14.30280921957581,-6.717500411314597,-6.63189907932779,-10.277958602290092,-5.792629080719081,-7.229301123606072
-2.9162382142706007,-2.98145127589588,-2.6537976707865982,-3.964672115769904,1.0199845279526225,-1.587942237342172,-3.26586655617533,-3.840529618819445,-9.44781542192891,-9.1992648588831,-10.145769580429096,-8.29929382756285,-4.756527042643199,-4.164062274320647
-3.679759730018764,-3.687842634113643,-4.689490638467968,-6.864930367464414,-0.0704127720555126,-0.9042700094423848,-2.791075906483089,-2.3110216633241376,-3.1262980953865087,-8.985286842502402,-11.45016467811602,-6.922309073108792,-2.9975471335028887,-2.36555383327808
-2.871809535609036,-3.683232159734532,-5.319349686334532,-6.63973170006103,0.1621701119275951,0.3318053945773499,-1.1187923487041322,0.3764793197322237,7.599755256260267,-6.087989692217523,-9.694702828014156,-4.975910006235871,0.02181612587618,1.4243368562793544
-1.319142884519519,-3.2251624116297384,-4.693125641306912,-4.636932133073388,0.2621071008810315,1.5150869438442138,1.68769718334554,2.9129832745146103,12.347587626476958,-1.442305737761017,-5.62693701073216,-2.477460137045751,1.674447460767145,4.300969023702442
-0.0464052405746308,-3.0034555558868448,-3.608578632581296,-3.4115444060515063,0.4047429458481085,1.0911205909280544,1.9924561906234604,1.906466092956284,9.99334543773933,3.270959048840682,-1.2254756647429832,-1.2579519505171954,1.837242347422316,3.3287802429963604
1.3806414320709188,-3.3981745917299984,-2.887235258571981,-4.337814216172449,0.7005665666177022,0.5603592753437836,2.4601858618653507,2.283943444450224,8.308607190027676,6.331368913880441,1.6888447838249616,2.6659943214062984,1.427663575685978,3.1235918653325228
3.026329799671831,-4.128907181062045,-2.9505822882075368,-6.504719811120024,-0.0811072326040595,0.000372969142706,1.9131470799861612,2.362139894885552,4.6726832429440135,7.031337697375293,2.75646251832232,8.855722827150847,-0.2428626767186271,-0.4386579067177572
3.249226721486869,-4.616141783861459,-3.796523676364057,-7.833482720707681,-1.0382945623922848,-0.5925866969678614,0.2275069700773003,0.5364904198071807,2.975800240172441,6.201074439617681,3.104198960415854,10.236650545767937,-1.1681464590780646,-5.701756585495944
2.31542592855226,-4.650920194997498,-5.197147609658841,-7.241834883399901,-1.1131004463809313,-0.4666316296614415,-0.2208123408670554,-0.4071035392245514,4.253779412467192,5.4892957767733686,4.020247401222736,6.98145258781822,-1.2825025152970868,-4.59075365205723
1.91566870828852,-4.6687763293039,-6.886874527218578,-5.740023494438525,-1.5921744130478257,-0.3549255425741438,-0.1154846159575668,-1.8451629283330788,4.84819329864239,5.8413727150807,5.518407726197763,3.849626163467782,-1.0954650998292323,0.3026245494068426
0.8061558783290913,-5.328629160482277,-8.673007412272876,-5.434150929830441,-1.9760060613614177,-0.6458569524783044,-0.304432225079712,-3.7933672903625513,5.944810044031736,6.605589321801002,6.208876893974975,-1.4491448439606265,-0.0904847050742339,8.558190740103324
-0.052951503754004,-6.796507727182906,-10.477963907431477,-7.442299422886796,-1.7079014379712918,-0.7366697128371968,-0.6439267707582009,-3.294595137024271,5.692889904322843,6.274738558799965,4.66872397528717,-4.017841325142425,-0.2317216046170256,14.515865550356418
0.2980008653217196,-8.434176125967493,-12.261201607784455,-10.738031760264636,-1.2430554725622656,-0.5381169449461514,-1.262833898497686,-0.8727134090234838,3.5988137933830884,4.237252923435647,1.0215564539577295,-1.0341146615502643,-1.566767311373662,10.704056018269988
-0.9060830232916526,-9.213655959603408,-13.797683104042244,-12.999435517757007,0.0101327287040887,-0.1398398190194576,-1.2229931787395358,0.7219786599345857,1.9917456256347288,1.7161973878323575,-2.8354138288738726,-1.461031108344783,-2.9949990476948933,0.6685487956937253
-2.4639088903496806,-8.504902990193678,-14.500101727878745,-12.613426516775863,2.2168363211271367,0.8716808581945179,0.6893471494629559,3.204310115661304,0.3648796726070772,0.7266852012672462,-4.6678328788321055,-1.9994476246436037,-4.957919158072467,-11.277888121957666
-2.7135984921886607,-6.552866280267388,-13.598633944160587,-9.93510778715924,3.789491845114099,1.5410450061301684,2.8361758675907507,4.382155083265787,-0.837491354185029,1.9006628756261703,-3.741224340081573,-1.0592072894660822,-5.68230670538508,-16.174449144720136
-2.4412971811598387,-4.249353156376155,-10.73197148248467,-6.697162218754861,3.732667751097357,1.2332925836447293,3.253722284142989,2.3221628288197564,-1.2275114323489762,3.3875147919932704,-1.4186860668492294,-2.3836999218696557,-4.930650163255425,-10.261363196383112
-0.9588455123328016,-2.410366413159366,-6.503863162651946,-4.2637832094837504,2.5884363453308894,0.8642905495591868,1.3308155912425814,1.3845723783061272,-4.957494939513944,2.2071573038021857,-0.0258667745836369,-1.373121703937386,-4.959576125312808,-2.272669906137691
1.2154982880545468,-1.1636711575438945,-2.379601275465,-2.4738311683999115,0.3462563805647413,0.2024578694305815,-2.8153884311064106,-0.8095642013835667,-12.132223087097293,-2.939204688195776,-1.015201256804929,-0.238086542287841,-5.388405053025414,3.997313253390004
1.9649719660945688,0.0628986402569582,0.2168335098273011,-0.1425490057022287,-1.8875842085349568,-0.3041828024833254,-5.79234526075261,-3.050701727463501,-16.371199278034325,-10.008958864838462,-3.9577617117129256,-0.8338023863741173,-5.781354235263463,5.312370378185302
0.9044800470055464,1.9392693331370257,0.9570763570034893,3.384681131599578,-2.4766596032078163,0.0148487507009721,-4.343506694606149,-1.7097712088911274,-18.22529009078338,-14.885054704347311,-7.052805613674829,0.0327229355166803,-6.499043324663639,1.159752999175644
-0.1637332504255573,4.489240425597977,0.8745088078661123,7.250322252335415,-1.1903006892162344,0.0014948997471218,-0.4290279630078514,-1.206845473747733,-15.800992598037398,-14.699633703536216,-8.582703087957562,0.5395139501492354,-6.387209371201649,-0.3877169493494254
-0.9785151105913727,6.829820270397544,1.5067703114028008,9.68923304070196,0.6282380182573026,-0.1717328603154734,4.299021488258473,0.4868128133885341,-7.431171524904766,-10.336433184873115,-8.139911226371723,2.34218281762674,-5.392864706752786,2.0439715554632034
-1.1198443890454,7.705570362261484,3.5906813892364537,9.642602056724016,1.7004086054653351,-0.2160144536968436,6.697832024648765,2.7674224933120017,-3.423605978596657,-5.8020270376349306,-6.788510512640452,3.932798954074828,-4.537680295233479,3.6712170117103455
0.275444645822171,6.509402446707263,6.443769956337855,7.805782402486614,0.9891261281329768,-0.6970192784486762,3.8223028752404353,1.305112191548758,-3.382235292179795,-4.885588716735658,-6.132900538973077,1.862196024502148,-3.589143653241257,3.2683950659481886
1.6447166624541183,3.983696695868733,8.586238720879354,6.085561905007159,-2.2805699060771087,-1.209329016868196,-0.8468123614444872,-0.6890624853253642,-5.105690233300329,-7.965837853229333,-6.965427519698526,-0.5314445594460196,-2.5190330813254715,1.055242370432383
2.6290886458224265,1.9033451371200591,9.042744989618924,5.967969956164129,-5.465121659064882,-1.957817186844902,-4.784135942869192,-3.9607373250922615,-10.958564666275098,-11.737849500961373,-8.45431941489401,-4.965535918766904,-1.4762159521661076,-3.3512340360825736
2.615873642578213,1.818128120608323,8.155358505077949,7.299885755844704,-5.799496828799473,-2.3764766552260688,-5.796118866060635,-6.566812970325707,-10.550345890651194,-12.068750869787973,-8.569134703053498,-7.77464997050708,0.3067702314472093,-4.768495194979762
0.8645272566041948,3.810664792223761,7.198884031755738,8.548460516423946,-3.098435381056285,-1.680010224148916,-3.0324192887811936,-4.941758548097704,-3.523907659917933,-7.456273876026147,-5.617262382321462,-5.234901646944993,2.8426359810356887,-1.956289430264912
-1.0314529019470196,6.362602156683514,7.189228245484898,8.219309764651587,1.3256838124388963,-0.2336278205972034,0.8273910070929562,-1.2628973726532609,4.280742964669215,-0.1100284403553946,0.2033060065899032,-1.7295737850791923,5.889757463654799,-0.5379894708448062
-3.108238111615343,7.543307930691942,7.981565041406462,6.124087086392583,5.18005642487938,2.1289792928083564,3.5736461751194577,3.842192039261156,15.274379872090448,6.134554440910179,6.60550251589323,3.956693092339441,9.63911921205591,0.600744732422881
-3.5925123931866434,6.5486891170662265,8.437921811111005,3.4438404821783712,5.764680091455121,3.511098691498644,3.441476667985013,6.7888884571733294,18.21936090164475,9.052407109673442,10.782749964782434,7.354685145891755,11.277858883701253,0.923490706344891
-1.5456680487511996,4.2435710100138895,7.448135096993401,1.6583084234673509,3.294295378161665,2.7574062030328808,1.4337878657717005,5.651552390221239,11.710853579216108,9.515173407832608,11.567297499437071,5.332313057335639,10.558121466636882,-0.050208087053452
-0.1095292250434234,2.236581996881906,4.858642985677001,1.3262570973810082,1.2118494503584742,1.6471560999307902,0.061596146605204,4.124668004652361,7.2345671329181505,10.067535449890311,10.261154128344163,4.144764580243719,10.019657089690432,2.294948963144704
1.4703402685983222,1.364459469767584,1.5390007892123831,1.6845616247064763,0.4873099738244713,0.1158160018486252,-0.0979625143304677,2.936593730806871,2.127611798556221,12.112529185694678,9.270948920858974,2.871520172375423,9.00164127744192,5.597698690088494
1.966988283288724,1.0015186930010191,-1.3608703643410625,1.2784350158065454,0.8135330094777566,-0.9778661167738958,0.6216563465181362,1.7872925731082585,-0.0593538818299505,14.387797835704747,9.719273174820955,1.594305532896748,7.556021868514593,5.892425671481632
0.5479102065307971,-0.1836371392004565,-3.2382124187539443,-0.9348025488552648,1.5235403407857426,-0.6207641318882333,1.2267250615964678,1.1283149917983075,2.6802340225413177,14.105621823807152,10.278575380255356,2.2328732906477318,6.01285245931916,3.592935132495079
0.0178018023425428,-2.770382907946868,-4.274868471129961,-4.801745582240052,0.0486210907917594,-0.7808575795988516,0.2359044167350329,-1.102391952794765,0.0842845786973306,9.65663946852935,8.427256922609436,-0.6159286191779926,2.5969820646246813,-1.4251725029740885
-0.7220210642103218,-5.817727561455543,-5.010744722744022,-8.984052321838856,-3.8486116980360574,-1.7478928986159252,-1.7395829931542233,-5.643286126899388,-6.884782398604291,2.405960278867134,3.061115272440067,-6.08684399905808,-2.701882184820028,-6.791418218754738
-0.5653479524595509,-7.517829231314625,-5.726064758554758,-11.70127009220862,-6.187802084249123,-1.9101062411881544,-2.5370583336341337,-7.142867793347759,-8.471172714504707,-4.020958503323204,-3.942766382010801,-7.840429021778307,-4.207653751392306,-7.25249246415393
1.066177452379354,-6.701322997460666,-6.16448759834884,-11.722766637001817,-5.038117411682279,-1.184352627678835,-1.9328348641430888,-4.575196187261881,-5.910438708177832,-6.3503675314574775,-8.74287861918273,-5.846588085919956,-1.8251202740655932,-3.5996756807282457
1.3457307832342262,-3.873364966461466,-5.767982019222528,-9.022373009958333,-1.681160005245453,0.1256189491833663,-0.8813311392837999,-2.30931395448581,-0.3030914066529621,-3.9862999563368096,-8.387821377546066,-1.7714029273250624,0.1215776102153249,-0.738297806094369
1.9987035247480676,-0.8959526102248621,-4.178120406991495,-4.737946413540682,4.072133684536275,2.7643337611365824,0.316000064596048,1.5786869319578614,10.315984303049216,0.7848894615538846,-3.145961860842988,3.948475199798784,2.8346576144308235,0.8742968964949047
1.966353863854739,0.402752279484865,-1.5944769251438815,-0.5036820463394367,7.533360440189168,3.9523364608223335,0.6849643144495392,3.4916974821051,14.589650595355288,4.710947953643655,3.625309394060497,5.8407487064655,2.667896845459654,0.1207706441877759
-0.0872539964252248,-0.4513399515027725,1.2745844673057682,2.4122193694181675,5.191199682100717,2.149431579585529,0.2598666448590231,0.9977830531411608,12.103882373604955,5.932321453785771,7.966428233683702,2.7455500943148547,-1.2779111815983677,-2.1092736706479043
0.0657280042563814,-2.348264753203342,3.6109182794247072,3.646051407159312,1.348492817850775,0.312598909238706,0.2984088433967983,1.199489932781922,11.141170692339982,4.939783876700188,8.151411355513368,0.6860535585230343,-2.71431491365712,-0.7239399419121915
-0.1129281979279452,-3.552156020574646,4.9115355588002805,3.678005259342987,-3.731876002263678,-2.402551109494764,0.6495893579757998,1.3194213330639335,9.219956886422612,3.61490333940528,5.637985743484613,-0.1754324903368148,-2.475203659816968,2.6046944578959117
-1.1279429483669583,-3.0307617704556016,5.106232541385632,3.2959474153415123,-6.972213125491535,-3.868701671595344,0.8278347159478838,0.3698564910570183,8.100361006757304,3.418549486717818,3.4800577064292613,-0.1387979743534924,-2.2730912361983764,4.506977539202191
-0.853491838461148,-1.1371067333175209,4.335760398579524,3.0076920111422103,-4.404300092502637,-1.9193888299117807,0.8614219761997985,1.2896814833407455,8.854383671089371,4.301816452789222,3.624816646215505,0.8916596995339792,-1.0358161712361844,4.508993556733286
-3.187402738144112,0.7994191012251326,2.719644195255782,2.834013011515077,-0.2959388719682809,-0.6283748665601058,0.7051314440325596,0.1581450977423461,7.384690952948135,5.06537958273565,5.379200948578154,-0.8187616878525941,-0.9531944394764582,1.8452687302787067
-5.707033625044329,1.576871056616611,0.4712814724945495,2.6042701491652798,3.941129415311712,0.7881742732622734,0.2689111907096729,-0.7920845778671529,4.2609116251236765,4.574070556627939,6.266519657993653,-5.085858718566258,-2.158260320646897,-0.9998498187410269
-5.471209905322586,1.0640183697850438,-1.7097022022339443,2.443594752204568,6.176279304040824,1.7916667624114109,-0.1222898277722172,0.1378970685496937,1.7555395035279064,2.628887095180084,4.402259917129447,-7.046120793125841,-1.4892751708204175,-1.6622696783076925
-3.819503555672064,0.3090118751980126,-2.519087862598745,2.9232233358187125,3.627681652866298,0.6228162728141744,-0.2987947171994819,0.448234253926792,-0.6735908879700673,-0.1557910576940919,0.2314508043890795,-5.044855356004831,0.7378902081902352,-0.7403669872949408
0.6176968795940578,0.7560851823328436,-0.6880870781454955,4.6036112930193545,-0.164885788206392,0.450666559366861,-0.3862219117483043,0.8912318213309358,-3.9373920301066097,-3.0711034361340115,-3.868940181509844,-0.2206696608759852,2.330891291819285,0.2302020319906524
6.227698045075911,3.1270532244469065,3.868398231680309,7.2982265370670305,-3.022958869572783,0.4655511855743354,-0.1254083385642942,0.2658880425283161,-7.774667814979052,-5.732236436520714,-5.628043061661302,6.912623227696907,3.765407769090494,-0.680583941470842
8.366426785160552,6.757674237887934,9.38657012485325,9.793477351810193,-3.854723904196281,-0.0412310179617008,0.2819142071477111,-1.2376435356260966,-8.158162810893142,-7.799742383923206,-4.62076064103629,10.08638795369719,4.471693576621804,-1.7176079529685797
6.557885671140057,9.89538339257676,12.952058589671362,10.483396716599527,-1.996637052109361,0.0511331036604847,0.1968709138200601,-1.7151004438228103,-4.805041960469245,-8.518442955007144,-2.205772286847392,6.549603583549187,4.032400823695042,-1.2348391402067165
3.1163319831138727,10.81600341582124,12.363552505300294,8.55038639221721,-0.2475311622675288,-0.6397677669608764,-0.6207087113078207,-1.7744772342166633,0.2207921596844289,-6.901386396681801,0.0258644942306487,1.9089043393766445,5.598988595165127,-0.5302950853873223
-0.6952951914019956,9.00304131921596,7.820075545855866,4.707993574846451,-0.4283064111476382,-1.4481444626475892,-1.951243383894688,-0.9195653092438856,8.010817526823251,-2.696597656489372,1.6129994267779182,-3.464478964193549,9.119747392130172,1.688235889562174
-2.5379476525426,5.519591474786729,2.006939729523504,0.7928261602237239,-1.3390748112567856,-1.3247748606179202,-2.5592110662722147,0.4240004226619295,9.399299538899056,2.7356579214217405,3.0980313876673358,-5.824872678784547,10.032806106600898,2.771075703341362
-1.432785145577283,2.265589214667596,-1.6487699420752513,-1.5130938712046564,-1.661122157023655,-0.9516140054237494,-1.6589107929279647,0.8091801825058184,3.49890123766066,6.727718891664283,4.748297065999042,-2.5442514388337445,8.704641147429644,0.5390030385704877
-0.3707951070301749,0.6832755964947808,-1.2917772187055068,-1.7639858918022124,-0.959705863886413,-0.1255007324506242,0.2698964134539912,1.1270758681655766,-2.368503632920093,6.91133374873565,5.649782035875157,0.4352774413599304,6.33090122778232,0.630482693209562
-1.3566774273509343,0.9203557194697218,2.223920187637216,-0.766496832887217,1.6359377946787,0.7824417796163747,2.51877849767248,1.504055665012768,-10.478279710344486,2.9453926051121275,4.273788024510749,2.555282004564185,1.9606122877608076,1.019184700699302
-2.6101248506937478,2.046257408620804,6.167811940293051,0.3497819690795243,3.757233936243569,1.0184106913349718,3.1213195593716407,1.0124481220230828,-13.723286718904015,-3.131370685091767,0.062978270410845,2.4738492762380613,-0.5203282084935654,-0.1296858395982727
-3.095655913042717,2.988755727399301,7.970207998243584,1.0689989402422295,3.304022986947466,0.9753305448996612,1.6939463194827205,0.3060081331277168,-10.65499976686742,-8.303872082050269,-5.532548479817324,-1.0404297264886853,-0.9017920077194534,-0.5669327439937595
-2.9824471039854354,3.2884048437291327,6.844336575929592,1.615914103473802,2.365569196213958,0.9969612759956766,0.3928971391321155,-0.1146774990624667,-9.188492876531807,-10.581946718916544,-9.72312700970522,-3.282535475491985,-3.565856029369371,-3.532185613801145
0.0687522849048866,3.0884613697078365,3.873646053324205,2.3206385298340884,0.944283977196255,1.3365759971501578,-0.4277461233449422,-1.2377072495321717,-7.421775699669161,-9.96626793686004,-10.345510110182902,-4.198023704677294,-7.796566650481893,-6.592858690572836
3.259857301105044,2.609614648021868,0.7753104930243282,2.9900633629092184,-0.3208390866183346,1.460899917278466,-0.2791086936784497,-1.6752108119779787,-5.246298557813753,-7.782839692531152,-7.476176701186517,-2.859168378670021,-8.197296216799803,-4.880326712688046
3.449483528699885,1.813706298508535,-1.4527773207773933,2.9567027414730767,-0.246307957420158,0.9438380048455728,0.7811383177542495,-0.5873703148157545,-3.721529966310436,-5.271415860184703,-3.278348236087517,1.444998367254801,-5.0247682414551145,0.0549685230661392
2.536370388510226,0.6040938160470581,-2.9162581640266545,1.7297646581350108,-0.6735924278215113,-0.2903959744617707,0.2914516335859306,-0.1411874874233818,0.0007017743513681,-2.784841552032248,-0.2001655168205331,2.515679994380739,0.6680081262576998,3.322948273722709
-0.1270408642242947,-0.7835301757570292,-4.1656211947837605,-0.4384485793408217,-2.180059369625301,-2.64045339377166,-1.2148614053538769,1.380384109208303,5.727278860321911,-0.0952017518812766,0.902288579612879,2.8559669898385978,10.174185785508836,4.792371599069643
-2.6591612523443384,-1.7654786919076957,-5.344564967811042,-2.6500692743969694,-2.959249506840293,-3.62038417774026,-2.0176985080207555,2.835058867943632,7.068750238635716,2.834435029291747,1.0982785812823046,2.565925520835673,12.750104284213766,3.242093220178416
-2.341330415062468,-1.860535458261637,-6.023793692719625,-4.0270235943866695,-2.444629154592092,-2.105123264628748,-1.979998813424344,1.5634694467601695,4.008145850564763,5.508595428890196,1.9822781379870091,-0.6829215464694025,7.720004135759106,-0.7450425992525161
-1.0260937973504416,-1.1249488886733054,-5.785949737447375,-4.305682139367942,-1.3735024201286228,-0.0987748747731876,-0.7151521428349088,-0.123636380540973,0.7718778839053394,7.198239432575132,3.940178825581789,-0.5733525022477404,3.395649783233772,0.301536575101892
0.0176043960947018,-0.0975708008124272,-4.833740146214513,-3.841578088877643,0.8368752137982651,3.115871302208012,0.8063290366649041,-3.711851073682248,-4.017330156224745,7.407884713464165,5.737830240788458,-1.7390159100462754,-2.709465524758164,3.1613314721176318
0.552900222933074,0.669246003960609,-3.899141456001029,-3.131165588151017,2.1059662772944936,4.571882981759207,1.1047368797196735,-6.694597993964135,-4.792072381917831,6.07674382912232,5.769202383257809,-3.797925131673438,-5.476221895627151,4.281031632174281
-0.108354464809629,0.9890075168227384,-3.5100119185304486,-2.4104033589479457,0.9373253849940532,2.001288545504327,0.3346536177103381,-5.223562044112485,-0.5790705698989248,3.5591170075546827,3.6939398352494592,-2.461928026082384,-3.4935156534924,3.69841795143654
-0.7330548246294188,0.9974107606401148,-3.3892540866185428,-1.7019726302671572,0.1249740162846756,0.1582740931388183,-0.2916650626637618,-1.4858722594799485,2.4290903559817854,0.6139345598192065,0.8651936815120855,-2.403589447322945,-3.998558605001098,-1.3244550517556952
0.1670525414978297,0.8650458294795733,-2.6726844802751835,-1.1009250679294027,-0.6034399163591394,-1.9229255977614927,-0.051719616068703,4.767196810387127,5.649704388767113,-1.654799365886543,-0.8149458160763885,0.6361340137259518,-5.608749927052143,-6.120360646823751
1.1544928919111874,0.662633334149163,-0.8102628738550735,-0.8196471755629275,-0.6580149200469897,-3.1793031537441494,0.6293511053490555,8.890694693736185,7.26308730186415,-2.1813581806142537,-0.4596836702631215,4.348106977632787,-6.194573122162317,-6.6812817387659305
1.4356750003917893,0.4706188752474389,1.7029005388062473,-0.8874448329888551,1.0845689936690766,-1.0531545093095818,1.162390652030188,6.909441528728426,6.19655862814336,-0.6150233071291353,1.2663785811522636,3.8213521102160506,-6.715121993262391,-3.900125604365477
1.5773793764958666,0.4418878106260138,3.509693341769456,-0.9482746955639172,2.0213866396514506,-0.3886307503600593,1.0883707854475058,2.9795612503198923,5.586641022859875,2.2412036264122115,2.9637471104649684,4.325199155576658,-6.395796279074593,0.6998559250978023
0.8012451471959641,0.5905065366039608,3.394806658261299,-0.5839784852396335,2.6706193735696773,-0.3328540442049375,0.1595893121112219,-2.0930277523424463,4.698742187549892,4.766889686068023,3.6947864168157674,3.212866606360626,-5.042437521470184,3.4292380921048027
-0.0218613282970275,0.5265219949437849,1.2571572254269618,0.0682885813504157,2.74524558811966,0.0456701272815132,-0.6480358463741744,-5.146732665640634,2.3311986373344697,5.519577573448908,3.414705877337486,0.8832428157140594,-5.172611870454876,2.8786820579413988
0.0079415394335473,-0.4142045417333726,-1.7772845493405,0.1542948270991608,1.421854703258746,-0.4918300933195731,-0.6108154980223542,-2.9119969491211366,-1.227451182249865,4.112970555764703,2.467403862985954,1.0042892460869972,-6.761381841385788,0.9488514472951656
-0.4864832183881061,-2.564836219999925,-4.178129354670713,-1.2069099651287942,0.3604511921827775,0.3963316444578262,-0.1641173617418478,-0.336047277345364,-4.833523888672268,1.267165394583234,0.9468202919425436,-1.088497785866128,-7.697939707644782,-0.9372548712098334
-1.3731343747591176,-5.383740731302918,-5.063118592790115,-3.93409826518954,-1.7544058451275082,1.9289448409880143,0.5640233765600589,1.2687644199287602,-8.575876307169572,-1.9260199961011888,-1.3120407857320622,-4.148159080726154,-8.448632959304813,-0.8983245587118932
-1.7827656616625656,-7.629497900117157,-4.64094121250863,-6.729669833603638,-3.696546103449677,2.42800918758734,0.910695005194371,2.1275575840232226,-9.298974130738609,-4.788540916725863,-4.202368397518521,-4.783915384972743,-7.817077475248648,0.3312352846705553
-1.6975370764266131,-8.278069651935237,-3.784902637024759,-7.957468793354716,-3.7817391937953713,1.6153029302484132,0.2663836475245924,0.2866399059691482,-6.394346246843079,-7.198818343466429,-7.009343196144846,-4.153271232549201,-5.352375347372294,0.7036441206497411
-0.7325157991124426,-7.407314413495758,-3.22336948428715,-6.91233695031722,-3.861364108021966,-0.6979622905912181,-0.8579693240345067,-2.226720052333475,-5.087603240598221,-9.090559428563072,-8.748109352149857,-1.7711758225869416,-3.1635617148916784,0.8939351133729414
1.183793950946266,-6.180127574344816,-3.086253778245926,-4.325523073435702,-2.6048640113323693,-3.40202110901349,-2.2761543608945143,-3.748464034177668,-4.687810940698117,-9.952549728740076,-8.86862554739795,1.4339136702149686,-0.8961453584931414,0.0601740434006898
2.439252510719382,-5.849505893062811,-3.115228799953496,-1.7081312130991737,-0.2493632896581613,-4.202349334447891,-2.765520132833287,-3.982752625300496,-3.623577777753054,-8.962430338412318,-7.608411421050008,2.463851136373073,1.2053622960841155,-0.890901771964573
2.009967927210069,-6.646375949084046,-3.169413053306905,-0.2334139123040435,0.7994078384097256,-2.4701176830020586,-1.420311464485154,-2.0550032307730923,-2.778119902523198,-5.739621818073646,-5.661127238086381,1.3902447848331625,2.746631794185673,-0.619445277728633
0.5770215904751228,-7.56277728041783,-3.403476981608133,-0.1419631949675057,1.7330400920968163,0.3872220674291556,0.4854880402562109,1.3276075976603865,1.4057436379045132,-1.027489855927577,-3.553006400355031,0.307223786236251,5.978250108414007,-0.6157742488276539
-1.423247666567106,-7.234911242614288,-3.923710726118277,-0.959901250430212,2.897013678331029,3.29312449846991,3.096586111335842,4.778285559626755,9.26335981287878,3.437917958791008,-1.3888920384989376,0.8289802919120733,10.854638016013917,-0.2235755560661377
-2.3545627108743554,-5.13344233259564,-4.384498477096228,-2.0279022653672136,2.584113487190261,4.001190133278348,4.373809458319287,5.5934479829151655,11.500159195356272,5.937690237306079,0.8204561463708444,2.3752400453099365,12.462458079531158,0.2584335459908166
-1.051422948111092,-2.022758891781425,-4.12944202222007,-2.787002265592939,1.8746462822941456,2.118742623429271,2.5751078141205497,2.984527419735973,8.308696114010452,5.897837392807661,2.7029284715127613,3.101699795929697,10.883658175497835,0.1235180427631704
1.0361812653521327,0.6569998920338449,-2.8838100418403005,-2.8033456126626817,2.1027081944913686,0.2481649115504272,0.1589803245413469,-0.3268179901991155,3.839541724025129,4.188646835429017,3.562760371165961,1.9390255492370327,7.019173438625116,0.6652495815253819
2.78835371652822,1.8857308664062025,-1.2823200862383928,-1.8527703377876144,1.0063634491899591,-1.2431594915523023,-3.31681203396667,-3.840728826055151,-3.9641484893320977,2.3423605295072925,3.002272759049525,-2.37332232191988,-0.3729685638235727,1.1842532018700715
2.7919379303349525,1.6991450717563126,-0.5257120340979426,-0.13905447105979,-0.4136492486562253,-1.5952303930070395,-5.331558040818021,-4.776719738838766,-5.667844097039845,1.3975247323582316,1.5203054995477352,-6.020823903867817,-3.652396852482888,1.1226986521585964
0.760234611340066,0.9228908619803384,-1.3196553225126664,1.6676574053762074,-0.7033725057432452,-0.4473301598039517,-3.340792302178534,-2.0977211523653265,-0.2994511756608834,1.3737111514797036,0.3512970443116643,-5.177861730313222,-2.4843204912018964,0.8944977772973594
-0.8018425982068542,0.3612333568606374,-3.096319055712513,2.801888515592559,-1.8868021544236704,0.0599729495930852,-0.3913442215702902,0.3136657052739603,3.6399463254012825,1.7085655403524989,0.479035635773279,-1.1657297189117135,-0.9051050694587174,-0.2139625264283734
-1.1794440103122603,0.1828893847661277,-4.388994192733307,2.922188497222521,-1.9410433542360697,0.0922773146670655,3.773624814613439,2.708568644587308,8.383728437847504,2.035264179454117,1.64058906130046,5.260278901516452,2.948514680212706,-1.56417025212574
-0.7491402239985167,-0.032329098214582,-4.135790082002316,2.250725859286902,-0.4657861695888476,0.1854528853930137,6.135903662812789,3.430138236307365,7.852730537452909,2.418438721403483,2.327625291675126,8.293941595051125,3.3274287969514367,-1.8562386838967044
-0.3164008131444579,-0.7309351432503703,-2.715280092909317,1.1711620693916842,-0.0628015788670335,-0.0703895131257488,3.7776884492772496,1.3630884752071888,0.3531463200615974,2.843473610987949,0.9695775173209285,4.246054627064142,-0.4151959829228411,-1.2493267845913547
-1.8436726123180536,-1.861631680967072,-1.6934090299050697,-0.2635005384323179,-0.2568100477270569,-0.0428719991641607,0.527258688212682,0.2561028691683316,-5.839722069648041,2.6336252400935862,-2.666641948715494,-2.0261589475781108,-4.429543704521444,-0.2011269389961254
-4.747037490543759,-2.855045880146001,-2.4566632584884047,-2.3258522700227857,-1.0623085786640576,0.1725600708772734,-3.5425379008698403,-0.8071973678133418,-12.4440203400021,0.6232751227639355,-7.151981458170681,-8.757342049266104,-10.216525968826142,0.7574215332318717
-5.652709339770225,-3.123000998892792,-4.9551141569116695,-5.068866232569647,-2.001461373054994,0.1418985751104612,-5.625871599028169,-1.390262440921779,-15.173362730832292,-3.825648468525628,-10.501870542796382,-10.408076902059666,-11.909557840801984,0.8288097252001834
-3.145337924476611,-2.641382554065707,-7.669231928568266,-7.84429080699887,-1.251069575249499,0.2197619551619173,-2.734712025369172,0.0705022905453713,-12.321204999349291,-9.790102593107292,-11.712170603409334,-4.224210201190129,-8.709777009457902,0.2818764876835106
0.5511109218066143,-2.076638094561851,-8.793443458892973,-9.490133935256374,0.1727491085250726,0.4202013577609483,0.3145040785320702,0.2458012039772995,-10.903238678899154,-14.785775945526892,-11.308869994229752,1.223020416552394,-6.272803898420001,-0.1238575593032064
4.661796104636639,-2.2537806956803195,-7.574805701144207,-9.11442013058921,1.190920074165815,0.6215102002465743,3.5156452952496315,0.6260351210856048,-9.543995339067507,-16.125733190316488,-10.497921438726884,5.790257179727705,-3.147246172264936,0.0122127810309481
6.234388702208714,-3.326743576325285,-4.700156705361003,-6.753587764434329,1.4498812980829094,0.3982019455350135,5.030084519969915,1.4004230601530678,-7.871900879259953,-12.836132150113473,-9.895957741994565,7.460043463925128,-3.1467592967750484,0.6181472116995201
4.025824683387901,-4.359866700142845,-1.5278542336863268,-3.280524285475608,0.7671621216859075,-0.5562349708740207,1.9056236275681775,0.1064196067788392,-6.955285677679636,-6.671767282236644,-9.140184877239436,3.718863596509016,-7.387096935462075,1.0490897943332362
3.005771428300805,-3.814548199038384,1.0504983234551588,0.3085825666152004,0.979430193649921,-1.692411108176418,-1.3010600308855242,-1.1492113224294942,-5.925347212291179,-1.2075512817904013,-7.603962112358772,2.6385640904294942,-8.787050635420417,1.0712264317428797
2.900943472845652,-0.7273336242175787,3.107944785867588,3.490284778123396,2.851882631335335,-3.01270016327019,-4.722560108305518,-3.704187524354048,-5.134376692210554,0.6354110782146023,-5.220883587907522,2.4373818371588314,-8.257956257275602,0.9401548288680376
2.1701598778965505,4.295093547559077,5.187976914259224,6.144696642250892,4.129682307428981,-3.0432569973267856,-6.21818719395412,-5.705977947868767,-3.843053883907981,-1.114927875787032,-2.42976810789412,0.8694567592709379,-6.102250770726159,0.8419638184060942
1.0281513845047836,9.139929307065458,7.382688307267188,8.046890164699278,2.802540843963852,-1.3415246788679087,-3.0384696679770142,-3.8122135532350345,-1.981442392923806,-3.289489890727268,0.5623661653313121,0.1134958421552533,-0.9342079548321864,0.6946393172994316
-1.5581666545897497,11.424909162431732,8.924814831992464,8.63840388590961,-0.057999866206877,0.2201190252410126,0.2070142037209646,-0.6571735046999727,4.520431998963418,-1.9437921048153868,4.104171827898,-2.1072576430512124,2.3714977890590827,0.5894500565937341
-5.17121971394182,10.06138755577514,8.753352250511526,7.459860020427016,-4.7914525437888775,2.2403793114687462,3.773287747657762,4.535348681358109,16.312732779299704,4.388564143452868,8.427297275906056,-4.592836579721308,3.976608027264748,-0.4246837632507175
-6.016161328608018,5.971570524065911,6.593569948303156,4.82394040230767,-7.753578155519986,3.11170703798369,5.183686183897243,7.781028615525688,20.380564141319567,13.179278544288394,12.72930737963162,-4.30746697286601,4.050107317014144,-2.591852467291796
-3.271644496478768,1.4158600538789583,3.5510957198613795,1.9462539012511684,-5.173610104974436,2.0468185997409494,2.264709687351866,5.311474524908896,16.90089628652081,19.49090280930568,15.26877307363273,-2.1893098046907022,1.3968857115419366,-4.246925699024654
-1.2273585369286937,-1.534159570916998,1.5681226709672558,0.2497372820508587,-1.079593613410498,2.175505825247724,0.6847224081163245,2.1800524837239665,9.226148457423845,19.492639158838223,14.680973947538618,-0.7029157051729233,-0.2584562083426156,-4.645489888320603
0.9147142137042784,-2.2106685360364366,2.065708472148529,0.39757025079426,4.231192183737367,2.271963728370579,-0.3476081298016295,-2.036972115457139,-5.821512841188727,13.129557053769958,11.271179482427364,0.981455851177212,-1.159270301394371,-3.903138560388206
1.7559752394574035,-1.4181138582602983,4.842477607280529,1.89028895470679,7.283927030030815,1.6755770924190054,-0.7392329391513254,-4.894718590984343,-10.047010662000396,3.943149301462256,6.906901542964341,1.7177749746846414,-2.3133626593348326,-1.4759542277027184
0.2167353071928324,-0.4912887788583404,8.147976240560162,3.523052231076008,4.496372790049715,1.1776044811661457,0.5455091370481125,-3.264448107594432,-2.440638393667378,-3.55104455738298,3.56096257765892,0.9090949353062356,-2.9726076373497943,1.0304253450265517
0.8955441135517616,-0.2367175633796279,9.915147391359056,4.233558686732614,0.5121516311642894,-0.9876845661939024,-0.667843267105203,-1.634381135975573,3.991308033520069,-6.682365748134743,1.9710901862290344,1.0202452030472466,-5.10352275787824,0.5654697915236283
1.971006515940035,-0.5885160656460044,9.21731829105051,3.6553152676830862,-3.710526002355131,-3.794485078591724,-2.998307575756496,-0.1253579497145066,13.447762532804449,-5.6246341607340895,1.674992004034095,0.6289657364970594,-8.77596496273031,-0.0449839871894615
1.9362010950448203,-1.06151191515832,6.858930191273679,2.118227068635285,-5.431944534046566,-4.394149155501658,-3.6074728631840927,1.3797954057592088,16.809799911080756,-2.357453598966025,2.1112551998873883,-0.0334943158884672,-6.7248464802639445,0.5963467656170195
1.783176398641074,-1.3782957455680886,4.701176772072998,0.3377315907646476,-2.534993165194624,-2.866996386581002,-2.296200430702179,1.2521836769930774,11.928704501997125,1.0767787001134366,3.361609467721422,0.3570156310429801,1.2401399393905086,2.344558291858225
-0.0335894409249188,-1.6142000930878382,4.276362938765786,-0.9003585922814139,0.4615073142397032,-0.7105711965296139,1.456170909217242,1.0777599279839782,10.451164652693032,3.610432793287437,5.696521110560283,0.3679575918776536,9.632569436246506,7.972599650855072
-1.8480140098398363,-1.8160755750946864,5.723084921042627,-1.0121372652762304,2.875935986618277,1.8516829943600148,6.08004179326913,1.700424835135004,9.983653781117354,5.12268231128391,8.62228053661071,0.4187207788463838,20.03260884131118,13.513699850381515
-1.8616978584076411,-1.6575970532124238,7.771416211946846,0.0848393707104904,3.560302231791451,2.7731765627162317,7.194184533557216,1.470672366172471,8.326598445789555,5.911450971244932,10.763264968307324,0.1825114180043979,22.323862171788555,12.455068598285226
-0.8994046899145691,-0.6555516580791192,8.700657515440952,1.7678656242080173,1.4500007356554596,1.5056831578253052,3.984626198338882,0.4984690630128109,7.059283205754751,6.28503184599478,10.904961996935269,-1.0833312579444905,14.834775258518098,5.111664101389948
0.3383530301478203,1.1915280939355029,7.512998127222836,2.902091723846871,-0.2920371463803981,0.5142771007467243,-0.6803814090001181,-0.0752165620598745,3.897632791645183,6.395743918894917,9.081814041558632,-1.004770346145887,10.717889438877766,-3.7796269844276207
1.0184438269411562,3.0728793732258506,4.502627107886848,2.531361600864493,-1.7142094513114046,-0.3608725301210763,-5.800531165859675,-1.830776365130848,-1.2203386705905928,6.148391314136514,6.457394616098666,0.2639349144534364,7.606329811126725,-13.01233033182352
0.6521060852449048,3.8988838372270687,0.9492784248222688,0.6802210434973328,-2.469122158153266,-0.8876950994194512,-7.240434880627936,-2.67907269007974,-3.936318376941046,5.174933617310563,4.096189803138231,1.5757034546872333,7.001851318540094,-15.169420966461338
-0.2925152182537017,3.376466683380034,-1.6787210122966574,-1.3889487886154122,-1.5734036268986773,-0.4895346700579085,-3.886400199011474,-1.3088095211325073,-4.405624937793744,3.071649445317794,2.003630230719459,2.3398509211681664,11.32461786104546,-8.533242923303348
-1.089514347291134,2.584983943114443,-2.414096220888027,-1.8255655052924524,-0.7924026916066549,-0.3356415801177644,-0.8879575063220213,-0.7167424037647103,-6.993626873800616,-0.0950962250593345,-0.4856422621618215,0.2934365739865439,10.624956789869549,-5.017930598391697
-1.3313440092773297,3.285303850050809,-1.0830192233779172,0.5691648810124477,0.2134179294564691,-0.2929787197286954,2.0501160170822623,1.2558109472722117,-11.017559867342891,-3.432919542261778,-3.445878394815445,-3.1358853114057497,5.571752156250801,-2.0332045081781605
-1.023134087713256,6.359237111236048,1.696501329293831,5.343088979554768,1.132717461961958,0.2065045866364957,3.466264282698737,3.194572462109268,-12.835042657756723,-5.526936289670246,-5.7462670788175885,-4.779300756027681,4.425361799814746,0.193261602746546
-0.7341405630962718,10.749178041353332,4.667660906566638,10.397292585597729,0.5026862907845328,0.5338884176632733,1.8267308777630795,2.678273063902387,-12.914414852779238,-5.379515316077878,-5.933357491613229,-3.297112182399138,5.735625293346357,-1.0141302220627928
-0.139414160608197,14.010957026204302,6.326989764680739,13.123458872365523,-0.0694717063708512,0.429904688778275,0.952723596731448,1.9271886669412128,-10.281223283215464,-3.264494814103365,-3.788997129597412,0.4987925189682373,8.01005457689996,2.855465225651865
0.2672901384919209,14.188462833730952,5.656924028601743,12.024960649321237,-0.6390214162208319,0.0196245761104278,0.0692441648409803,-0.6188180571375406,-4.048322824244079,-0.6784721722701335,-0.9164305663636584,3.9876442965015215,12.61769525717068,8.614924043959709
0.1625051333227934,11.430088436114543,2.88838832160107,7.759572870293127,-1.0052536844683946,-0.8752473782315764,-1.154676060816794,-3.2556295116579177,-2.2020370965360825,0.6861180555785609,0.3599129303901947,4.607239404114754,11.01883399797947,9.81037255950654
0.7180792205523311,7.865732660536651,-0.3975311802090857,2.8208943638117887,0.3907797664332357,-1.3007330718928063,-0.9437036073856402,-3.216650982771011,-4.80642226470413,0.1070145339134853,-1.2035794378272442,1.9477632776532985,2.629575458035477,7.46013586822455
1.8099721738946424,5.7720827900846245,-2.2300812859705275,-0.0480504019518264,2.213642456816136,-0.1650215311972486,-0.4370584383401469,-2.4458418600074467,-7.164294873251603,-1.8522290892292403,-4.922198396177521,-1.0916984524532083,-3.329828008527079,2.336335486686505
3.623620879215749,5.621930646786808,-1.7432716367617616,0.3085400015900035,4.073812318781024,1.6510858165571625,0.2060961522959432,-0.8915373350065214,-11.029935514820195,-4.055479549892681,-8.942516896903243,-2.163626667474623,-8.577760853669066,-4.186508119579127
4.584585110907931,5.762973478619955,0.0205462735291348,2.6731161039472795,4.420864478601835,2.8838047537798177,0.9702121789556224,0.5746146997580495,-11.050544683770395,-5.7579743125049845,-11.713605569657886,-1.0144992099379135,-10.021461085452804,-6.3551188169640165
3.4415138947736303,4.013475969215463,0.8396853873584575,4.346846968963163,2.170775095321691,2.4649560547289084,0.4199223734328447,0.0567739431742844,-6.359955565655775,-6.910767587877217,-12.782587846224374,1.2090538839721685,-5.761045066563555,-2.8356761055460016
0.1364160814892629,-0.2749190618980606,-0.8717733298778256,3.1281718786674304,-0.5699116955911276,0.0051378464745864,-0.4342290443700392,-0.102347234677994,-2.4513334367899007,-7.679959601002523,-12.451270872464136,1.458317282571483,-5.259001447261384,0.0386636460090089
-5.007841492559042,-5.541281550262568,-4.648144684644365,-1.0602809139635951,-3.807382499307938,-2.764218682868277,-0.5413803548396685,1.1950846819778749,2.0259289883635714,-7.861926849967489,-11.018585767744897,-0.7786745236772443,-7.616549904862757,2.008882412693646
-7.026084323552369,-9.28647474199363,-8.191619062136965,-6.104675970436517,-5.0248689982198425,-3.8046584302932938,-0.3092344709231539,2.118168567058901,6.604988216029405,-6.863797592988476,-8.51547373104114,-2.790176065128548,-6.321392624810007,2.0570199486915874
-4.663659482959996,-10.086287279689516,-9.095182429485249,-9.230401533378654,-3.299150279443236,-2.5974832327231083,0.5015686903789591,2.409367115230645,10.505804805451024,-4.204558242213693,-5.015616582168093,-2.798213146792845,-2.759666153270458,-1.6530802576714707
-1.5342455962627417,-8.552470495491747,-6.66233685798511,-8.960801264657277,-2.562596018943624,-0.1791490682918002,0.9750014099840036,1.6932322823827788,17.001864640213345,0.0419053165557272,-0.8867770600631104,-0.2785300870495883,4.195467297806687,-4.101844322228181
2.630623057524989,-6.527561032004854,-2.370124154416402,-6.046223272570728,-1.7097463660408216,1.4416467993852389,0.1559895906100157,-1.0889160668500777,25.916298822673404,5.248349539464073,3.4251207468701352,3.8689967014308446,15.739012215873068,-5.105221343183874
4.391407140975666,-5.43436273491767,1.305370306476874,-2.7431608279134423,-0.6991769527513231,1.247301750521409,-0.9468728583562972,-3.514732183485581,28.29084095811177,10.505724613437708,7.720974300595458,5.704737945223825,19.31094547929332,-4.520270594199622
1.623709859135192,-5.325226501875136,2.6520958490726514,-1.0992653411007325,-0.6498142287128187,-0.1014042252480543,-1.2540815528937674,-3.945679137250505,23.985630824492677,14.811196851722798,11.897954605507492,2.756082117941992,14.552576599448132,-1.8382466465172849
0.8088794768722605,-5.302133801308827,1.663809022864598,-1.59737042214266,1.083361029878935,-1.2693135696944795,-0.7162310263000197,-2.319789533535544,17.073449548439115,17.160899153057812,15.400410783824752,-0.2767342576162787,11.024719811508303,0.9515519867972478
0.7172823875819505,-4.615750614055742,-0.437284799470973,-3.119552224596333,3.226709497512464,-0.8506688667275634,0.6135226262271625,0.8290747361910245,5.370708792488101,16.825578326283278,17.051822051121462,-3.004081776944278,6.035837608713622,4.475072573186912
-0.6212510694132176,-3.284162462560147,-2.490220599635734,-4.086688568515285,3.321109030416749,0.8856443644831611,1.74695998794239,3.349183131161424,-1.4974339893539752,13.828433145325334,15.778452884935604,-4.9970249383148735,2.52477263819094,5.715526553128665
-0.5835054887056081,-1.8161280836369256,-4.318005893500953,-3.746028938417197,2.396100383142716,2.444797854359711,1.4669064196548245,4.147473233995998,-2.648679051930161,9.155527415491662,11.669051222824862,-3.1528416086035755,1.9265113474833355,4.284123082048239
-1.6786550084664975,-0.6195507963557247,-6.55873295931687,-2.6059329441370096,1.5530503123924329,3.179927994771649,0.3142018725379557,3.0716708875978824,-5.668201695282874,4.249064234730412,6.20640950998029,-1.5308291707415642,-3.254310536382765,3.93853835020494
-3.305200071979619,0.16942827758308,-9.681416602626657,-1.830862960902266,1.0827969281469028,3.121781676728652,-0.7201322724338718,2.1243801892990506,-8.231873096699706,0.0326084041215608,1.2302262051640582,-0.530834170650808,-12.269555603722038,2.4268616319761804
-2.070212183382362,0.408218151113914,-13.132001400148226,-2.248034283500345,1.4634247790207917,2.0856483229337464,-0.99004175502131,1.3887778652935148,-10.5474351623933,-3.646881604112764,-2.4365001674831035,1.4329802613668967,-17.430184370841214,0.7953550435829311
0.46985077166096,-0.1916460626878233,-15.388451058133114,-3.781758364627507,1.7443845990844469,0.829170045660774,-0.051681434401031,1.2164057290094006,-13.399585426470352,-7.5375631596483,-5.315222773040915,2.8750095409070626,-19.556270022618044,1.1891752831199542
1.1022518112237456,-1.7061714453803916,-14.914639142460716,-5.617281985343112,0.0333200385058758,-0.0204898085392243,0.8071027156122834,0.7885898664322264,-15.75006776056664,-11.870471544053402,-8.254888107424108,1.5341145272717749,-20.81294250679208,-1.467265465474959
1.295166004326917,-3.532874923657431,-11.272472516385136,-6.779061125449175,-3.1344929966083,-1.950673378231296,0.7901411683481754,-2.149486229087349,-17.890962162737527,-15.75173131704716,-11.233100921826264,-0.4054518692002274,-19.697776361964717,-4.821553154316345
0.9026872954545858,-4.509485737526092,-5.541175555835878,-6.630587627618439,-4.9904611067216464,-3.6582961565156777,0.2691757187744839,-3.5414591100101256,-18.349576981246138,-17.75655668279819,-13.307506451015795,-1.023040634016065,-18.908095951635996,-4.873537708265268
-0.2325707676788847,-3.738129781824739,0.2692257984659534,-5.069571197432424,-4.282221646250425,-3.9113437686182606,-0.6857643026312656,-2.9890196432461007,-16.885529601417346,-17.191595942879644,-13.7039693511461,-1.2402606849820628,-18.51021025255019,-4.206041661872738
1.6544088417841103,-1.4123225448939962,4.3785956298169,-2.496938915243988,-1.9221863071934675,-4.259908204218191,-1.3522606284749603,-3.6650823534950954,-14.05668892504517,-14.75807852150787,-12.7222353629613,1.600493106292122,-16.804175946426284,-2.5948527637973493
3.646777579826319,1.1876011126081494,6.143641157609807,0.3201363029767776,1.3010363420524496,-3.115661798566425,-1.646556063841634,-2.9296592975392715,-9.383378063005026,-11.93115360950776,-11.396602014675068,4.5916546425877,-14.340956365379595,-0.6546599525499129
3.137393884767624,2.611674447235245,6.111058673943887,2.4956724102619745,2.9726740186548084,-0.5620238757567608,-1.4956131250745122,-2.1717997892300245,-6.897961068919549,-9.694739247867076,-10.357031312991168,4.259902402941402,-12.758312007916988,-0.7820650382533967
1.216757774077083,2.287826849090962,5.289986303437431,3.400237436875031,1.834499200576429,1.0578572000771356,-0.7352175034354937,-2.6781779662749163,-6.887475567091001,-7.929892925180113,-9.290836551881467,1.773598184344248,-12.064868434663502,-1.7612087144463842
-1.9567219115698675,0.8110427053520652,4.312029406534208,3.007431840653645,0.4927006495544841,2.2253695860313005,0.2856609992399953,1.2328782815840351,-4.24021153549387,-6.034968649953768,-7.650723926335004,-1.2668786546282718,-10.400835016630902,-0.5934790528854319
-4.245199198918482,-0.6957501027039612,3.1779952896413945,1.9277572277645088,-0.1541172091999023,3.222028658070645,1.9022135131908289,6.767926956968568,0.2963175935801904,-4.014327005488873,-5.695790713342689,-3.21316371567106,-8.064821965333557,2.3289872319033016
-3.8060292230033297,-1.5148009371392916,1.7042815597674783,0.9985557710506044,-0.416648685509874,2.40353585940807,2.523707634550161,8.007336639478314,2.966293193735296,-2.76185896445886,-4.485251038439241,-3.678842505714472,-7.122534106757803,4.66991636044203
-1.5857135200835124,-1.7702887560437708,0.0973446516058409,0.6599620839060975,0.2045540106359635,0.9658209895865768,1.3483393273427864,5.526557448097271,4.378626121628663,-3.145841716879297,-4.678558214352566,-2.881593554974201,-7.435192392714582,5.721358600968451
0.1130016984329336,-2.112006916072513,-1.0328242617868106,0.5912446394731816,0.921636891858195,1.3675735965795464,0.1169097894844217,-0.5944456439863108,2.879835398719669,-4.839542557861545,-5.493980775942241,-2.4387549740291585,-7.158094381046416,4.947607391919387
1.0210972850652815,-3.041697962867147,-1.300904472021422,-0.0478138799213851,0.7311822921930143,1.0493776902219911,-1.6480414909694858,-8.35887666015484,-2.4417693768690643,-6.188132687732363,-5.133418875413,-3.059853620497881,-6.615864494986627,2.830841074740897
1.1335328880997046,-4.480030869104837,-1.1432682859938836,-1.8843767214096232,0.5665123582794916,0.4381321504545387,-2.4101487307127734,-10.328010783774571,-2.7091380574347244,-5.381613779016007,-2.3874776472397343,-2.3896001441684573,-3.945863248115115,0.578435796455039
0.8235102772980772,-5.852255097734798,-1.627158247331664,-4.659719258543944,0.7375648236767662,0.4660408154865094,-1.1845055986282629,-5.539150702678495,2.0353094651959007,-1.8876222314161024,2.204988098596658,-0.3162250590813477,1.3827467994338103,-0.9698825370587134
0.5330691779976384,-6.509026966885898,-3.477657868977275,-7.205042296962887,-0.2441893254499041,-1.71328020336076,-0.4389583692830741,0.1389675729195132,8.535032732823751,3.146340670950906,6.820906394736426,0.9271769805196132,5.306100493701648,-1.8822077691813237
-0.1146786431505497,-6.0953102276996844,-6.19813100558639,-8.187510212499518,-1.226163901201213,-3.11889747054321,0.3925085859472965,5.506123981213796,18.880802475480877,7.794845428232037,9.903033910358346,2.915842480886282,8.216628415743639,-3.9454874417132575
-0.5423578584588735,-4.644487066253504,-8.209165311572065,-7.088190873681867,-1.4120770607835516,-2.176325266768255,1.0164328038813557,6.958952844714377,22.73986507788675,10.6641994906347,11.20351460851964,3.7095506248533914,10.76554952746966,-4.573196968125621
-0.4679743487705641,-2.464147974911498,-8.01896490497856,-4.596045923615293,-1.351403986391498,-0.8788490984827533,0.7695967390352644,3.502066946100245,19.324912709457184,11.534296256775292,11.440723138396152,2.3100372141221204,12.12725846292293,-3.032025980698831
0.4206493273882167,-0.0048832255743604,-5.430055438267971,-2.0324471244962297,-0.1767671270833748,1.2627051869070356,1.4543847934777503,1.923044351334404,14.044030320364246,11.069415242269486,11.253585067648087,3.4535890428173475,13.725614810876236,-2.897110432095922
1.9413177655697824,2.214445170463023,-1.705409276548096,-0.2720151675218858,0.7789131358017003,2.706244884300795,2.309146287036918,2.5914007092793225,4.200258025373533,10.155304181364102,10.744047166457676,4.0035595822861465,15.437180676339937,-0.5475697837642963
2.417538592207101,3.7146778242660616,1.4292431183894223,0.8767557699763984,0.3260956960668936,1.8916093968008192,1.969970729184563,3.2688087058520843,-0.5693870866531056,9.46107996109788,9.955256591426917,2.602893938103997,14.96208866775931,1.7746214010699313
1.1173579412695032,4.264025655686851,3.0187035733627,2.257962553700736,-0.7916359180233992,0.3013414826229684,0.8582294645748286,3.5185357143094333,0.6709071915689714,9.303962636566382,9.37796304190249,1.2485291270755066,12.3549592379076,0.5935644879255167
-0.458376745855554,4.056000578300143,3.2876284789660986,4.323260730833283,-1.2516650691322688,-0.695390747176141,-0.7064568611057346,0.415676098398795,2.116044953768764,9.57455442942546,9.557971106459092,-2.29340510060592,10.711557589711882,1.776956192315818
-1.7659616122706236,3.621976097481365,3.0330777755044664,6.479851458632879,0.0257614985485725,-1.1659017877748643,-2.297905368508512,-5.672190278127436,6.283615440104067,9.689359224748271,10.132182751909111,-5.286200439404737,9.730354839044864,1.8339589429652796
-1.9987122472430696,3.432726675392246,2.760693137239514,7.485327211526737,2.0900725391803068,-0.8139476364073299,-2.2781246513117632,-8.678233658598725,6.426047565557879,8.835145033329809,9.616999084690406,-4.684458462894466,9.78627085405888,0.3523428501287565
-0.775231230488556,3.4915098356372027,2.4215763703269886,6.527928201241025,3.291531708925997,-0.0206683239760945,-0.9501340111983836,-6.71788346418215,1.698019269326106,6.6091836645899775,6.671928274842003,-2.5245485782036003,11.617528383698662,1.729874713333003
-0.4265915971160282,3.330711067196603,1.846447163078892,3.9841590033385046,2.3086872853650484,-0.1314916493003625,-0.5856349642008928,-3.048339480756376,-3.4257573780830795,3.6285613383356576,1.844006227303112,-0.6758153278958136,10.428834255693056,1.785246086073851
-1.0325388204939625,2.489673553787611,1.2230619279080202,1.1824751588088702,-0.892345675519873,-0.4422728258145014,-0.6242167232416928,1.730160308920492,-10.74528165610365,1.4297447877983132,-2.1374340372968845,0.4100062603879297,6.239017532789154,2.234640095804413
-1.399375040472251,1.0534580235787416,1.0139342920806484,-0.5664003773891864,-3.823738601869813,-0.4247412010385644,-0.7256571383912964,3.9687733604950166,-12.58154022845592,1.4543727831194246,-2.3227168313260336,0.1078225268217309,4.3552932273555545,3.008124821169483
-1.2181183093471724,-0.2987039352592546,1.4367001411577576,-0.8201797402018656,-3.828806454304381,-0.2650075845482961,-0.631663318054918,1.809764550050518,-7.953394418922096,3.779242933853766,1.720880194894562,-0.4310796692507539,4.022429276200858,1.2960196232890533
0.3330493158994876,-0.8517386684397934,2.174791892645544,-0.1134093224834487,-1.161219446730145,0.3298362283351166,0.8546323876009988,0.5292380366228892,-3.580715631337327,6.67475601934018,7.004142389511117,0.5274880077704966,5.508810959216642,0.0527441510741305
2.5918958550216336,-0.5232656934459783,2.7285107699170794,0.6056770747279643,2.416576771642348,0.8272082407111013,2.5979003158132365,0.8902891351240565,2.477356581170778,7.564473062571324,9.223420688241276,2.202932505322752,9.90211930768164,-1.976424799780164
3.163958881052007,0.0160517392884003,3.042707628630069,0.6736210888033156,4.628357017347608,0.7503297697852306,2.702924612452033,1.4724457385449523,3.3758589392927125,4.840387045352827,6.237495188394178,2.771516131351208,9.473249057836238,-3.486085816259956
1.7080831253853197,-0.0718301573156168,3.650932528619933,0.0679447812760827,3.3484782475300348,0.2838471989020931,1.0293745989795615,2.376961794109837,-2.3242076708550217,-0.8151039953033887,-0.1933029532940509,1.697315685372126,4.087576791947385,-3.0542882293751528
0.0180351596425839,-1.0305338788314202,5.049776589436647,-0.7176978384878794,-0.4108766271731517,-0.2031577360373411,-1.0463863002279683,1.7524969264792172,-5.498164295432606,-6.707848921708319,-6.021484953838581,-0.0645757163364005,-1.4001880565171658,-4.402963726256583
-1.4442937546244077,-2.2930914802201414,6.897095970348062,-1.1222334233644915,-3.2897616764042703,-0.4683943613347951,-2.7161186952263177,-1.0210792737666057,-7.859846835110491,-9.921081445172945,-8.377727505313487,-2.285095742986031,-8.686923548672432,-5.02889693784338
-1.4501161291549995,-3.0190764822876304,7.953550443127483,-0.9890854159102104,-3.5180748155002988,-0.338454993644915,-2.3054258565813264,-2.7718103119341917,-7.272214999352267,-9.303189803680198,-7.67377751525953,-3.1510341221768763,-11.108636439694184,-3.439543171067609
0.0231859990771196,-2.8731203842661444,7.026347290297281,-0.7341620046460093,-1.1427976060198488,-0.0021902514744642,-0.1476203616666339,-1.9253907734707087,-1.9973305140783493,-6.121173291391756,-6.537406167765766,-1.947624364951716,-7.590481214310756,-1.484489882505892
0.4317221522604859,-2.3137983571857603,4.1374822013376615,-1.0299482750222069,2.1012615822507463,0.09339809470264,1.005175444494088,-0.7201900850173659,1.312008525837416,-2.889184187078172,-6.877962672611602,-0.8532274040207404,-5.574048466756636,2.284744812437806
0.4268108749134814,-2.1483750953079834,0.7716516563472169,-2.172835191324907,3.076938221888581,-0.0743423754059058,1.438542868226096,0.8055635047381962,3.483329566159094,-1.3599357276855244,-8.071672576676747,0.5516510105652898,-3.4195298053564094,5.701878113509176
0.3485649468527869,-2.8054465406946747,-1.1881330084628416,-3.64423279533969,1.1397822104812336,-0.3499711202952051,0.4984323779854945,1.5664559170593977,4.7942963549512765,-1.328065246219694,-7.928087022663021,1.836924032345168,-3.554461697786574,5.051941020326854
-0.287759173843308,-4.004226738662965,-1.010453541596689,-4.336264257023572,-1.653889065258357,-0.4380465782907664,-1.2633605320721946,0.2295316403712127,3.957724547409637,-1.1616600735685552,-5.240278503424975,2.022812584394184,-7.333152498760308,2.61540978200755
-0.2863326057142318,-5.068442658420622,0.2146833247733184,-3.3889471022349653,-3.220421972284323,-0.0448728740248435,-0.7518454884158152,-0.4595954161046052,4.083502322532631,0.4955774222715945,-1.270356031809115,2.45002416996586,-8.166930747505214,1.7286481088072565
-0.9447734660277208,-5.512191968905768,0.4477514147479269,-0.9850180212617944,-2.51359770043781,0.7014114673324464,0.2054893937777074,-0.0081526350363064,4.873627810920156,3.340355795920459,1.2190032161071258,2.9941141753600977,-6.756085590917642,1.721857695954692
-1.922212709295931,-5.326388304392481,-1.5721351697297905,1.6225202024578491,-0.0177317633592638,1.2249808321282518,0.9617770116320838,0.6802626424284834,2.995348814250578,5.4689046209038,0.3001505557831478,2.270314869436334,-5.863979353974892,2.603657742989074
-1.3788635346677411,-4.765470288638198,-5.213158784638267,2.9703015319960286,1.8186920971932887,1.0345537189588356,1.842095981327932,1.377410472810509,-1.2504948715795667,4.770498725959214,-3.6469032832419535,0.9366514743400588,-4.38707174742194,3.441055393111771
-0.4746186464228403,-3.947408122431625,-8.409256419984558,2.477415766281865,1.3290496852986644,0.1613422376179371,-0.2981911862813419,0.865927913266775,-6.415776614195824,0.5325936914584872,-8.448330479124706,-0.6267151176315329,-5.148701493684366,-0.2367724319504948
1.6422940398081338,-2.7123692456355,-9.2822236049484,0.8804301402486772,-0.0979079756668697,-1.216181296278873,-2.52492800564017,-0.844263033058565,-13.129189504717589,-5.9106292397132165,-11.816303556900492,-3.2245345174471747,-8.6180807349097,-5.786895565743803
3.3776223328643824,-0.858755442190045,-7.527207405955892,-0.3525632752097181,-1.5618156193544088,-2.0933873297877192,-2.4657863458330365,-2.2686876538990357,-14.69397225318918,-11.872356085016008,-12.5904311151711,-3.974587773121958,-8.726066322752065,-7.644859187916253
2.118009183082905,1.520577570708042,-4.433579558371832,-0.1542898656837792,-1.7417868763715112,-1.5964791582868176,-1.4534781182257794,-2.220617335370773,-10.359002542822008,-14.825004675500622,-10.802213500430526,-2.423470227347132,-5.857407773589052,-5.917919596400354
0.1732426059210212,3.9488950109316647,-1.6643353591849177,1.3679803474063306,0.8399215591817317,-0.1533078216227937,1.838068422251062,-0.6415559478665853,-6.55196393295373,-13.764728735299514,-7.104834446869688,-1.770559263975813,-1.2609505489964845,-1.195791382107805
-2.4536197722830844,5.80027520950199,0.0304047415747845,3.1081668107084965,3.3927740638324755,1.8123745794324635,4.806583671168886,1.4431731832561945,-1.6549793255568002,-9.633987952524706,-2.424914830516002,-0.1832758999047075,6.397564269692528,5.0025505495743845
-4.032807451219889,6.645898085901251,1.0901725945332146,3.896629923388901,4.02876564375775,2.8545993322237573,4.360398345551878,2.525127609888294,1.8507248405907275,-4.605317976222807,2.031791120316427,0.9328891852930756,9.22775921562053,7.539555440071136
-2.673927837082807,6.457825105861843,2.389010004016882,3.412211707002598,2.710356515401505,1.9538068232401515,1.4216775473561265,1.5318014314737427,2.8625540223355124,-0.7162773803443656,4.964017486793182,-0.4032358949400954,6.810144175690433,4.577860270262921
-0.838504615522129,5.591159384853995,4.342958835078264,2.35549141524632,-1.2239335844570798,0.0232110497301746,-1.8564545188808577,-0.209353073656126,6.2598717763111775,1.2471862858630516,5.657361831004835,0.8219025723345332,4.576521188856029,1.6249877260606929
1.2199908808101323,4.626377797114941,6.695850636346904,1.807319935587884,-5.098755147064258,-2.022477480967527,-4.311305791659995,-1.2155583660625748,11.293926521207815,1.895357267768759,4.656563593247171,2.4542692251852443,0.6930121069120747,-1.16515676574824
2.6130654648099148,4.168929281938347,8.954608405547901,2.359263833515172,-5.561513726044453,-2.587664646852175,-4.1475976824901855,-1.2856252316688896,11.984219243484716,2.388195426839616,3.573600290692042,2.183898295605462,-0.2993010193924834,-4.342761381895126
2.4518683693794774,4.638766813080309,10.816780652735105,3.7288341771871103,-2.705716127234349,-1.1878100516632482,-1.2073204789343468,-0.2350603720278326,8.607221399936535,3.328789896865345,3.866918329710586,2.3307149519630013,2.5266837057989004,-4.220005556214159
2.4087970132076544,6.07727502654825,12.142997373606647,5.0929786030560535,1.8703534523264784,0.4019840340594123,0.8935358734374125,0.8176267683170653,3.894566262820973,4.303765830190216,5.531806112497108,0.6465716341817237,3.001343895058164,-3.004975588745831
2.567912691776282,8.059482291127424,12.690265375951313,5.7533824343105096,6.49683008352453,1.2460232661991988,2.2463694733944526,0.5357648285902147,-3.42827498124598,4.3988329940394095,6.964419069460163,-1.674605368753095,2.208872031725453,-2.9364491370178114
1.68705878420323,9.816459300351326,12.104666437987206,5.553544368679496,7.242146753595391,0.7663283104987562,2.2734866949941197,-0.2555445789151152,-6.305965176980842,3.16801262581032,6.310234126573576,-2.0805710835849025,1.6038558574675663,-1.0901276408596217
0.0906988004594274,10.56576091685449,10.264119830570197,4.803552406282677,3.2984495079988063,-0.7119562498251505,0.4164305145119965,-0.4508430133784895,-3.959609813855513,1.1722863540182755,3.190843461819206,-1.4702337178898437,0.2649840907560147,1.5354970012686144
-1.249175674823116,9.891486640676314,7.540361008211839,3.937950562085877,-0.7920031669996468,-0.8964204933410648,-0.2857545335334892,-0.6595227451135284,-2.593185854144632,-0.375737390350507,-0.765296208216169,-0.1917224973654697,0.8979523802714666,0.74820165296793
-3.3189850403859897,7.954221956808853,4.59834800078526,3.2626877551878586,-4.535178275887032,0.3006090179970788,-0.7460622190620909,-0.1283433468499124,-0.4789939017379143,-0.522819901633417,-3.131017321119362,1.2110791427889989,3.714035084986932,2.139430392206988
-3.720225255364708,5.408451158359426,1.9162543021913048,2.9082054816879506,-5.705293997082791,1.522704677885319,-0.7929715777796542,0.7228750286697967,0.6520920161869806,0.7441908112081137,-2.5762175005605883,1.7562589691769728,4.61792586821236,3.9686655612685584
-1.6656691010144908,3.081683318880067,-0.4275301677199294,2.8555215552155038,-2.936494019047833,1.9559519524017484,0.2626582246648532,0.3174877251127925,-0.0985725830048223,2.57086465711194,0.2076598986708902,0.8733809410069105,4.025789750488262,1.978328356660453
-0.9347432650428732,1.5903798313723885,-2.471204332294903,2.9251936882855176,-1.5059020499878095,0.565601353380017,0.0657305517026268,-0.2025655828066523,0.1108362751959981,3.9091970552759534,3.2484991260191265,-1.1920755127417677,2.665526592193756,2.581619565828527
1.028019891367972,1.075607100316887,-3.990168301530844,2.80248536670625,-1.0651499908152862,-1.717994023842175,0.0596470290556951,-0.8854501887623,0.6538618294034818,4.184512303031667,4.856770517665382,-3.3364584756987044,-0.2905661473632669,-0.21742743918902
2.763683094336348,1.1646100695434,-4.578004493661254,2.198246251337423,-0.5767067929862864,-2.7419888288801983,0.3611787753134611,-1.5548906802557358,0.4113204664934756,3.4616432927044656,4.584622113682926,-4.061216855163897,-1.756137960557394,-4.659972584715896
1.9163118857966963,1.167404006902217,-4.1881392110244064,1.0544768189141678,-0.663009427371521,-1.7078184170080393,-0.0671553443259067,-1.2641905120001005,-0.332813021491759,2.125543238829352,2.991529038100822,-2.3011585384263107,-1.6620813374580377,-3.4044365915666885
1.6467914271218589,0.4230429463732719,-3.4998717344429906,-0.4316115925752228,0.5609247376425301,0.2946869408023306,0.4622463228811675,-0.7973281414146306,-0.977421363497091,0.4904868658067016,0.8443542539858981,0.1879239509351765,-2.371179809574362,-3.2295280138795395
-0.570617926058433,-1.361423545800875,-3.539535097418764,-2.0210664271892824,2.777708163590166,1.962217076027264,0.5374806671469959,-0.2499085015556811,-1.641682054473731,-1.2898114399418432,-1.3065266869787706,2.210362393931342,-3.258850331026621,-0.2962924207711903
-3.026686580744601,-3.949150476044053,-4.766798668052616,-3.626410401849597,3.755181828213152,2.2412293124802325,-0.0045711594421729,0.7265107268238128,-0.3489113754243106,-3.011167882595629,-2.971775074089976,3.2958727945187505,-3.559423174168044,4.139266683200747
-2.370526893100614,-6.664490696744934,-6.504586182476515,-5.184465830898802,2.9316654104846958,0.8867953353440843,0.007618539152727,1.858507863132224,3.218200600703357,-4.218602260770552,-3.5510939863641795,2.7216525181336007,-3.498004633544105,3.3093352837241943
-1.277919021093211,-8.663700428551635,-7.373802984897651,-6.295805021626677,1.6706359738322087,-0.5092186115895041,-0.7575175814485736,2.9978413371312835,6.362500290253894,-4.2969147362545925,-2.605803277391175,2.2444207505889797,-2.1945067796556192,2.9435811918573043
1.4448761321936652,-9.234834964033269,-6.439916801847005,-6.133513594918867,-0.0798967653724536,-0.967139089841352,-1.2732955839239637,4.425716550625366,9.536780981650214,-2.836815062562408,-0.3309056384938174,2.703781535387614,0.5569551122890981,1.3891623905776544
3.645014234200241,-8.034875090661274,-4.040354517052123,-4.003632101631752,-1.4315088944170222,-0.6565281891393162,-1.0316306060955984,4.024314679822244,8.835831516428954,-0.0132990150293892,2.364453063366426,2.0460757037609354,0.8177132523683677,-1.7114724676608282
1.822682415982644,-5.263513144293313,-1.5137817123554953,-0.2479526423731499,-1.5726177721347347,-0.0578002488173088,-0.7195945308517202,1.3688309602290707,3.3733353379152047,3.2890958234519303,4.324165146277068,-0.0479953549807283,-1.4635054777967322,-1.8872341493922364
-0.000431717943459,-1.7406613983674788,-0.0846827567594346,3.4171468966585508,-1.2081999493696776,0.3437103742879547,0.2078578519741036,-1.037692930158714,-1.0801639516415988,5.698317957382415,4.699093647773452,-1.4946013646671148,-3.570606224841496,-1.852827121668734
-2.097367722380195,1.2745860459376104,0.0500264504780432,4.782126910380526,-0.6573861777195756,0.1450637684938764,1.1612839433090838,-4.579769574866047,-5.511693926319958,5.87282579889947,3.135541054343662,-3.884980548750924,-6.349512981775884,-1.207968707991895
-3.4055551072739663,2.654343510808957,-0.3768968977127542,2.825817047331185,-0.160244728491706,-0.3951365243748698,1.4891745133622407,-5.936803797298176,-7.111029390791179,3.1839389279120667,-0.2761790274873306,-4.63774611788743,-6.021243597018404,0.9767678694565431
-1.1027321623131503,2.152711727591708,-0.5946112396241006,-1.1748771457067733,-0.0117290782135877,-0.6108065453784501,1.1113355899567234,-3.322817730961062,-4.5726186084670895,-1.6921629700828476,-4.856933523164912,-1.9217099090183656,-1.9191346531026177,1.8564898156589325
0.8055306053810078,0.7401769835213656,-0.5007315395104968,-4.2791678328340765,-0.7883536849684201,-0.6663027791351464,-0.0382113540731908,-2.211733785280543,-3.7698386029602857,-6.694733707961177,-9.014836355390685,-0.9883050406342416,0.9287007831547534,0.9408864983093964
2.468409892646819,0.0196982261718687,-0.4913858436718783,-4.032732558212814,-1.4006584385079708,-0.5992065925203619,-1.4389071255887511,0.0582123001320178,-3.819119145530789,-9.173687502336122,-10.426317599806112,1.2580279407128614,3.40691332888445,-0.7978240149887836
3.214755341268748,0.9559379889300031,-0.74390697465941,-0.4794332873845519,-1.2422012688154964,-0.3499948004248022,-2.3650882465545866,1.9964984780617776,-2.1716613773772333,-7.40238807788387,-7.272368193200407,3.333101000837957,5.503214855697142,-2.7424824142027413
1.1037802919988535,2.9403740165527665,-0.9026920049147692,3.711100431344249,-0.4966146283129399,-0.2023044712538085,-2.5297437569095265,0.4277886355613435,0.3500060108361257,-1.910524273386045,0.0387999894035715,1.5039283722088583,6.339982990093293,-3.2930916593209814
-0.1933693051895447,4.17371985179895,-0.6213104914153575,5.2616514427385255,0.6343208708891923,-0.2052411804550263,-1.078212298566888,1.238747192333722,3.086295930865818,4.502811916744463,8.238811541274657,1.713073709596106,8.632521030633345,-0.1210580736921318
-1.4564321704896237,3.2518121582422737,-0.3164432349020103,2.8815555644476376,0.977678788582624,-0.165784278024733,0.8660173940811267,1.5137206306300346,6.2563833557121065,8.441761737887958,12.81031378841584,0.287700010706436,12.197026501367516,3.8057330016244633
-2.07637894846163,0.6062904875726645,-1.0645064360430183,-1.684270975738599,0.8192899873138311,0.1863041448370543,2.141921060160581,0.0370680550244427,5.159864085274536,8.25176854438655,11.120653048550878,-2.478818574109032,11.90194135315638,4.905303564269658
-0.3490050310941937,-1.6461802068291718,-3.444970236496644,-5.0158479856263085,0.8845264191215297,0.9068850159943178,2.9565838515038525,0.499900296668242,-0.7850846259071531,5.203799369729239,4.647345343102543,-1.3501110200947095,7.836149232900542,3.3154561544035035
0.3505704267995493,-1.5282093161674055,-6.452349151489415,-4.673789641647446,1.4497542600719846,1.9257686251341872,2.509155831650104,0.2393275779337368,-3.739274436073598,2.413749239692777,-1.853672052413188,-0.5127193866180876,4.41833799629869,-0.8486275231891568
1.497972546423844,0.8726913866530595,-7.848835085896411,-1.032917420928996,3.160153758569673,3.242885027468859,2.6774710820087777,1.3378428039619394,-4.537126715520537,2.227950686233953,-3.954597248004845,2.3643927732863115,0.704957880791558,-4.386709533305348
2.6455398441017626,3.2457842805558244,-6.006786318324316,3.0722680915612277,3.785424582952317,3.315158496076868,2.831749255515175,3.7790635099546535,-3.3178912047644604,4.227433584437193,-1.0853349935498215,5.866634525600894,-0.9171686046790972,-4.008661158195385
1.8189802521272709,3.0052525266364114,-1.635642498225721,4.482944215094761,1.894698960941951,1.6723318404548515,1.6584099091120728,3.5890643010453727,1.60217498374163,5.623871342553301,3.099336012900736,4.830958186749943,0.5040711233526687,-0.6695519033255173
1.5196779813687746,-0.3388281559460608,2.39877873414504,1.9324781318292423,-0.265241888088148,-0.2738048341591053,0.5275451674833621,1.42224584544883,2.1133670791125736,3.808087253426336,3.979720684094332,2.2095514233188034,-0.8359684515270005,2.2760931191612905
0.3117494734929759,-4.621808824531456,3.2640885427324378,-3.2407149809511395,-3.204728393716321,-3.089065341872737,-3.125297437968389,-3.611767035854961,-1.7362405898260282,-1.134320659209877,0.0631646326506398,-2.141661724618435,-4.365084624806806,3.831338874734198
-1.991176110306903,-6.925053703665355,0.4731482434261096,-8.224405694147208,-4.647919208818297,-4.49772272823132,-6.143985967464629,-7.897579311612049,-2.95247271987122,-6.214490269098057,-5.738379676715184,-5.827154268293771,-7.0479987485985935,3.168534723181629
-3.504673896396877,-6.256648250442673,-3.812309248068552,-10.729558779466975,-2.957445642598586,-3.1915582466462538,-5.327116300015954,-6.7365759947697486,-2.9872192889876827,-7.950613622389625,-8.784949485485306,-5.604971944322724,-9.83171145816316,-0.0342853062978463
-5.362592612619017,-4.495888611734642,-6.76981388990496,-10.39995826556735,-2.5270739310110475,-2.350621236838986,-4.339368953150625,-2.3943517584337064,0.1752772976616036,-5.365389419043986,-6.869394325124787,-5.028788722333424,-14.617498676009587,-2.882635371333892
-7.152438585499843,-4.633020817266903,-7.320577257461899,-8.74086492991357,-2.332235224435436,-0.9472099074874842,-0.5830251192254617,4.574552566136306,7.880165544546737,-0.9261405467073728,-2.0697289357891577,-5.393995041938792,-21.26273557859398,-6.205378182475364
-6.060759300042866,-7.8855159125453795,-6.735995816247737,-7.765796852675486,-1.5823437621829812,0.4777439493671916,3.610135149903556,9.217631537676,9.954781166609587,1.4731111577575504,1.2852715617401351,-4.813252186331784,-22.560255826383123,-7.667011051174082
-2.5066304942563065,-12.395682366089288,-7.022216369475972,-8.430729389260978,-1.2844955490384842,0.2469254313356501,3.582743447713005,6.858436416619445,6.618326781296431,-0.2158031882028197,0.5170225039515302,-2.891734314476547,-18.26418909516343,-4.485936055494181
0.5084326806877157,-14.78164142742049,-8.772021505132958,-10.007653761908308,0.8588806748846999,0.9748877461330956,2.7162873674965966,1.2844801675976525,2.8824638708873134,-4.497403170205273,-3.216886390747751,0.1093240434215396,-7.279099780566747,-0.5441462971116029
4.620434447317184,-13.137122373033195,-10.554954647949469,-10.803644516004006,3.6645951448595135,2.028653775275441,0.3310623161726659,-5.095072769212131,-3.405881753253185,-7.650460118076471,-6.222771244579295,6.233646371799233,12.67786266213906,5.2154786880477175
6.893600649651533,-8.701897315278591,-10.309428502102586,-9.59296000065902,4.282494087425748,1.86596028265938,-2.570285807497124,-8.148371852355265,-4.640758626785364,-6.843091904835601,-5.58073539455494,10.04214357658163,21.82104231633237,8.571515921286718
5.595048075331157,-4.674468986494368,-7.288640519790652,-6.590225842951309,3.0486580879040623,1.515036161505586,-1.9754937724378108,-5.060286890825404,0.1497902642486902,-2.3138946787230683,-1.4074662071560216,7.759125577574806,19.73469482169428,5.415575203763551
6.804618766243248,-3.32914069345366,-2.7337771821161496,-3.2107259839476967,1.5687830616959888,1.046997039963182,0.6759000130637959,-0.2485766810496456,2.830812263066285,3.1339131884271474,3.665287471681591,5.557208789343617,16.348953907503546,2.4827279109431952
7.762462668100944,-4.154869776320709,1.1929209691590046,-0.9171381172761102,0.4009287006438705,0.2814023549806059,3.411659675916784,2.943485425264699,5.155522258888685,6.602404603466379,6.9006163750246365,1.5369822739898469,6.999306781714829,-0.6849176897100806
5.714899389378129,-4.695421848227475,3.0532032138587226,-0.2142560057107516,0.1459871070000759,0.0628606509419391,4.475973952784336,3.0347198295558058,4.816223282785123,7.182656778745283,7.442199754930883,-2.380641080269066,2.881818431873186,-2.7926974643678566
2.348240911045412,-3.177773110350735,2.863350196443968,-0.624870606661986,0.2365616708028413,0.0843648563266518,2.0531790854236798,-0.1791038523478562,0.3362375174826896,5.962722465830744,6.37829631363396,-2.4789890857257832,5.25720719118338,-1.391346466093657
-3.596252062968316,-0.3555777518540921,1.517143273480876,-1.4777654592767249,-0.764037044815481,-0.5951112583993424,-1.7135243551821664,-2.2866577892197486,-1.8612120739119191,4.402330612685148,5.289652174151456,-3.323745774292396,3.36389310099874,-1.8233478537797023
-11.323963432092365,1.192361436306932,-0.2096534034373931,-2.554237709737372,-2.919170301373516,-1.6779962620649325,-4.413387345274936,-1.217662554631053,-2.5243759333116653,2.954632965159064,4.831284553068024,-4.593638075190301,-0.2582358141730707,-4.262746529128292
-13.140140593972848,-0.3741338955920454,-1.9946496513291123,-3.888217535837647,-3.841064313855394,-2.1997256830967564,-4.356083907043396,1.007592350999326,-1.766335232668909,1.2365317354569996,4.512458348270748,-3.7405538388477337,-2.7850992686232234,-4.7453000915195
-7.434733950296742,-4.161935733480725,-3.503745057860968,-5.045727408048165,-2.258052109293513,-1.672712348641412,-1.458942561509968,3.154365226818977,1.7098175219783809,-0.7596685952035358,3.5882847490357648,-1.7169480915057376,-5.440592316718462,-2.124149147243163
-1.3442767915460077,-7.015694578396754,-3.941229709657428,-4.9056755231608165,-0.0408893144527713,-0.3738551558472281,1.041020783863986,3.822798674606305,4.716336217307699,-2.0128898904633488,2.062128861573612,0.0572698861767528,-5.608596323825362,3.322863419513433
7.385967070432962,-6.0958104682134575,-2.378594218994671,-2.4855711387761943,3.0117655791313003,1.6878688086062676,2.525386024121406,3.0811988784594875,7.598605034417239,-1.2686815476301945,0.8529235767028496,3.013664486703384,-2.808203500187432,12.041176193251076
11.976099583386173,-1.3144160349851717,1.3295052302770642,1.8757270099892764,4.1917796849588544,2.8466700430251013,2.509729084536995,2.1414005265142384,7.160239032973436,1.4807873251117345,0.9804144593895644,3.996721693888763,-1.885313518119348,15.407027579231242
6.980172021236112,4.483468762854443,6.009111877571428,6.309293708763775,2.047640742185176,2.088369084228515,1.0618880154209394,1.6406609814229816,2.433958109325514,4.424903487896017,2.4708186397049587,1.8990487977631487,-2.3863065328351807,9.075673423880124
2.955468729979481,7.741011657888649,9.711596401460524,8.702968532857795,0.3180920112186077,0.5429014469726736,0.2531660710827906,0.3247371873808532,-3.4512032917978,5.023174705755281,3.951589712618429,0.9989659908203252,-4.170391205453629,0.4867376580572157
-3.0846550897066853,6.935392547952347,10.99905920102205,8.446665291152328,-1.7399126693780098,-1.6734138911265934,-0.7573568138406653,-2.9071262521312784,-11.60629157599936,1.8972087671025548,3.4131268107750543,-0.9404841880572372,-8.302655294856985,-11.393664194380603
-8.373838017160663,3.6095362580793022,9.901584676032344,6.937695687996978,-2.723664159226096,-2.7817225933763945,-1.4384575886052595,-5.069869937301255,-15.94952789779168,-4.092983729845543,-0.2973602368785748,-2.0869060100814907,-10.184801032117658,-17.48945870487463
-6.119172439743682,0.9651791029626082,7.7869882060646205,6.24095537956552,-1.2439991228359046,-1.5762515377538375,-0.8609200991978935,-4.851149652401949,-15.654636241005846,-10.44141675296791,-6.346791012241596,-0.6417403194562971,-9.890581791318509,-11.614619096330646
-4.2856848396069545,1.307290305561324,6.35710059196893,7.151156867326435,-0.8641255260763877,0.2527237920586868,-0.2119596727226002,-3.3652231812946614,-16.061172946225817,-14.654449415810332,-12.110577944117054,-1.0872212182962853,-7.863579416139222,-6.403118275227173
-1.6805733869826052,4.443377900041796,6.628611566426471,8.578443739147602,-0.306674263070558,2.311697661216398,1.2782595132424843,0.2370072239615298,-15.591231398079143,-15.607230754692624,-14.728777614156016,-0.8729023056926225,-2.949605414380227,-0.1395325076539908
2.3682118961343117,8.179623059693569,8.551022437705072,8.876614379762103,0.6297509059227788,3.1424344319244426,2.5498436566059963,3.1922681331201885,-13.286653703355274,-13.720280131896146,-13.002995406354517,0.2816083213649438,0.2138182369013672,4.707291888578558
2.5096343384084063,10.268323818936665,11.26549686915954,7.742163024015113,0.2458624946410408,1.6811568392709604,1.9127046072793896,2.934021569692668,-9.60987699778024,-10.168423514087712,-8.236674347431276,0.0253874548860382,1.679694460803621,2.131651661858021
2.007520775362997,10.096843546144529,13.638633913774813,6.709258253513227,1.0204246655834277,0.207103115016307,1.0117195094468143,2.3556110098531797,-3.2336736376293707,-5.983652727038205,-3.307340813189697,1.6258197940437986,2.8683266304641606,2.4207976262481457
2.126630630256245,8.848933972315926,14.787425441387796,7.698607709074665,1.8021875650899095,-0.8176490391506719,-0.1084724185342435,1.9066742129291716,6.056399478923557,-1.7028277729529009,-0.5853213667420363,2.658947554661237,2.707314002506203,4.616422923067874
0.5195705530750756,8.25399549229087,14.462251262481368,11.05289056616563,1.0057363282666196,-1.355219467323318,-1.5671865341940014,0.2030816872821858,8.919508400498138,2.424632653201229,-0.2892034304414324,0.8217840266207501,2.578418145768597,3.9962821634338
-0.2926687521877226,9.110106093633576,13.11020986593143,14.971650373378097,0.2674132085431558,-1.028462495331285,-2.32491448445329,-1.307015810142272,4.867818866789626,6.0680698047663455,-0.6360243787924347,-1.1691977033390444,2.413407957589055,4.055960277775404
1.3854913192010203,10.728338722213309,11.450486671185857,16.827857291127643,-0.6812789362514957,-1.505467971046899,-3.3056642755437577,-2.2231874580868247,1.1795804817869504,8.639195611470257,0.2775299682587757,-3.269397645747913,2.187436837001456,3.6008473100070635
2.2314096752381625,11.550295958016504,9.76134024468405,15.073605700073188,-1.7203995156053518,-3.180049198734823,-5.28062611889375,-4.893347552403658,-4.286712409406519,9.41702352022547,2.4703700679738887,-4.595013211774305,2.197611743693219,1.7508853846134504
2.706317922899934,10.317313775451892,7.525294487099927,10.10342869656548,-1.2420598953525728,-3.7092842615986825,-5.258958321313713,-5.47750641763438,-5.0904685565902685,7.905157179781653,3.834170381580847,-2.8269113031046547,1.281470612226256,1.5241674847784985
3.189280473338468,6.943006329742296,3.957466116670666,3.65737120081468,0.321038664823901,-2.1646549581622345,-2.4557655008002603,-2.653843884601862,0.2307025630350189,4.270028949219707,2.0819516768191377,0.2424944218510707,-0.5213045673278103,2.142676652156972
-0.5218584917050771,2.611164495375128,-0.8994920101685011,-2.3372164123787584,0.9266561139630292,0.3372604491724735,0.4658561206910057,-0.7512307478089221,2.6251308409601304,-0.3907714777895208,-2.7498705724211376,1.184872746648344,-2.580644243637665,-0.507153412372512
-4.091075080839349,-0.8621915057134828,-5.6034742534619895,-6.479612087163218,1.5966306743561418,4.295575994272654,4.962822786849258,3.791540741013508,3.704756719659223,-4.263206526547592,-7.646968143211716,1.8280104486733,-5.1217398257350615,-4.576687131367804
-4.5616991637127855,-2.0277113690379025,-8.089973625364237,-8.03830670198812,1.496184353503614,6.08631645130157,7.055378076074581,7.047786813270305,4.056352585396619,-5.637129352627376,-8.729200039414295,1.9123017259783652,-5.539471531351183,-6.783917231890105
-4.113247007843234,-0.6615295557923275,-7.363039561212535,-7.030587930394784,-0.4872575700580203,3.57258190821542,4.495909861290103,5.1623463924646735,2.1858040875968974,-3.973343500943429,-4.505949978495082,1.0142211930338585,-3.515416368252763,-7.047564726498273
-1.0367896887919554,1.988058806572937,-4.608098613066645,-4.432307703963971,-1.5864204408717368,1.060284264022676,3.8399320315189303,4.896172749357582,2.638320200574953,-0.4489052779422167,2.591792286965866,2.7558870244805163,-2.6634498853794426,-4.667493787173876
0.8927117675752877,3.810754307013543,-2.549786477566279,-2.0499549312460985,-3.309455695680333,-2.282599436423373,2.921324748141336,2.6478112676519285,5.268480574910855,2.627163814093958,7.900371583048866,3.890961255788072,-2.4529559054744587,-1.4941862017856895
0.1093028498124397,3.079151127536825,-3.406603086366939,-1.6169264502507552,-4.101013785049728,-4.166944334760275,1.5527728958649838,-0.7897470753561933,5.10173894640702,3.32503876140429,8.103788173090422,2.580934244961633,-2.975805794275394,-0.1161488358098912
-0.4230605172142767,-0.3863139870840513,-7.111874503112652,-3.5265178716513503,-1.7884969421704224,-2.0866704253406168,1.7264694326131451,-0.4413338333381061,2.750391696836332,1.4649133054101462,3.688334547212204,0.9405679954330866,-4.93872356194093,-0.404920841875749
-1.178451122631357,-4.955093955184594,-11.30962254894274,-6.313956719466862,-0.2025063866913767,-0.9811631058884652,-1.4061327989914405,-2.0746768731418843,-0.6806082330615132,-1.3014395032887442,-1.7308608562551164,-2.1396596590067727,-5.614882322758628,-0.576027516821487
0.5876497753919838,-8.128471709598845,-13.124410506796115,-7.591247749057661,2.466215919275984,0.0337387115785293,-5.745951459024282,-3.288122216226959,-6.131534367279293,-2.876785109101064,-4.4713109810555824,-4.662744079897176,-5.128056894419081,1.6126858026463131
3.2130332462265945,-8.129704471277535,-11.241373184948944,-5.8631961607240575,4.302851209680648,1.0492715899353746,-6.822109947837065,-1.5354091765049327,-6.246973464201099,-2.4593361452955698,-3.533709010143985,-3.976528260558468,-3.4913647407819512,4.598701726222556
3.2976693464979614,-5.053547692779726,-6.680796926476159,-1.7479860396776834,2.6277626375736447,0.195958053618576,-5.198565468026722,-1.2433050436054272,-0.4677257630348667,-1.0977834025315492,-0.8362960182778645,-1.750518322237122,-0.0437413467589313,6.685550207582565
3.370858780089052,-0.7569686201097707,-1.8328163587582704,2.452092383416333,2.426226062593136,0.5830271265538962,-1.7634040904862822,-1.601798502866557,3.951901009608169,-0.4999611209376828,0.9447328827007166,0.1440753932652022,3.9582612744328447,8.365297954498306
1.5724463305926326,2.417779292982732,1.2932088448664143,4.478129283082467,1.6371901269754134,1.7545209556079238,2.159059448972593,-2.917158242805545,8.60581275142789,-1.1611713729574198,0.8112097522126815,1.8871648793625524,8.752955058651505,7.691616135994062
-1.005575418021797,3.1500325196297387,2.205356341117646,3.7054820700850577,-0.0335362835005541,1.9036038965447095,3.4491020512649904,-4.800172733915319,10.164113358455245,-1.6352058036680537,0.0483195334565551,1.9943283553179056,11.19376960487727,4.225532507633117
-1.5791979228125317,1.819210441977467,1.7603341966031332,1.371743980627488,-0.3144994276855969,1.4202510278071951,2.072046777535898,-3.75930160874408,7.1822907355205645,0.1876888718485663,0.6948595417116827,0.360546586180465,10.77039125035338,0.3450242333819703
-2.081526293106785,-0.0360940425571651,1.111150128821846,-0.5676090348628096,-1.914011836746757,-0.2362353199854241,0.7100086549273388,0.548582025974699,7.904485491708912,4.8539188874377714,3.4586907121737447,0.5052410366934674,10.647469878276938,-2.851942034803229
-1.9243403715968743,-0.9658451999114082,0.7769158798388727,-0.8911121650158513,-3.341628536110148,-3.064126810206236,0.3493111981981848,7.276428762263784,11.4939263619224,10.307270137718056,6.994619128671684,1.30967001112068,9.98730743621018,-6.387449851552876
-0.794286882472499,-0.5968542657186866,0.5374732213174269,0.2482697058909106,-2.5972330991664307,-4.322956081215942,0.6037374063922984,10.728985450452726,12.346533103285983,13.246898594701673,9.089431635809802,1.3155490974981137,9.886521876991935,-6.941844139278425
0.0236983038525791,0.3181672830776847,0.0489514784343683,1.7773094477294062,-0.8964024520190703,-2.653437277511033,0.7927873727700914,7.188224105642632,11.656205916929023,11.879326032522329,8.557765104193113,1.187297480277358,10.845177795245467,-4.638922641121611
0.3407031731718829,0.7161465117378487,-0.5239312170590473,2.6608882744340328,0.954287179135278,0.3957267159143628,0.5560376483613245,0.6666719058295119,8.770773721051611,7.618309668994902,6.127354088052048,-0.8266454264607257,10.037287197790434,-5.2972743023768345
0.6530975528323929,0.1894396184121909,-0.5097136456870821,2.554761344088014,2.6368897113797147,4.875990777003892,-1.1045818064499866,-8.245305874859193,2.692272733989873,4.081262511123002,3.664388256038869,-3.997912654877454,7.726495602872418,-4.715527537755476
0.4693178132570339,-0.6892732433716127,0.5986191543821029,1.7776315234209434,2.4173621566942773,7.231599018526592,-2.250594805260528,-12.57771890395735,1.456588827583733,4.138643407566736,2.634787016651611,-4.701272695186325,6.585827550227306,-2.354111175964782
0.1100350070563456,-0.9417208015392936,2.419238985303924,0.8155724650963343,0.776202289607992,4.817651657775494,-1.468758238815847,-7.737812288502902,5.193528009941118,7.577131242866795,3.214547522281137,-2.299454981422327,6.270435194742288,-0.6813633871140535
0.387286837821467,-0.1726641144514253,3.655213838580938,-0.1422991069325263,-0.2611703321659634,0.6549380639693612,-0.6931165906616641,-0.8719477364610078,7.477719711764663,11.418462590927684,4.600791502656719,1.197837624948308,7.475734194050148,4.631159728883017
0.3273707534868104,0.905670895044974,2.967042418821368,-1.2625598587739155,-1.432331108706021,-4.963077943383972,1.0466770790006423,7.541027716689425,9.931875173657245,12.544365878297262,5.879828760550254,5.5169228939665125,10.839167059761795,10.257425003098904
0.2051570700242561,0.9640569665205448,0.1226020073971021,-2.709598080850906,-1.5580288188635487,-8.016284253190618,2.2698727354002943,11.60395335483804,8.898029272777155,10.242539674151018,6.530504342998647,6.526670322291401,11.372501267372524,9.781256600120502
0.1252416561492988,-0.7430912713991162,-3.577240246588847,-4.208999628789204,-0.4841333785842815,-5.378403703726285,1.3632435733524764,6.467144084199774,3.1272898034492678,6.477467440164904,6.355731258620885,2.362844259603279,9.105209903140238,4.582011869748412
-0.6718475579942448,-3.476654534885796,-6.106612583589261,-4.974750329791114,-0.4923503643142106,-1.5656737934398484,0.8787395877909473,0.3618723251288265,-0.9450205596786112,3.851943455449348,5.316363059218439,-1.5924894556259337,4.09603425280644,-2.1854668240916806
-1.1033627219928996,-5.30531728232457,-6.21805845875911,-4.193515728732251,-0.0716832484516727,2.630099870217407,-0.1977769403858862,-5.9759477123066285,-4.3210644776762095,3.2759908435265466,3.603445286906954,-5.728608119096041,-5.0032211230828265,-11.193699071025376
-0.8405658600970143,-4.519884839666524,-4.410217185599027,-1.7739459674779177,0.4624937808711865,4.720924970817752,-1.5374216088289008,-8.793120391864814,-6.446891744425742,3.433934201440266,1.7087082321795748,-6.539770488362311,-8.143084370033243,-14.121298279822136
-0.3781443133331558,-1.0715311517256758,-2.4881964021860696,1.2796010744177764,-0.164353322879857,2.178240992492822,-1.5167804502384674,-3.876404038975774,-6.087875868616352,2.316938205009933,0.1590990668609961,-1.5917254569296615,-5.04022220991489,-7.545525930225379
0.5702990824945804,3.199919400981134,-2.042031262487555,3.3388295425802994,0.4228976500876922,-0.1670775080442778,-1.207319857794232,0.1803039946820357,-6.694190126036257,-0.7924706694512906,-0.8895185224783084,1.15924060445163,0.7167011581748615,-0.83596793029115
1.2835719698826484,5.8057961405381775,-3.143083191042294,3.255903011912008,0.5379007787041873,-1.3212950663848098,-0.0405905412415184,2.783812543407284,-7.807403901572473,-4.714936057056388,-1.661121777671898,3.8878342489849103,11.679119299816628,8.885831756466882
1.0342972290708117,5.321826369116906,-4.388473164344958,1.2475668810266534,-0.4388909943773267,-1.6795812923572957,1.5063254466678748,3.962841844590463,-8.485529327918513,-7.521167696118969,-2.292884458381419,5.03061075245963,13.886675613635024,14.41897160084274
0.3418484118276592,2.200900133930631,-4.221765632296712,-1.24530930174501,-0.3336446063530184,-0.1436261613153147,1.8327646013001664,1.169826438101197,-9.281941074936384,-8.211883723526679,-2.527402582489767,1.1835952010288775,6.363144682205477,8.392808003583776
-0.4121138013537616,-1.838605406279001,-2.332375902916961,-2.6909089939559934,-0.3463367061682121,0.9286437027666996,1.0507198083375715,0.3459957936702272,-9.810669129206667,-7.432810891268552,-2.123102590808088,0.0403121294426797,-1.7451733016825104,3.0266244140608247
-1.233461199973946,-5.129061786360527,0.0892294215992741,-2.6504502495475286,0.4675036957075376,0.954284324564252,-0.3685812903262254,1.792737530240769,-10.062055613898169,-6.790195421016865,-1.587557202471455,-2.1053455996779853,-13.85541029251404,-3.4781133121332983
-1.4954207812854377,-6.910229241587777,1.3982370532880068,-1.979500116639283,1.8860596676143724,1.006805496311748,-1.550607439893919,2.489071874931969,-10.39408730127532,-7.541042586383657,-2.188500072781892,-4.572439473151052,-18.06487301849469,-7.436616995691872
-1.0025770185929923,-7.25262482609954,0.8668460441539594,-1.9139863256754277,1.8333494710397409,0.7908198988518084,-1.1720331602522729,2.459413444579337,-10.75520392269314,-9.725344695576768,-4.842118444661494,-2.7252173046340555,-12.57451845848026,-2.153940143671112
-0.4990135691983238,-6.559590652620265,-0.7923791565720322,-2.9616558346285604,0.5003003493159448,-0.3981438622889665,-0.1627906096450886,0.3434060973008064,-10.689525515316866,-12.2071126921189,-8.848465065217779,-2.195026963710093,-8.651717995061096,0.0057953232145863
0.5960934181633905,-5.370046364557487,-2.095463058611166,-4.653911139321703,-1.9822806849658376,-2.419572568128385,0.187969721601443,-3.839263392280864,-10.220776466871806,-13.38301726830523,-11.92064865423518,0.4606959253096661,-3.245865902487445,-0.2414375803695388
1.9889428504089877,-4.495927774930408,-1.9649137546767008,-6.257133260455447,-3.3861668896527197,-3.56245233265957,0.2816342201988997,-6.150002136054484,-8.750072793583012,-12.075489159360574,-11.801597238440966,4.047790856575486,-1.4928585191582648,-0.6728681172468058
2.3404179509172165,-4.881329457449281,-0.4082372968389869,-7.508158451514513,-2.2120713237563834,-2.610731109655499,-0.1246273916780928,-4.543113674575478,-6.098947838029747,-8.231102235347223,-8.118631217418155,3.5078609155061096,-5.26187456461881,-3.971699122290873
1.7351105625542158,-6.842516179945983,1.751015465707015,-8.485721219322347,-0.0101197168122745,0.6871047804059958,-0.5817497055980558,-1.166276355574896,-2.5864811848157085,-3.132321228301654,-2.772786093360347,3.355510301249978,-6.527618909508161,-2.5056947803325085
0.0606577939591543,-9.301335171789438,3.678814531561464,-8.846445304645238,2.802135850697638,6.089591247444567,0.5572892320067822,3.3666926484364263,2.023305885336125,1.1003624720572986,1.4814175903340931,1.764003059142499,-6.831590227771261,1.981765518543764
-2.136499378569632,-10.072352590781056,5.071475920389156,-7.573757818294522,3.850756017885224,8.77722730398557,1.8156341027076413,5.722924162800076,3.706945890542804,2.618450987745046,2.9524217229500955,-1.087822603591953,-7.327720712386951,4.289085885217471
-3.072615901466989,-7.446320301125284,5.997789913795178,-3.9252219262852703,1.841715039341008,5.710162404321197,1.5011897228663562,3.3280368512074907,2.103516325615399,0.9482504919125638,1.8186542809446848,-1.4287662881050731,-6.846951479891414,4.004397507355868
-1.4111522056690224,-1.8912934148648048,6.343672496341766,1.2159794069922487,-0.0514316419996573,0.2461922639372833,0.8476581286615356,0.1589149716888086,0.2633101595297871,-2.7286386491280314,-0.5677883083091846,-1.932441340127344,-8.19093143058848,0.1396517464338905
1.110083060616399,3.799728413044252,5.562550198232426,5.208909970406079,-1.9739167718322927,-7.020263270533305,-1.626279675750049,-2.7388584449816054,-2.824222300680165,-6.389848696516422,-2.912015017875965,-2.8388605158265325,-11.376144368215604,-3.7821124490379994
2.6733696839482275,6.391417884883323,3.113425883278885,5.398143734879998,-2.993831079801097,-10.6450982993458,-4.221644844222583,-3.9753329684112906,-3.0370982766741257,-8.44572269711287,-4.579546641241286,-2.329992205351372,-12.052782230309646,-4.524678302931161
2.503445527952113,4.69428755985952,-0.7859673129252642,1.4177405672784418,-1.5307755544348196,-6.517577178805907,-3.4278541898926838,-1.8018074253737228,0.3123371012924935,-8.452200831488282,-5.3334560362824615,-1.2034708199715227,-10.515259384224745,-1.8734708951147745
-0.2623312922179318,0.5004457653600067,-4.903364603563898,-4.147384079679197,-0.2789925134723376,-0.946159173399898,-0.9644805098108228,0.4443402976817683,3.109861051223216,-6.8351993928985415,-4.893128543704282,0.4096892070741125,-6.986449364401561,2.797683156261528
-2.336080972923779,-2.908976326750949,-7.668382467501256,-7.615943750656464,1.245568088513327,5.204124285802901,3.5224939753291697,1.741404291749851,6.434884026640444,-4.170932739670208,-3.0142084783403478,4.0232789161061415,-0.4368200689857552,5.603229105145195
-2.014100717516398,-3.38826368316725,-8.312797036714091,-7.077360788115723,2.6124059538261712,8.251504608418328,7.008183443742208,2.0506638473838192,7.394080739796509,-0.8843521434812387,-0.0257715551667135,6.1234300010494165,2.28068610066073,4.936483675305613
-0.2782033694032489,-1.4009978935518297,-7.454850250152271,-3.728465546724319,1.920046355004688,4.557755789861558,5.334442546938278,0.7814356741103435,5.181884339749498,2.430646022004214,2.878116264043472,4.364441828814288,0.9717501189496036,2.191193458572955
1.7684803387192305,0.8059002161954969,-6.523880887416556,-0.538749839556095,0.7501576148976189,0.6669620750523646,0.9027127318489592,-0.4571597208809189,2.451471671608056,4.708916545963893,4.138528955839472,1.2073380958443618,-2.412540564637953,-1.8635852001593047
1.4384015808904358,1.3596177012003188,-6.488173048820887,0.4094900418850344,-0.8640953666128596,-2.395846972429944,-5.003637423873162,-1.022721970443501,-1.7461091342807018,4.800804727058523,2.88319133332097,-4.595067437510078,-9.658689398816191,-5.022860876948593
-0.3516335802414071,0.2201573459047674,-7.035028423354548,-0.5623222553128002,-2.356884677518289,-3.890641323466512,-8.031027358365904,-0.7882144861323012,-4.494904953110159,2.3714579514180167,-0.3370017115125243,-8.320690945849504,-12.641432902305263,-5.203287314657643
-1.4044065277214457,-1.190287487094614,-6.958040259896335,-1.5569288040686995,-2.2145826109764,-1.8923921050793,-4.826617474381728,0.2974833863967374,-5.32820632270073,-1.6053175768537935,-3.828440521077441,-5.772893632844552,-11.004526759241282,-3.5034682322080744
-1.5024070553081876,-1.5163049610204211,-5.366757410055848,-1.1822640094234922,-1.4928037525200262,-0.6537832107248529,0.2721566841868672,1.3316125461927468,-6.533966014495373,-5.408600802636373,-5.912588331488149,-1.6971873070290138,-8.486468836953136,-0.9671916941274296
0.1433442784984053,-0.5779597862254944,-2.5600272534320494,0.2465359803614664,-1.0838537818987866,-1.2573676418482234,5.197694295909356,2.1044304550419626,-7.306547101916458,-7.772762827745318,-6.051579085553438,4.18508886136135,-3.070020300096307,2.2051812475704344
1.433140333740852,0.8243062289031986,0.2491635772895337,1.4177079677527216,-0.7406490359897233,-1.6768763925524326,6.624241406620156,1.9962889172365363,-6.7465380805250135,-8.601797353043136,-5.0416760525243305,7.828470950642841,-0.0546418386672913,3.9219354565039
0.3689738599317718,1.9266175695064387,2.0524204974678835,1.695674059821641,-0.69705612685769,-1.6448408163055492,2.88756718193623,1.0603130949623103,-4.922720631618032,-8.517638370059506,-4.15898374612248,4.797183459645395,0.1315414382995834,2.8128692066960355
-0.3324241661047044,2.7291012972629884,2.9171734536762584,1.934871197528188,-0.6869802636942918,-0.4223316281299473,-0.8131698425379721,0.1859404863097244,-1.6132038393374355,-7.759695500359146,-4.008078897941819,0.7670364411772319,1.3755734531335313,0.3900682068932153
-0.5678717579630642,3.843892930142648,3.815235345787448,3.596980449111805,0.43592632454507,3.05703499688019,-3.0849077816272854,-0.5983955792161787,3.455179459212291,-5.652675781521348,-4.032444978600747,-3.572237459201117,2.43842629301586,-3.3412462503160016
-0.3018774710933359,5.78524678856979,5.640494394052594,7.088628942738054,1.701463656587155,5.229872367188176,-3.2353462382750484,-0.8815790090754183,5.387936935476247,-1.3137031563472217,-3.0657533781851978,-6.151746322716631,4.196308610823498,-6.034925319100217
1.1656042621885674,8.404692389399745,8.37380193843757,11.01472776647021,2.3018442688307874,3.803723579022706,-1.0508853123931028,-1.131494923903502,3.8961961427627103,5.014351475814731,-0.458409149938749,-3.736751424903271,7.104288581427315,-4.094426035960781
1.0439315635712578,10.877268207857025,11.11417598534456,13.1467028715988,3.236969882094924,1.205440957972452,-0.3404105859563173,-2.6130431256446496,1.9066621553013996,11.360743005614944,3.1286796088100424,-0.9370453862769784,9.25259648003789,1.3125540672496787
0.078359310076962,12.159399136083303,12.82626345496618,12.250241946148346,3.937572559703659,-3.3772787327106752,-1.100150488061648,-5.148677004484592,-1.8056601536828147,14.956880056538898,5.930940782566503,0.9667799515695528,10.893184676039724,8.865028441130436
-0.4161248647969429,11.588727039895332,13.063255286121086,9.095098505126693,3.397861909767525,-6.424053227977258,-1.5854740724782466,-6.155640049291079,-2.23200744607026,14.126288238480791,6.239562043920878,1.741207059330136,11.004091295760569,13.084619008113714
