AF3,F7,F3,FC5,T7,P7,O1,O2,P8,T8,FC6,F4,F8,AF4
-9.97721193716862,-2.238263928185637,-3.135418096590765,-9.445576665090442,-0.2681293310601211,2.4323022771439184,7.281820390508642,-21.713255930956453,-19.913657908289508,-7.751991838863714,-19.850186885663906,-12.401860493701838,-15.776850769918497,-4.425679529833382
-3.092647685069977,-0.6172529937684081,3.84080771841654,-12.247576046041416,-0.242249512927443,2.040027676552819,11.95310248028079,-12.62340076922106,-16.5806661551853,-8.507750100957077,-12.891170854516332,-6.074205118331109,-8.952191146232963,-0.2528575149223354
3.4592227527464843,0.8235626042435554,11.546101365361054,-12.77256288899045,-0.0302627555683194,0.9357994501999164,13.353343068135786,1.9168009522649652,-12.420548442454816,-11.715292487950602,-6.547919179008716,1.803578323267508,-3.720232201717465,4.568237957007257
7.456164287214619,0.3297320511787943,13.72529444721027,-11.90302764332256,-0.0360636224447221,0.4692293028950555,11.637681912691392,8.710675532035257,-8.402642443141588,-11.395689085176958,-2.217112706727306,4.757169532544967,-1.32945197247264,5.753355752360581
8.803584824111056,-1.479413839764243,9.409429618692116,-8.633324374750728,0.0479472776916431,0.4501134393571927,8.403005432758235,7.108896311851069,-5.1635368595613045,-7.398839078201663,0.2904052505523964,2.6300082874406114,-1.4114856090366743,2.0347215350901995
8.677615462465027,0.2489972593639514,6.602323853741949,-1.8926879611425989,0.8831893863481731,-0.5895960080703898,4.963771680743747,6.686907996104232,-3.1115374598895897,-5.33567716090698,1.6285222568160975,2.481259615453935,-2.6452164584701734,-0.3687553924476967
7.857528698679815,2.1894345746821053,5.200436924106721,6.786459475783403,1.2522621658578663,-2.110409848921583,1.4562143759982291,4.423586643479564,-2.233634369879283,-4.088657644471115,2.0882063370220294,2.795734768130333,-3.704750099476272,-1.7229772694638217
6.109600918281927,2.476549495241378,4.023377936290028,12.957632321620936,0.972070118142886,-2.511478892527014,-2.5082699202006893,4.750384161454515,-1.8284949367030092,-2.594912660348953,1.7330544835728574,2.932662381379825,-3.834585479058191,-2.826273887618536
3.187641469074819,2.7232978636268843,5.234530484556142,12.27327555635263,0.214973307336541,-1.997121973112808,-6.661829518258813,9.058687473627574,-0.7321605585529625,-1.6759500548552422,0.8912617292223644,4.312667414951407,-2.944890305844723,-1.4077727623515357
0.1092793012319788,1.0129083718159984,2.059574232318883,4.371533609735678,-1.0452934770803688,-1.20013991477132,-9.827940340118474,11.300135705546678,1.8089206842063843,1.280415409944811,0.1430983935530747,1.4617991259810013,-1.486247033532834,-1.187154087742653
-1.057872755256966,0.4443121186797297,-4.210440748554637,-6.01896996425458,-1.8900766134729727,0.0675427349247272,-10.874270433666029,12.750809541452234,5.251133111241629,6.424318717080294,-0.1985244961932153,-3.544237797440768,-0.2651602326176174,-2.014445963574389
0.9341789875957858,1.6460873148082484,-6.299283747452182,-12.13882099784729,-1.6139808699309013,0.5473630285495219,-9.781330617430626,12.830787182945176,7.78064304940451,7.222306661444513,-0.3777033640667753,-4.786694478096831,-0.1263530787416016,-1.2073494929535584
4.809780880599057,1.825766522241709,-6.268009137966786,-10.131746595981298,-0.5841191963788237,0.1408215773676268,-7.667304143836922,10.574181987975852,7.531415436386176,3.7830516628154154,-0.8076088413913922,-3.31374392303849,-1.458068179684254,0.0687396271251806
7.240978738708009,1.2931774175799218,-5.033986073047126,-1.8680582300484327,0.5590802644804833,0.4629573325847929,-5.784407249302902,6.384493904194959,4.175963381118677,1.0542197213237896,-1.414967776147563,-1.4988248545702558,-3.7516054100638527,0.4143339153042249
5.503601104096603,-1.6017994665165154,-2.959360557249612,6.578609330434613,1.5761440985724566,1.177853138294421,-4.54823341251123,-0.351725988754775,-0.4553293175459671,-2.220204728825398,-1.4645252954408932,0.0152315298074375,-5.597641062132162,1.0291166677996355
0.0452033999653807,-4.205481660892911,-3.3851560422556024,9.49452161828534,1.4823814122091237,1.5834568820541906,-3.502441181893392,-4.234066310248611,-3.438569427719816,-1.5820991068450725,-0.0753717158866926,-0.6527390878266282,-5.30218817910459,1.6796268037246154
-5.517196582520221,-3.5752137841395744,-4.3748603005624735,5.544419616179837,0.4622126316129082,1.4619453267371156,-2.0690071079996137,-4.987678984750088,-2.859766537244365,4.105054811404342,3.063018983773194,-3.212083934487041,-1.8757256702345728,1.688330129910432
-7.20393691064272,-2.411681434912495,-3.952907915894249,-1.6440791375618762,-0.0170462196141658,0.404197234131275,-0.201216017879906,-5.399469620073759,0.6415063210559415,5.718015575907723,7.371562995752511,-4.324555291132678,4.1839845144136,3.247432013727973
-3.891896453657616,-0.0753033279446682,-2.1489376299165723,-6.424403048870499,-0.3720226647948079,-1.3851332258346776,1.6559516459577357,-4.111675469668551,4.188426983289976,4.159684380577257,11.610009836551813,-4.024587473978494,10.879076369204494,4.8758273903822245
1.8951030194383935,1.6665148727735175,-0.0184914284155478,-5.171878932541299,-0.329987360009226,-2.370441534253534,3.0626248899969277,-4.533052997637981,4.73628635950039,3.433533749688624,14.403147780312626,-3.458990675163431,15.623267200671693,4.178829346456684
6.251945007450928,0.6522985633013095,-0.0442295909415868,1.4718059887583,0.2272371039987788,-1.8107655462902188,3.8980406002406767,-7.009833840428236,1.365189147850982,1.957664120247308,14.77519830350186,-3.2274006049114154,16.628497614143278,1.9360891013099584
7.063218610057451,1.0703548034332504,-0.5442198469499239,9.436478882558976,-0.2423470376211135,-0.546198437701011,4.217463762351102,-8.663041060080731,-4.002728864774198,4.771791115727703,12.514166981062544,-3.7549082601333095,13.904476284943726,-0.9369949599098496
5.240099528911234,2.744958030114549,-1.4427899523680725,14.1790997742972,-0.9231078716339286,1.0134878063868946,3.9768486333502224,-10.288306133414553,-8.074445496366309,12.657900835220584,8.225215488596337,-4.641486097089724,9.162894574870052,-4.35652772002673
3.171294954073879,2.8671338513086084,-2.4802771218280064,13.524998943555264,-1.0140977576868215,1.769918151948663,3.068000843128466,-9.037713850354429,-8.703830186075749,14.142855784420483,3.0040491693022773,-4.967460967925794,4.64649079152759,-6.113645360741702
2.1763933298183176,1.550899876236214,-1.1293340363640456,8.575746480240753,-0.7890725795951651,1.084605483103716,1.6657207491428423,-4.279594763321313,-6.4229653961875925,9.83376058769503,-2.0860211106882858,-3.486392045211713,1.697979897384407,-5.517446764218872
1.4726517106705188,-1.9269919235705155,0.4427091298832142,2.432197458239365,0.2631261865545524,0.1702952016948462,0.4321543219475927,0.5915457735729357,-3.7441819299161097,2.1963923345122147,-6.343194080091884,-1.8570764246343687,0.0902652647720003,-5.37245748207456
-0.5699607997795297,-7.64561668716427,1.5054533496724227,-2.0339644758336064,1.3269914695807137,-0.2176366506352925,0.1919662340641608,6.34947980378224,-2.869737444703389,-11.354135966332732,-9.343626309117148,-0.5063701000174652,-1.4413005776491945,-4.7178914608924405
-4.404769087333783,-9.513850316613372,2.4737178482758995,-3.738165940570191,1.2160739401834828,-0.1057596266556167,1.2359041196578031,8.677492064546913,-3.820316810444957,-14.694762171445763,-10.677766567680097,0.7586643616143864,-3.9213786377425,-2.385700525003071
-8.587368969215312,-5.210915889263397,2.1809861806783712,-3.445250189512606,0.2149260023962244,0.2278500986863542,2.8851979176402907,6.648663250553327,-4.608154509230424,-6.920003938300018,-9.930108704072635,0.9691838361528092,-7.075189089288799,0.1033589727250724
-10.91414861297769,-0.123153286434003,0.874544118171594,-2.6981063655227047,-1.024598976159816,0.1831743565947044,3.85309814213047,6.888837626636519,-3.2189804545978333,1.818377310395219,-6.988081572430524,0.722940548571535,-9.247731434565502,2.1679233233946293
-10.147587995002205,6.058310131155219,-0.3145555628693826,-2.6031523331603097,-2.076312343865204,-1.1478499282064836,3.2745712632132324,8.375109167982378,0.4835973658048758,15.399282035667254,-2.310521036002058,0.4066107252347915,-8.376453392129342,4.324411354180309
-6.748760929669103,8.810273622083448,-0.9438625365910422,-3.236680549693901,-1.5783475346173987,-2.3963674211539594,1.5924785630154048,8.931062388874025,4.700377633746804,20.34720734659907,3.182258264704004,0.1364454981701811,-3.4218999615480072,4.571643760213986
-2.269069725932709,5.20641929861845,-1.683055767758932,-3.7997589199729305,0.4329350561242697,-1.860355221948873,0.4374629327980273,9.56674950605544,7.45597045774862,14.679057607462171,8.45160198745404,-0.0772760852299725,4.645625611672173,3.7671514557759096
1.7170701737277057,3.807049301828549,-1.0205942249703803,-3.2240499738282296,2.125891661769834,-0.0070132049691971,1.3958932251199485,7.431902863520067,8.391662555462958,12.693354218700245,12.51224007588253,2.016380508819415,12.999187127726316,6.351888768901805
4.218726063171758,3.941167718767797,-0.0709787785379449,-0.8863888067195234,3.8570958366849952,3.663783705410477,4.572004799738821,2.1511555254210024,8.826109817933158,11.126218948323285,14.3827515039429,5.331181445741786,18.29113217983135,9.18019929025898
4.871994441962471,3.662891386857398,-0.437935946644069,2.8370330338151604,3.636017070200257,6.059404996527869,8.204599804186799,0.03317825047022,10.087130665707946,10.671901813388464,13.239340194031795,6.760616673070723,18.43601301187715,8.680520820921569
3.83273543364362,3.715306551249877,-0.9241542097915356,6.460046613876358,0.7562421041290635,4.292424915770003,9.834118107808038,0.7595391044582592,11.874302326109516,13.463244733799284,9.033279393906014,6.503074980946197,13.716081093090011,4.800735989005737
1.6903685803587507,-0.4482995306258747,-2.69000232622049,7.956456071672051,-1.1033335304489975,0.6011114157054781,8.180600227695948,0.5192627379200669,12.378322019886753,9.938973075995708,3.07050989349365,4.503494051694388,6.476980161843997,-2.3759110767576104
-0.7850886321354835,-7.913825236393569,-4.75495474753607,5.895310413135078,-3.440382004422325,-4.749552368797342,4.178148276752495,0.492268115210549,10.094172279138364,0.3761225841739132,-2.328062828943644,2.183711877735325,-0.3426766845614679,-9.869953585609723
-3.0738650454315604,-11.420194761656544,-5.119707903824146,0.4987200379998171,-4.146429940541351,-7.711756248136305,0.2500965318959203,0.4353896265107622,5.5285868222705545,-4.63251776532058,-5.242681680895657,2.202968338946658,-4.79150235838344,-11.791898588027188
-5.112962557716756,-8.748747036562634,-4.0968952137466985,-6.20444232080979,-1.473814678245278,-5.095884286934672,-1.590132892752294,-0.0879791766598268,1.0784511589018422,-6.424691559199792,-5.56591011275853,5.084628262374151,-6.567724475321967,-8.36824004686063
-6.979296848596576,-3.146464073001701,-3.0863917386387456,-11.439097532720352,-0.824726111092023,-1.2441656719068748,-1.211962438248463,2.2487637376035496,-0.8469071553142555,-5.066003320694105,-4.983811106642918,6.056904369961309,-6.543892967460877,-6.397181684511913
-8.405942092855625,4.241030418679355,-2.731319385111986,-13.340060747861456,0.3325353972530806,3.016814552155997,-0.2137955853888939,7.525030586327301,0.3142857806182064,1.6603498542866089,-5.295828463471437,4.523931020641508,-5.778704184916926,-6.103409531036953
-8.821508501783782,7.736530305917277,-2.9215975301809074,-12.016000277100694,1.2459883037780424,4.984114104107286,-0.3774657090886535,10.582332548488008,3.124944598009684,3.938506061362498,-6.525500608477309,3.150243396776797,-4.837153749516929,-5.565958991731598
-8.006628108760587,4.475363322160293,-3.6372289877036494,-9.200042159303038,-0.4926936662743829,2.3478714328823216,-2.122546597362636,11.848801260685583,5.673912809471162,1.94246599790531,-6.696450625094556,1.4225370783251958,-3.769534127761432,-3.7006741146362265
-6.569839780501908,0.9628000053649428,-3.750900370079596,-6.767662980773835,0.3386410273684209,-0.2448602734552794,-4.235810148398471,11.738558783615114,7.156184514921236,1.723292031483742,-3.703141587310931,2.480505976898618,-2.509364999866797,1.8851423463471817
-5.460533157454833,-1.0994552286059256,-2.639772546961969,-5.350616624663878,0.8375356545703512,-1.690732988609616,-4.975185652919627,9.093891242225997,7.997707037751653,1.3493801660915088,2.322778431683389,5.923388832432024,-1.2266612967779338,10.635443922105408
-4.851297985329509,-1.3627179625533996,-1.1395963881837183,-4.221545130057216,0.5257119451318285,-1.3822513719168614,-3.5147074909065807,6.0514924232271055,8.618255169282499,1.425601893325074,8.3953592245296,7.394449861149413,-0.3590471302907048,14.133315478099348
-3.678021555158161,0.7810419501984418,-0.3940315007377953,-2.5106125212479355,1.9020307008017503,1.2107546974606218,-0.5389275271522749,2.3069658293104665,8.333118480688434,2.6193117904169654,10.607588243731662,6.071308845620081,-0.3511153217217924,9.60786452217361
-0.6435130528923239,1.4504845068834502,1.0460002313509258,-0.5503961404484343,1.105004154791058,2.481921896223307,2.3823653953512007,-2.203728348480365,5.697524977746298,-1.3135207739155048,7.147961622926779,4.597409957079956,-1.3217407562768528,4.77373998678667
4.105281061372232,-1.166956196866341,2.6750490986141875,0.0842086863825102,1.0188330141111324,1.8340774987934063,4.00375331005494,-7.114198461167101,0.0513846453794926,-10.554033934464456,-0.1087293151190493,3.7682602259437625,-2.8947198873348725,-1.702438030191831
8.382669808430023,-3.819347880436249,2.841522672332099,-1.9066634378413951,1.5817078620738283,-0.0217907018628389,4.189213823636656,-9.906600137339964,-7.277987897798503,-15.061027320303294,-6.82091762842802,3.5117467924550065,-4.318329771975634,-5.658701516660938
9.347702240284068,-4.085478747160563,3.386705104440483,-5.831398517170772,0.1485872461256563,-2.1540347893962584,3.728284262788655,-10.144783187654198,-13.415262216668804,-15.62647662691763,-9.282627949085622,5.322971814901315,-4.830484443277172,-3.326144280393309
5.838646065412153,-2.0831903140745487,3.789976216880976,-8.908349097590225,0.3623631076774282,-1.459594461391288,3.46540243180047,-9.840351188450583,-15.801788970308705,-11.596975548272017,-6.970753559584743,5.251640463489891,-4.076014129340862,-3.632435598339984
-0.3956007162843278,2.968221155962808,3.453464299867172,-8.237898900853736,-0.8352185007716213,0.9110507829688376,3.5297661423897786,-8.22790844777931,-13.949507100187496,-0.5463694150038617,-2.6214236748690567,2.583734210055653,-2.336185279021059,-4.572788920392692
-5.701535985748972,6.947736596771596,3.5900177082634026,-3.262566238912409,-2.6904976083998866,2.5654357352768926,3.2774079081024787,-7.148397082717188,-9.644902489931848,3.871020578097274,0.0577643233842763,0.3995413248297088,-0.4188501645391724,-2.565047074974953
-6.959726528866433,5.740461730662581,3.664721287738354,3.553185423773563,-2.0778723182511443,2.2647034417095733,1.919649102316935,-6.899443063982395,-5.51432320655525,1.7804542239218872,-0.8600075243005953,-1.7723319941978928,0.7713868723657846,-0.3911834314756386
-3.53466685406147,1.7941516997464182,1.9999322466026996,8.56509873106406,-3.091929407259069,-1.7584723650273175,-0.731233580765803,-7.185589835335492,-3.194732422748425,-0.2638644424819718,-4.360196132317144,-3.062376349549626,0.7906635038295171,2.9086697456881265
2.590568167812105,-3.82271879302157,0.0483682873658476,9.693945107541085,-2.624241256036277,-6.749363697615972,-3.990875528947198,-8.627780941050093,-2.527188480199607,-5.237510203034529,-7.550869439959795,-3.508616424054457,0.0297637617722923,7.50633201706145
8.29277982239932,-7.435289899224003,-0.315780918310408,7.625508959590723,-0.4098492650150488,-8.246957128642684,-6.667499490724667,-8.196754139649283,-2.1941527438272512,-6.597181404075442,-7.890127310269727,-4.131274405538158,-0.4023282668721233,7.345168096261828
11.143254641424404,-5.60809725409684,-1.0032159608578786,4.594592410469823,0.05256097794954,-5.17460274169793,-7.7518342150740995,-5.865593244136135,-1.039640504102529,-3.52067538192964,-4.878667822493066,-5.560295707148937,0.6253094805770214,2.4381375025005947
10.44445624084038,-0.8597415058269942,0.1172236642696283,2.240438930292159,1.8434893710857323,0.9030312144988836,-6.958250510269902,-1.717045561321715,1.0646291966799095,-3.859998468520489,-0.2119296243984001,-6.470808017145265,3.313691238825964,-0.4071364454447501
7.130740790695549,3.799863292789778,2.0132002203720454,0.7010087382080052,2.700737231877609,7.266356402597169,-4.814411526023926,5.077580602597247,3.353688085155388,-6.2543801036943165,3.4052508759586027,-5.925500538467388,6.408121305824948,-4.386211627135615
2.9218970208420667,5.2490701063592375,1.7487834445997068,-0.4993936309680835,1.350995457719377,9.360802368988582,-2.296338389925532,7.995769156820217,4.952296172843609,-7.996410796996456,3.833825784181059,-4.7458046087356855,7.687371683221953,-6.491147565644346
-0.6519218564982543,2.6612269655056062,2.5361664129838792,-1.2277394086277909,1.0235084829583392,6.099894709368163,-0.2514996556721502,6.816786074250597,5.5269953853072415,-10.197835601720708,0.5710088015221464,-2.084888323726073,5.390381383873123,-3.839350586484082
-2.8698901988709995,-0.9518199570993338,1.5307276150856333,-0.7857448319804767,1.0402367762935782,1.8498220798270009,1.0235749494419029,6.019682727496525,5.315375472824518,-8.438645333418709,-5.089089663932411,-0.672919361600201,-0.324372152643404,-4.891486405809958
-3.8594271562082607,-2.322054023507369,-0.8004999000671924,0.9550921311669978,1.9683042886409363,-1.5833111685699195,1.752786066817805,4.146621101902274,4.659933488720872,-2.075285368922123,-10.742217043933769,-0.5782985398556998,-7.056152966579765,-5.13881035988761
-4.125619816595009,-1.042462459115132,-0.9022368020861908,2.981453270335855,3.1949254645198284,-2.74361263364244,2.210116108377319,2.6194421976013147,3.572247293853234,0.6966383242039839,-14.046352717771171,-0.3222467352749215,-11.457977548426992,-2.612042192840446
-3.942370553176625,1.2767603531938492,-0.9402555440266755,4.109182842184806,2.5496637097483497,-1.034665287062341,2.2367966749576595,2.0003198036737526,1.757783222590998,0.5902931172289533,-13.813031855095607,-0.6281518120328677,-11.395554282771268,-1.2549482839499655
-3.1052643270730247,1.3939950249073332,1.0680726412543422,4.418582914158948,0.3278363819320962,0.1292917409502839,1.2886026894260318,-1.0702794379493996,-0.906814450905994,-3.437924530619445,-10.415835082640212,0.9028550710415242,-7.397604063815928,2.635080152173791
-1.28332866711078,-1.796720300993114,4.498442906969036,5.206837316237891,-2.899931905292916,-0.7336884404452197,-0.8917256201425019,-6.285430567346872,-3.866906058774479,-13.359884893771415,-5.2491980543333145,2.7431950545723294,-2.203458017800404,6.031247964487822
1.366970035247114,-3.737853333506157,5.752204879720031,7.147030881479845,-4.443297896225726,-1.991686845380189,-3.593464104595988,-7.731281730416027,-5.862131682123827,-14.075867108033744,0.3710142804376701,2.488246576102162,1.361243061252921,5.5566179175829085
4.033327632291957,-2.1015788478595674,5.02328474023232,8.74547547682251,-3.3691530612092038,-2.881424649575557,-5.282839243336483,-5.541341973053847,-5.565481055207627,-5.416427843129872,5.991610120573149,0.8034210909696209,2.5519258345448144,4.315416114858692
5.890944208191883,1.5745275124975324,3.4086318039682184,7.375210642130188,-2.3413563555469428,-3.2995996000003105,-4.721477625750154,-2.9641268705992245,-2.5463872949073547,7.162958584617863,11.830634709760568,-1.1213770892575925,3.1267911340865773,3.7836714993892366
7.012372881911212,6.705378371904123,1.959190371046161,2.426659967334114,-1.5553628214667583,-1.821067735701388,-2.161265981111711,1.2641908169544749,2.1371614852047784,27.345711788819333,17.811152687150233,-2.070739456865776,5.598079941555447,4.478129416183885
8.443639969326735,7.37251346371963,1.375659593630046,-2.741233613211115,-1.0954768872742169,0.324275433339037,0.5821512173678407,1.6759062453539657,6.265529352295282,32.901839669575125,22.772238650829618,-1.7284736199053106,10.745632763859843,5.108365941280896
10.978783403008322,1.7215331711019743,2.1699376868315245,-2.889539006181053,-1.0715811799862065,1.3352383519148208,1.4509800010210585,-2.4890920999243797,7.625503777994265,22.12020120168396,24.71310774810565,-1.4317990961483298,16.5493561127601,3.24546302873806
13.637994534416707,-1.9304096523403795,3.105266392550845,4.084396007100761,0.8968295356940074,1.8972714549399068,-0.2084072213848422,-5.837803402990095,5.286008616058346,11.431255844242896,22.003414126690014,-1.889820516527054,19.525037898638885,-0.487586244312686
13.64217613897323,-4.503087660175988,2.908511549431689,13.87883116976704,4.419065867856884,1.5941926807073643,-3.150141543841833,-9.725477094052737,0.1153386321799523,-4.521013927310121,14.59817538097732,-3.380498496215118,17.337805517880987,-6.0609703880726
8.56272905274605,-4.573158131771501,1.7983568163969694,18.099251351013177,5.3194046673502,0.3642870227494918,-5.334328184260496,-10.403549028748666,-5.780397747670797,-11.64954952741301,4.280124207210204,-5.282346216970149,10.453603516608371,-9.406050978749914
-0.9662573507225112,-0.6553670990492237,-0.7735182199487115,10.95796027962751,2.974547913829921,-0.1559651686105949,-5.60067815191427,-6.780076111739016,-10.24480916525338,-7.025162870131759,-6.199145405900115,-4.801656043220237,1.5431290883714723,-7.960028669077599
-10.714881144655354,-1.7612566145038135,-4.917013500677041,-5.327097281344344,-0.1879257837705259,0.8711295470501974,-4.405989114792568,-3.1451106485588585,-12.07007277876101,-7.921832546414761,-14.342296986426344,-6.12175115494695,-6.557700566308423,-6.89710714040441
-15.62030466411137,-4.070916968358476,-9.89411545876868,-21.4911618998091,-4.417583263580716,2.3396557880213167,-3.092696818481013,1.6725502607947829,-11.287909478035946,-10.738623001913242,-18.665775889076127,-9.011371006428307,-12.372890162884314,-5.576298988069331
-13.79211942388899,-3.936036230824746,-12.960270684905831,-28.08272786422357,-5.583487867305284,3.220154573671818,-2.5506156842572985,4.0109519404571445,-8.818887037345608,-11.304725505170683,-18.80358293806504,-9.582142824364777,-15.70078261984898,-3.1784075378246395
-8.145381024026054,-2.982579098403551,-12.052561473970057,-22.480298397211808,-2.117887902118122,2.4797169800301178,-2.5712864874533423,3.006999352495946,-5.891670687518285,-11.851775286746031,-15.356242078488249,-10.761200726797307,-16.642844507599854,-1.0161377827030702
-3.97033355717722,1.6996053755984537,-9.93071103080895,-10.232152395124888,-0.2034058797662267,-0.3472534580237155,-2.3575906095595656,2.516821488968941,-3.563598268351164,-10.196426139836342,-9.816413879178045,-9.729740137726909,-15.215922993194996,2.148326435161652
-4.502571726924341,5.764325335343544,-6.467120435433969,-0.0055109603822209,1.693638498470056,-3.48692191648837,-1.4956660247764084,1.4709188611928368,-2.436293876883589,-6.0501809438842455,-4.370220629060029,-6.391718566931178,-11.945512362404616,6.828017598946947
-8.441179837659984,5.7675202941442265,-3.028441818506729,3.118422473849634,2.93227366906558,-4.7296747214672274,-0.3772459897277578,0.7105029023819528,-2.548080380337339,-4.783832145681617,-1.157526050127423,-5.131287182054502,-8.339885305806478,8.940766004656233
-11.463339059382257,3.708250736782544,-3.709350581999468,0.4160479130111625,1.287791844651107,-3.473150409940836,0.2486053465741804,0.7550395466910464,-3.449606281431034,-6.275376747566707,-1.089288297816239,-4.976964223912931,-6.111803899544791,7.169614736668054
-10.053438477716224,0.9919294984023704,-3.920073147263906,-3.151591661426844,1.834184228696284,-1.0075213421925604,0.0347808924453296,-0.3921832315345808,-4.442498312470388,-3.2026963463719107,-3.087961804786344,-4.014055664419318,-5.601606504804563,6.595375279089918
-4.12410223246313,0.2440709176022603,-2.800634891038854,-3.768110456686349,2.53963323747582,1.0822271818681246,-0.6491074750875541,-2.453460633340946,-4.8680409635126445,3.762967026655745,-4.679703053036748,-2.4397359473817466,-5.193487286577724,5.151290857062547
3.4648144692253293,0.9749651709956482,-2.7837744148254084,-1.3039267634813427,1.3869348161990018,1.7499046070828246,-1.0640368190114522,-3.1461662821419867,-4.316735007831964,6.204098568643225,-3.855673461682473,-0.8878931152029838,-2.830976226322628,2.4811875847383997
9.329548475898438,0.5811465700232634,-0.1110006466587822,1.9334103015195807,0.4796990411732431,1.073657187507818,-0.7016352367738676,-2.613614196662778,-2.744952770274858,4.932629797520453,-0.8205422020142237,1.0728465164962049,1.5073702404512763,0.4535609035050592
11.474197832127958,0.0841080425750832,3.588426933475747,4.083784613040519,-1.4402434656252012,0.0272695245801914,0.3925564570087694,-1.674305543551022,-0.558304573106259,-0.1982801457941544,1.9955205182582196,2.730057578571903,4.9266752212848,-3.1521751524271067
9.565726985599898,-2.2820490851834414,5.662024975220215,5.193714847479883,-3.2416665780112197,-0.0228999668682738,1.737252622187892,0.1593619954016654,1.402136838405914,-11.134646419313244,1.9476851684517251,3.4503995744510982,3.703373569796126,-7.424921369312599
4.391233329941301,-4.529465226880418,7.328656701796543,6.326943404712561,-2.7792814062255613,0.4198045199754379,2.7584116171523245,1.82514631249476,2.1712059681479605,-13.236315726469607,-1.3897789702078036,4.485900791293291,-3.158505207066333,-8.335189592663687
-2.3646460639763145,-3.3486693118910256,7.360877703086095,7.913733991645296,-1.273905425137674,0.4574969875713737,3.082605858724257,3.255430185754507,1.2972226918979803,-6.110106456791201,-5.585101042243882,6.208907446396701,-12.154069073086276,-5.751463892370809
-8.124861438548661,-2.4632242800814588,5.930076726031568,9.282765952892158,-0.255800486580806,0.8322633861502364,2.683851858729625,5.833920936182972,-0.6216509059105633,0.4988539738745412,-7.255397386093424,6.531668628727155,-17.266922173264923,-3.909254066760317
-10.156795365908144,0.0656623420278157,5.373308939353447,9.604903340046397,0.6311776863757399,0.3229330486228788,1.908815083459704,9.388702030253905,-2.1276422520225697,9.832222565189149,-4.905047060857848,6.513379688618582,-14.40244779950526,-1.5775684573281237
-7.201522283282678,3.243768773547343,5.837205585849641,8.880008369243601,0.689788989395949,-0.514848203142173,1.3597351421209258,11.064454373124832,-1.9400946447455285,13.050239731587332,-0.094839759175632,7.301578025223174,-4.638486581324973,0.0602142459217347
-0.7033906873109839,3.35182047627922,6.841447014827331,7.804045673737431,-0.119512765805557,-0.6357270942381572,1.5869653319635098,10.854571345885658,-0.061635348548898,8.374123517739617,4.167084593161957,7.492888819934082,6.478916418062598,-0.3677453816861821
5.828025310795091,3.0803020791957336,7.833930017069544,6.84075018992061,0.1652186718187883,-1.1036847263786052,2.691144523086218,9.093125523342293,2.142187985650992,6.44571110608368,6.259474917056949,8.392632920672305,13.06612571173494,1.672593077302176
9.193348937753957,1.3998288648218686,7.703581910533312,5.721723065725308,0.5919783258410928,-1.072614752488501,4.143111488427186,5.0012380767693125,3.1709780857253644,5.0133673344508525,7.244257618629159,9.316396698000911,13.095174509602929,4.68762039124211
8.707661527538797,-1.4980228223164893,6.116423589772332,3.938761054314616,0.6350076057750428,-0.4596261163193215,5.084659984799109,1.924123828089566,2.8840088342838706,4.971198113752598,9.38660311611192,8.502661457324434,9.345746627547708,5.60697577990526
6.307168656945147,-2.45511642625157,3.108437645578168,1.5095343357427788,0.9924213014222416,0.2094456746436724,4.976139149286922,-0.1446274644960499,2.756422512724384,8.032770022976594,13.45172927805929,6.482272245647837,6.60065842095992,4.9269310829170685
4.512811669538452,-1.9848129928657816,0.0722787280040749,-1.0050288982506517,0.6069586936954148,1.4729904574953636,4.054424608277226,-1.394555984018665,4.457267030613874,10.384737765461873,17.558097338270457,5.033477522681993,7.60402925417956,2.823716801899644
4.163800548816663,-1.3877851347156742,-2.73207664989601,-3.235072679638195,-0.0416329485674602,2.938799061027535,3.128611507122013,-0.945535498823483,7.997152009644497,12.759323351556803,18.763079436960048,3.839953556371511,11.068156928624742,-0.111560355810318
3.9664411521300353,-0.0935488507357453,-4.376992017261598,-5.451203777076774,-0.4162347482085017,3.248224340904562,2.830583550631377,-0.2516589217414724,11.302589253568804,13.271891264586172,15.774391754766112,2.995407112127737,13.082017328937434,-1.5424929532743892
2.12198224272062,1.2522490494413845,-4.3859130332565,-7.982006131847546,-0.5901413770891006,2.2758144975219783,3.0117721249200446,0.9858612975343212,11.837001720016165,11.15434658424418,10.0830217850905,3.5293510107220394,10.473122801475014,-0.8496187707931665
-1.6497645084393833,0.6621074645413778,-5.09479378896936,-10.213610874190854,-0.3048887837405219,0.1234556497052807,2.903715734126637,0.5568883816833441,8.896590991320279,7.278692723593729,4.486376902189437,2.2522215582512697,3.334496038835934,-0.7621366689493928
-5.655585461003208,1.545623449450922,-6.191288006424866,-10.576837441610357,0.1777533644655332,-3.1218968622852805,1.9212138566240844,-1.963391461954512,4.430110608942827,0.8012147284558095,0.6160172431298765,0.147741287361291,-5.085598626271625,-1.6700011689793794
-7.733905375590471,2.422282326728606,-7.051583168478842,-8.029680074281927,0.8504124330817407,-4.610287382808396,0.3146609595280072,-2.3044373656233743,1.5199478481252404,-1.3906709715210497,-2.043203239287351,-0.5490982588352296,-10.71469379163294,-2.170075871718715
-7.236205554789134,0.2961428462134878,-7.083439720090795,-3.757083306130164,0.9898438339796144,-3.421934809722545,-1.0046916885897763,-0.8756809937124057,1.848281745733204,1.140238991378551,-4.842210001552351,-0.9892346982949812,-11.244592653678689,-2.5408143147028817
-5.598809227939614,-1.1709720461085946,-6.546840564300197,-1.1161858670557097,-0.1015386484189674,-1.5386366624590595,-1.3085540050670277,2.786318835506445,4.4339320438330105,2.3263551222758263,-7.947021275128928,-0.7738451632742221,-7.189230495296683,-2.636660220203464
-5.003825527812224,-5.535032569265162,-5.559526812543866,-3.270006438091009,-1.4272490231972703,1.069232132392068,-0.7099280660169338,9.675103130047168,6.725208304856703,3.6872138359783446,-9.803970998095384,-0.376161600527231,-1.0511564906125646,-1.5789914287179112
-6.413836628985996,-8.80533436736072,-4.286855455015886,-10.269043852100705,-2.1924850910124216,2.488352375382246,0.027445698241026,10.341755531390092,6.924538235847391,3.539647814932426,-8.634293047201096,-0.7674891711469681,4.4189713802066,-0.6579714913152886
-8.75603037453054,-5.542313186235883,-4.196803135750767,-18.230682530623294,-1.91068987686472,1.2099618480747076,0.3089237466189996,4.491604707392872,5.351451642756816,0.8937718564410485,-4.398987364144584,-1.7519745509034803,7.582107043168215,-0.5161347683706379
-9.857061493684814,-1.692591880418268,-3.988909946105398,-21.65825596026284,0.5152704631269183,0.5176102018613817,0.2888940005668186,-1.8024806962519968,3.693224861656172,2.470883853489379,0.7575475913781311,-1.9238854815771895,8.26166301332879,0.599764717976394
-8.138211974906767,5.189838573491331,-3.208120231418368,-17.211995114900933,3.425248252810538,0.6483682071659029,0.6076221261789154,-10.690414782682565,3.0586183921462577,7.995626914762917,4.045266457850898,-1.1570458800609251,7.291529985819135,1.9639656545835165
-3.6002434223679582,10.11102446491189,-2.204178088501155,-5.941161931325047,4.128557434839316,0.537153047534313,1.5743692330142292,-14.009906750286802,2.8030030183155894,7.702461513993266,4.138836835617326,-0.1415989688599913,5.810064271520065,2.5160224249575545
2.461372732296299,7.5614387276834,-0.3311090481636861,7.660441409170797,2.491258521773373,0.994705399763717,2.6661250773375293,-10.45565224007307,1.2116410022015565,2.2705327553183583,2.020817756949933,1.4175874339291858,4.68481955326128,2.8409315458070608
8.387954970748325,6.275680595308887,3.49061970974919,18.704759527526907,-0.8618706630010933,0.6177111472217564,2.9004003442149404,-9.348507314672982,-2.693498575640932,-5.0278599993546695,-0.0387968456121576,2.891970383519359,4.196326010095943,2.5785373014214668
12.842261215504152,4.63125128888228,8.15997811839086,24.469472610124875,-4.67245520223569,-1.404693101107291,1.7632700089241435,-8.710875367686564,-7.927282386161339,-16.222754755738865,-0.3408998427534158,4.135983225232865,4.040582643711566,1.8555895048735664
15.003481286791583,2.112603583891745,10.400596189240533,24.78810371029783,-5.572196251267014,-2.692750262208444,-0.1875706721940631,-6.460079142103149,-11.937226303403296,-17.768965200037655,1.1222926789202194,4.603226198496901,3.698603800256528,0.8783070460168786
14.623119396199153,1.7788836562190948,10.335987916146252,20.798176610434304,-2.829021113685793,-2.081969484798585,-1.6458910115895442,-3.810507525655462,-12.211885985395355,-8.480171651091784,3.033816805293357,4.434066447145614,3.0173893222884143,-0.5642387884027369
12.148139749784349,-1.2742968763466052,9.107276689985389,13.810116547387263,0.8595127480332312,-0.8395319829057801,-1.5679219732687208,2.631878806802137,-7.838470469986091,-1.949226954518667,4.057882121570437,4.411166172335003,2.540184761963747,-1.3345768139413594
8.635668747666019,-6.403733117593596,7.021215651198599,5.292159332068166,5.07853315073779,1.8253322165562051,-0.0075544271989009,13.199478291786251,-0.0378271115916657,4.810565492074742,3.900910833175244,4.211509998818227,3.142853579059798,-2.1124335145324253
5.196596431803712,-8.65995714115891,6.143655401464748,-2.6699447219338275,6.325717321183284,3.873093703603137,1.944595945250736,17.81005501091072,8.446186407373203,7.919344866401851,3.3534152015676764,3.8862296491027646,5.093508963786653,-2.0061172426521274
2.3078355258764347,-7.94732907524172,6.942744354719765,-7.687460018664822,2.6417869014687505,2.5620016497326663,3.0651032715735,16.512372350167954,14.63681352197339,4.919738173061042,3.463406917255644,2.39127713464209,7.331545553554683,-0.5432833209775203
-0.2841219169399505,-6.291693438843205,5.620999234750792,-8.38794120124276,-1.637051420474091,0.0907675376090696,2.9575206976579933,14.466162089705843,16.68579450978819,7.038554894779004,4.599549202051077,0.1698792986260699,7.813349707401834,-0.9465002909120278
-2.845172316376725,-3.673786269588424,2.4230542990615898,-5.571956443456108,-6.723778330373862,-3.241938799693509,2.2414996570678456,9.415183868469825,14.71973482618357,13.07804025375791,6.082999981790384,-2.256343890398825,4.937634243633688,-1.3463351672617183
-4.846777189652721,-1.287687022871267,0.5853577088437173,-1.881741937828699,-8.644138614824032,-5.157263562306547,1.84882269201103,6.439654433988901,10.671101460581465,12.86092707911776,6.558827912781983,-3.827998873815506,-0.9803395845244012,-1.2467728432773222
-5.073367958883768,0.07749631391611,-0.9433586755499213,0.0363760987844878,-4.216223345203239,-3.154181691401843,2.129131787603427,6.226442462041134,7.009415306981119,7.695259007318656,4.823585257398177,-3.216210273374223,-7.456990792432848,-1.1505297067427296
-2.775349771861112,1.744420237684677,-0.5542232290736983,-0.5501612866686934,-0.0541701211137353,-0.1200912839295774,2.6302092130304526,4.138802871132933,5.064157879020365,0.6898952500729488,0.6547575177495215,-3.0223563173166648,-11.193820729718151,1.0859101437306748
1.1956868945616854,4.720360013234379,1.8512318787220177,-2.0427235550064218,4.673770348285601,2.7273827327175555,2.723753897302593,1.4136220700166913,4.16956250631545,-10.001360698525527,-4.797090208383509,-3.486757880061673,-10.140580462745788,3.368956101725657
4.54858295886965,6.014388920236278,2.7168002681067343,-1.920417275402868,7.41060804812445,3.76781340144208,2.3595587913829235,-0.9874825494227988,2.421405339781834,-12.834101976794782,-9.36520852606876,-3.978333158882068,-4.812959271280832,3.964539540190011
5.160741061720199,4.801191115876764,2.785359361699068,1.1755736530184944,4.566043434360568,2.185991424416173,2.072610150721183,-3.530195823317355,-1.472388840041735,-6.740055284782903,-10.968763968248586,-4.7782622426197605,2.0058747630076823,2.7417458103701824
2.8422727318983325,5.114475967901413,1.434467438360446,6.293615218992164,3.0809473228603763,1.2504423916526335,2.1708824727937515,-5.727689127358786,-6.822373606200138,-3.773550355247168,-8.940714823704347,-4.642344865771525,6.886732800218587,-0.592405907327971
-0.3658502233459968,4.42003309519949,-0.776474329181304,10.764175857275053,1.7506998886212135,1.7375015809591892,1.994764680006368,-7.468590908853675,-11.336395140146692,-1.410086834749314,-4.677175688430429,-3.531447011646375,7.595043113345028,-4.279871707541845
-1.7872336081411966,2.553642375937,-1.8660174309885016,12.020776653848763,-0.3193905068961378,2.2590405951306742,0.2109791396464535,-8.81471423857411,-12.984078287295388,-1.4925930226399693,-0.9504561328295172,-2.738404670025377,4.074822207919192,-5.643291765118982
-0.3338978845972953,1.2279231349780797,-2.527190876264706,9.29955842630349,-0.3337290002597179,2.127298353243637,-3.909476570104925,-9.593654257782577,-11.715028567795445,-6.105895365755197,-0.1642464511967691,-3.030375611874051,-1.837582056164302,-3.950552292643606
2.554394856862286,-3.129835794193793,-1.0654891663314685,4.024888186174703,-1.5884640743246805,0.255950901241901,-9.39187069721527,-11.574453624164972,-9.506715968477618,-7.921372281010068,-2.7680911859703143,-3.726234052651361,-7.619292844475604,0.0475263907327901
4.118630701942091,-8.33690889694196,0.6287507512962677,-1.3417347904205532,-3.4049165984141023,-3.147713314840603,-13.827442777014149,-14.85310436825334,-8.717571887812294,-7.77497115917465,-7.070367835433521,-4.328714807328383,-11.393178968116846,4.628823821824537
2.618571514508429,-8.745955037136254,-0.1691146176700081,-5.097810967305096,-2.875728172992908,-4.67742611783337,-15.002971165373594,-15.191647046270322,-10.210592719569789,-9.651380135319714,-10.607495130975105,-4.293435537075581,-12.64045301677016,6.208538748623623
-1.244058462677871,-4.774949410389265,-2.0966206097117266,-7.354538565513232,-1.4976317290562442,-3.415217490391416,-12.56377303084339,-12.697311946683747,-12.825015107167474,-12.476015849713129,-11.919876198750078,-3.2441538658758424,-12.002340580818869,3.845890653677553
-5.050593780756067,0.3029275981173003,-6.036874388274852,-9.491783770240623,-0.9009434884554688,-2.081605221103372,-8.252073834882173,-7.894589153248645,-14.491667584366365,-16.388307137205803,-11.259194308983982,-1.6127950991055635,-10.467632820638434,-0.033804390269816
-6.805814414930038,6.437789279979396,-10.027006325784336,-12.429230286381182,-0.3387317018516352,-0.9869100986661892,-4.491782548938905,0.2867075916449582,-13.868350922210094,-21.94683213150059,-9.760711299551298,-0.3478677995726078,-8.602824279013525,-3.764562247777703
-6.483466803220676,8.01699715720252,-10.620291309891432,-15.218710890007436,-0.6205660750257916,-0.7961613482697135,-2.550440493018153,3.852540953036954,-11.105917373353462,-21.77105824309884,-8.039961438657203,-0.4975848300261953,-6.368333872557951,-4.657962945931129
-5.625498193208017,3.4455087583578106,-9.245696058012948,-15.39779993079964,-1.3008977217380353,-1.521242232715151,-1.8479795021135617,2.4382597448045207,-7.341966355808878,-15.409583492222966,-5.667398513742172,-1.3569450318590297,-3.566310581355373,-1.9860331446292865
-5.592016981747797,0.4677402231908228,-7.471622158363754,-11.13285467457046,0.5946767260084174,0.0158351503967259,-0.9043016662716774,2.642975612694165,-3.686853133087384,-6.973295870257761,-2.050232991047308,-1.9205123777673316,-0.4569264680569973,0.7932284276376443
-6.326626794671883,-2.390256202159267,-5.793278215482116,-3.4453424157372448,3.212485954103765,3.530032768630961,1.050171850261831,2.7429914023329967,-0.7005341046395168,5.418396671403966,2.223436851587324,-1.9358845862669791,2.0560404160534405,2.491423274431104
-6.794036186702277,-3.4957290767184546,-5.33228832645421,3.669340951399517,3.933800781951022,5.473838782357533,3.293354251283967,2.9999310183635823,1.4189092463702366,11.854495003612282,5.115809435869613,-1.439895678105716,2.9293596145002465,2.443988358007113
-6.375863533197126,-0.7154988383154246,-5.828799880618336,5.878532548956571,2.7852880355450864,4.671404778564158,4.299260915861897,4.293472998473639,2.528587532868256,11.254101501352682,4.546595479580015,-1.629697379439204,1.8513845896844157,0.4067100473505469
-5.533851308526787,-1.1137082028279417,-5.318038513976677,2.036555979346101,-0.3596485386009125,1.843136894406138,3.160369187562071,2.920036122004145,2.667247020417188,10.489174708328031,0.4090556049633922,-3.6447644128331538,-0.2371072599886108,-0.9936574920076702
-5.016851629059949,-2.799520772318365,-4.131671303669501,-4.481616389312281,-3.919261271053459,-2.2361997904038247,0.4009294676897608,-1.005728184875253,2.3967441906711757,6.954722674076832,-4.705289891277271,-6.666816101452167,-1.5347701476810696,-1.3213005929382198
-4.655375571384189,-3.134097659212037,-3.737833973582791,-8.156254756837994,-4.729413203242648,-4.0839799674528985,-2.502743540438748,-2.6295579779143483,2.6679878381729494,4.931524241911639,-7.057652705397276,-8.23313335856813,-0.5670229733058999,-0.9675999247841984
-3.313712737437608,-3.285755433230315,-2.948814247081255,-5.668252638714971,-2.6026389256562057,-2.303335072044721,-4.3449883065697215,-2.385668582686776,4.014219652306551,5.253974443811889,-4.586633054544388,-7.410532502940479,2.667412618481704,-0.0201980378149223
-0.2287658607289208,0.5924837917349407,-1.9987857034876189,1.5043545534695235,0.2594243754113623,-0.2342203305884213,-4.990010827591812,-3.362771192723313,5.823265990085669,3.641582984975229,1.2949862971206043,-5.5246141976259615,6.528600391605355,0.3896195904244853
3.711127329766651,6.220960707268865,-1.1465518489801652,8.543624046744188,3.260553360348168,1.127229309526224,-5.103756630422838,-4.758401414829291,6.641673125987667,1.211572094862235,6.56639052412411,-3.5091553685357897,8.760755544469127,0.5332723758414518
6.279965692011109,7.476033847213766,0.1981498932158157,11.419562185387235,4.380607449014567,1.1361490845510849,-5.243105783453268,-6.02127881828659,5.478696485220862,-1.5513409269469467,7.580462546052784,-2.651631730047676,7.937267360017332,0.5251210746827383
5.698133172821244,4.377116303313553,0.0426324941598299,9.860851619135266,2.6272724753972074,-0.6387157931425177,-5.266584567183434,-7.524072029989568,2.8813250857117048,-5.123377807805415,3.777831788133636,-3.3095204054555776,4.206927672853739,0.1772356551385332
2.173025539924992,-1.1846704840752498,-1.0900729863685872,6.594963215478568,0.3768383624775131,-1.822792503633128,-4.584650106367763,-6.449581632906396,0.5657523729056417,-7.940594455962143,-2.074419833658161,-3.0568660399845387,-1.1212461607903874,-0.0609028083719676
-2.3194091254257785,-7.302753548226888,-2.345286894040641,4.0069795262650025,-2.2130094738610504,-1.7654917175282443,-2.87674041883416,-2.528696917346477,-0.2057985874564245,-9.926147081384714,-6.2468091711916784,-1.4692518343037448,-6.590080223028673,-0.8851308019839714
-5.7592832097580775,-8.218384646808214,-3.0659283513763738,1.7876504602096688,-3.647379812410049,-1.0912413554766724,-0.4902586473330892,-0.8649701499550586,0.0717080632740643,-9.123743694462751,-6.963615657731449,-0.0841021122558016,-11.236972734232852,-1.7154417247926042
-7.588824636942149,-2.990624701817816,-1.2741911993829709,-2.1264460188337857,-2.1068939261647763,-0.1689855423860037,1.85392816887388,-1.0564899088387163,-0.4498337053974097,-4.871045417895916,-5.441763047415721,1.2901739279337878,-14.46129190900024,-1.4085844943632344
-8.59967217828796,1.3763632497435654,0.8856766900994039,-8.532445266609313,0.0602930300870787,0.3633707354045391,3.694294134115193,-2.027503779066872,-3.153104364050199,-2.2709605425813337,-4.331751772387522,1.644502619472802,-15.584591323871678,-0.764239580124205
-9.506946944088416,4.705781780153903,2.3670039873032565,-15.166669410554787,2.319152751344697,0.6122209662887207,5.147884676261974,-4.858428506437159,-7.471612377391004,-0.9182499816417508,-5.084924163285542,1.0642557810048243,-13.846296306060914,0.7651911056537042
-9.818327810593503,5.338084467828759,3.3252468390030896,-18.0919348203227,3.3711315043805734,0.9044040304845656,6.63298617521713,-3.4622766389808928,-11.18328705791636,0.4211543685627529,-6.599742904235573,1.3016756306001953,-9.024804290768936,2.4890137710251263
-8.214585765776228,1.6490230495360918,2.814400054417009,-14.99934377849716,1.4652320753023136,1.486193713676654,8.305667816801993,2.491786981060866,-12.173931433738511,0.7032986290906847,-6.260747117767252,1.6441748041486175,-2.108281553738399,2.56901160740335
-4.037610534869639,0.3246435370643635,2.793531561106707,-7.339309179459754,-1.0688127176494422,2.4520321050426,9.754953758393288,8.328098334602108,-9.986472985593885,4.685084231431638,-2.345854504588022,2.546928641422197,4.767977068161912,1.778535648634549
1.6857956817631443,-0.0550131957381993,4.14111312048939,0.623823656472954,-3.377891789905157,3.3734944371031546,10.219377949495447,15.413204408638348,-5.821317501149377,12.62583247594682,4.373110377382467,3.527480239802877,9.34848103211136,0.4113728060989408
6.799101636577984,-0.7550305854167122,5.468013213941147,4.960028455415323,-4.014189234212784,3.046612691165325,9.124276809447526,16.535667229219253,-1.249521573981628,15.208079175850951,11.204289799915207,3.627064919397895,10.629542253187786,-1.2425390157137015
9.660204570843266,-0.0072406846981967,6.120177874507178,4.802145218910578,-1.968046322103048,1.4874060718551148,6.510428370378833,10.435183429583164,2.9490633839617715,12.90807222868732,15.658890164439375,4.049895082219777,9.515122152477876,-1.827166517404935
10.265105547957724,-0.5341387734084829,6.266324034564023,2.612837131188442,0.6550362905724242,-0.5302906117817511,3.0608707396440664,5.782763798976018,6.771634957455845,9.835884193220853,17.13151735786127,4.648862849679242,8.086238809200232,-0.8172571806367628
9.774346781386203,-0.6976254138122128,5.642959241865771,2.009121210777584,3.475332369695763,-3.1440525840205025,-0.2525732623480419,0.7904908657782364,10.090533972328572,4.082377212799592,16.663028127778233,5.769594401238351,7.873816054436773,0.4916617356692397
9.027040269154384,0.2002411538695807,4.996492909204817,4.917512895386537,4.415362278796718,-4.102089652367401,-2.647053272964465,-1.2593978071833498,12.035330450215524,3.382139418311641,15.2362050643615,7.669335100367231,8.487376695938243,1.496300230438219
7.695797957585944,0.3341028774261423,5.60659326218294,10.121578831361898,2.503884332181502,-3.071792493273914,-3.841441813663213,1.327521037602502,11.45394672357716,8.618209664895808,12.543488111289296,9.271441569885624,7.901532240944423,1.624552425125492
5.032754730652879,0.2445143213345592,5.835536603986122,14.142602174013616,0.4828640577475642,-2.885468946040152,-4.052460227449842,0.4477409164954427,8.097211428565355,10.119436935058868,7.683181268225461,9.758595411869496,4.400535124535633,-0.6213137748963
1.3676325717219546,-0.8542531894661782,5.241877574689133,13.752734860109252,-2.0615714749788414,-2.5146946091980364,-3.7154417356927016,-2.927262641762807,3.397854890599966,9.477533946358244,1.141878411390831,9.506417170591254,-1.4102271266117477,-3.303975172506344
-1.4351275254096088,-1.7682391455087436,4.589673180564391,8.33979108984476,-3.2895931372536635,-1.7593863964612575,-3.120730008550072,-2.4382689090612195,-0.0084190596275766,8.681709725326854,-4.205822610825452,8.87204165979641,-6.466762485382802,-4.347281514680698
-1.346098967541275,-0.6359154828197715,3.465918823917625,0.4884614924957873,-1.3991049263928206,-1.285730361354264,-2.2074309853461704,0.926352850162282,0.1646696946576606,6.170107790838153,-4.675422510875162,8.592975142848703,-7.414849280568681,-3.158751794414577
1.8439260232590184,0.9014441762211096,2.8406961487265145,-5.606695827041226,0.0774102140352231,0.9659843943572182,-0.6698441411618301,6.938858887867061,4.30688016653393,8.619715445843172,1.0462614683546505,9.28642286408439,-3.3504640045718066,0.7417809457818232
5.978660917318358,2.745918916053834,3.1689511099178107,-6.800591887325788,1.7830883692090966,4.039463727163752,1.6676145240230342,16.842054222035895,10.493614153379578,16.458687072237183,10.05971471851054,9.808940294425808,3.3245794239949227,4.986924219708087
8.163853419556936,2.4314190196607077,3.2325739537308182,-2.9511981138374743,2.643619823146448,4.820445534494441,4.469294969329774,19.41612740940789,15.524231102343071,17.41154785329196,16.873719930728768,9.013771895504654,8.785581686949604,6.120451014108357
7.1158637558159406,-1.3093767276191748,1.9983795881145048,3.071144108199672,0.3649982655419462,3.506467946588042,6.841220877823222,14.105618448226236,16.72918605172206,12.261576915090656,17.482358949732024,5.858417681027842,10.7451096931428,3.448407847711364
4.004331321212021,-4.0396120849668975,0.1857778241093327,7.254687561067751,-1.7054573191747249,1.8095447464743089,7.7726064738949585,9.427426866624712,13.384947284035894,2.7593019968083,12.395557180114906,2.255022500582666,9.840356575554562,-0.9527126449084424
1.0524835621350306,-6.285405862635189,-2.074844693090701,6.968689793385973,-3.989198901258928,-0.2519920125189118,6.836755782914047,2.8487830695926077,6.927677626087707,-13.894828258676524,5.847635551713061,-0.9395487370651874,8.335850481060397,-4.726923482717174
-0.6112238720121006,-5.409754728304806,-3.5572543991870917,2.5668488558094325,-4.822723011832042,-1.1116320286974422,4.627761901807389,-0.9436498680236372,-0.0127417244854619,-20.605522688400768,1.8750120954918577,-2.5095524291435067,7.590236968732647,-4.843029283712312
-1.6698648468636144,-0.5820522195922522,-2.2929998491135875,-2.8929591437956006,-2.1258552831284208,-0.5321053734451306,2.498879895306871,-0.5465444418730634,-5.057618946544821,-16.68234793655741,0.9031713227970712,-0.9997398665660732,6.810341288836824,-1.1829692594806247
-3.267649121939421,0.6840225062575389,-1.3496922096725208,-5.6070546374855255,0.2821508644527502,-0.832555592733757,1.6703952678930971,-3.217778447153992,-7.176527437986648,-13.379301002958714,-0.0024518736446239,-0.607896876096965,4.207171232266369,1.8135735397702828
-5.131526121939521,1.5825458584002392,-1.0019934500480527,-3.4085382228976737,3.1402812648358,-1.7405424393619031,2.3205214580024567,-7.704847299477011,-6.938498033835369,-6.790521139942711,-3.605286755864873,-1.1213936686111832,-0.746448306473253,3.016433262716717
-5.298104559608809,2.3319603671758435,-0.3455868416953213,2.932675101837834,4.583332200169857,-1.985204779767968,3.382010265545265,-9.745718634926956,-5.895491718081987,-4.165417374077778,-9.248345325795508,-0.8884784940407771,-6.28359402430012,1.8120015907664864
-1.9760669627894103,1.4846858897178703,-1.049086720570629,10.243333193408034,2.7921377709025816,-1.4292241544916653,3.2766324833068143,-10.160340784796333,-5.476637969599565,-7.150176773331911,-13.145043016724982,-0.4940144544203128,-9.573053703286794,-1.2951027410910338
4.1653536399824205,6.132143330371714,0.3284964543461919,14.82723885117035,2.444372819942757,-0.3078745150505616,1.0857238957019906,-9.655829529958163,-6.02233702285165,-4.522493041486312,-11.956485031567473,1.5036767851567543,-9.011877634280763,-2.103080302453274
9.664368845245704,11.054508127793838,3.74046631688584,14.424511940106225,1.9838885969471665,1.4985985447655228,-2.716323957218046,-7.518494052495691,-6.5781019147093005,2.078391646844333,-6.133549611912313,4.819577312312255,-5.41117355819417,-1.5651853124069504
10.633650996430408,10.213154226114458,5.056777783316012,9.17694360188621,0.8617321006644864,2.3131256397349675,-6.519193254594068,-5.47673360478572,-5.65687264642192,6.270326730746828,0.2832157592775672,6.120493558371131,-1.0722831439580105,-0.6919861109084202
6.0257533411356405,5.251581469314193,5.01942458790521,1.3356455793831632,0.8228924546643918,1.7720368849238315,-8.617873963414581,-3.5376436453046245,-2.4835290714369567,9.536248444727615,3.235896819816075,4.562380936808474,2.2015660610354324,0.2155376061040909
-1.097477568190932,-3.980287974285252,3.10008235847645,-5.9003695937107175,-1.1838756570454585,0.7727538284896811,-8.25121794163923,0.2608584561373435,2.2361629866241977,8.969879251512143,2.13012056127722,2.670275175859649,4.219822418775788,-0.3604606820769595
-5.676367747035773,-13.798865851447454,-0.2502410885254424,-9.851855117415807,-3.635914401490699,-0.9031849995792556,-5.917324733025255,5.664292926585134,6.703314384856814,3.2507379701972017,-0.0853327748051775,0.2619247008552366,5.758641458196774,0.0012911774669558
-4.5936360070694064,-15.199996060133502,-1.8204529406080856,-9.575597210794069,-3.7598678568399153,-1.8332294954853925,-2.861726804638039,8.176550902992968,9.308891503797632,-0.1152122289135059,-0.1616885729663444,-2.0513254368367493,7.093206406774691,1.273531749036618
0.861896920683229,-8.151319441257142,-2.3026778956280944,-6.226547865901964,-2.8472608306781275,-1.7219740474463556,-0.2576661906631941,7.740202754122639,9.736420946806389,-1.8561652611802788,2.1664521090896187,-3.427394991234511,7.366915025337445,2.2641523879767056
6.162097316366548,-1.0393605192177473,-2.656437355992462,-2.1800373824819417,-1.4614023599576036,-1.4849482851004747,1.285849318154998,7.60222889478824,8.932678677159753,-1.8595037183707892,4.002866324333066,-4.80388357986214,5.43006780612215,3.4577964662278178
7.322287122375148,6.201530249297486,-3.776771830072779,0.6690028478534273,0.0335086972108681,-0.8244373129669268,1.6704595636776889,6.790168632210567,8.012929342733653,1.517498892189675,2.1709938101872552,-6.564357932683774,1.1908891206232326,2.5500994774645456
3.968861612177225,8.405502181811336,-5.367040431888498,2.130868662814496,0.3198521505752063,-0.0768490376984812,1.0036896071077486,4.425207825005136,7.153272466428305,1.166394317511018,-3.812051463071647,-7.70894149038278,-3.9540236811793896,0.1154152654083443
-0.9079680492598357,3.0637201954267623,-6.241067300768346,3.3025195738648847,-0.3207057021363185,-0.2187992297844107,-0.5342424299625179,0.7711631369910505,5.511714913418988,-2.7094807867230424,-11.426770907675568,-8.414187457587955,-8.014723741294478,-0.7416497967762413
-3.993640291917231,0.6905793338153021,-6.3146443674711294,4.809226088430624,0.0604481499660099,0.1256698593316615,-2.550970775807361,-4.870122587258933,2.2124295962654763,-9.738533147203082,-17.411082541869373,-10.03889668672797,-9.714135074864732,-1.365955853567151
-4.4461364927910765,-1.098846254364084,-4.826445851991774,5.541045623428545,1.1919990269611436,0.7616922798057657,-4.314319043001724,-12.71149591996348,-2.609519565142943,-21.686572293336784,-20.1003203814318,-11.49978577444401,-9.06934501585904,-1.1737720667147955
-3.924248394073308,-2.727335112906468,-2.6065370024331584,3.520172507579371,1.936127290226892,0.3992952628439836,-4.954806846549086,-16.498887509991242,-7.755321562549096,-26.09141589295408,-19.766347821053653,-12.05726459882777,-7.0311361228143205,0.2556303786642719
-4.225448996845039,-0.307976348817594,-0.0948700735630444,-1.6082199507132522,2.506870765953317,0.5844922077178746,-3.965228624875482,-15.893811990294465,-11.963519096846388,-22.56373949855025,-17.297718640559697,-10.757368628845557,-4.838116784481354,-0.2287065828881556
-5.216219631877063,0.2469656210582216,1.3266332553901974,-7.02596240802043,2.5904318060771074,1.5535112176384334,-1.606004772673476,-16.953169251470637,-14.9663219311967,-17.95502841929858,-13.191076694156989,-9.190425306981854,-3.641308806872676,-2.307807294587514
-5.158448886130843,0.9257012319509524,2.1899204952186198,-8.30045751057282,1.9912420271489677,2.498531297873254,1.1583555365841622,-18.36140767754344,-17.515380026458132,-9.331122804088148,-7.998510191580134,-7.880611044925387,-4.252917240363029,-4.544420802080686
-2.859874896043083,2.7476162513461477,2.875162672970121,-3.293800572863155,0.9604037920960043,2.9491229813111604,3.183940876282886,-17.413916240907582,-20.29779850517952,-4.927496933778139,-3.280342757994987,-6.67503294381616,-6.654332699542898,-5.578249419661328
0.7965840590229991,1.9571773947168376,2.4986406182233805,5.067321282631456,-0.2334512795271197,2.011084437481069,3.758430558003365,-14.766818943926133,-22.79774174881228,-5.823938080152319,-1.294848579850674,-7.501546051614535,-9.499469971039144,-4.031530159544634
3.5699683040753545,0.6323879053398452,3.911232740240296,10.239934964228828,-1.225692229244089,-0.7735878378320329,2.9027064078399096,-9.203122338444787,-23.295956263459445,-3.5290469966184728,-3.1059095285896507,-7.424169710311832,-10.41234359110069,0.2163114802121303
3.987075047952612,-1.7527749036484317,5.4913506170937385,7.176825800021833,-2.066120542865715,-4.0616814581257055,1.259616742503571,-0.1519729637768603,-20.153040863077827,0.0383525036545374,-6.895962733267703,-6.261903368133417,-7.434780159099118,5.472672244295429
2.6301493754669,-3.756765386644322,5.03141143188953,-3.0811194903334966,-1.6698313843230146,-4.719038779273364,-0.2516851603002106,4.587183931856731,-13.27778725454462,3.291120393693051,-8.593992725385265,-5.62945069467483,-0.7595703201078994,7.383692142811057
1.366826021064286,-2.534768985673168,3.107757864265904,-13.555356655138429,-0.6644219597292562,-2.60962023066816,-0.8057823408719429,4.848587838081301,-4.458335934296491,7.305687889523556,-4.885912431606272,-4.205142276774109,6.803786430916956,5.279026454852364
1.476007848400351,-0.5163992831195786,0.3912288611235739,-16.51004906393447,-1.444683213542355,-0.1858752399848543,0.0150004970632622,8.09547653194948,3.730216841503994,10.815694702590282,3.793765864709545,-1.7659430960873983,11.374171606738148,1.994733183135979
2.591858092651038,1.9961277429058868,-2.226119981646188,-9.480609258742536,-2.49675709230723,2.189249217840193,1.9868819173713268,12.838192094872875,9.453341302458174,13.77088416852859,13.0597988315666,1.147453818392243,10.573656242973623,-1.887025401632732
3.3058366280449287,3.2539340176200056,-3.145303936856034,2.88058956169582,-2.872643046501622,2.495983413140593,4.204551682835455,14.741678835093364,12.317426729065222,14.25793687985609,17.644102851773344,3.3319140521395747,5.129421944649115,-3.75039415212825
2.533994339840751,1.742394933623877,-1.7018210448397122,12.53868827019597,-2.20131563964978,0.6019830545800009,5.391323070668575,14.597692344382258,12.911759857143856,11.745252720507066,15.29927917125385,4.011328099229987,-1.7632766685091927,-2.4133855318120023
0.2390638615419709,0.3295964396289905,-1.653116106992205,14.015883389717173,0.8708056185710429,-0.0865924334332447,4.531827432627593,9.41695663404484,11.966299798104515,6.379552708667612,8.287263777828176,3.649127045698526,-6.717130803859258,-1.5584638287680026
-2.899264146283796,-0.6533153878522587,-2.8456022991981023,7.61581209861765,4.107464105779176,-0.364324137590826,1.4921305090865324,-1.9421827724730307,10.038397880078795,-2.666698398637287,1.2964653361959346,2.334867876424444,-8.177577322102024,-1.881902427287529
-6.116805692680362,-0.964683898650937,-3.760820935401053,-2.1120042357684774,4.84424461268243,-0.3616768866000038,-2.8086004997079765,-6.372450967195542,7.793173859116957,-4.287990106193102,-2.258919216775091,1.3998393457578793,-6.727801426084911,-1.3682076210344598
-8.727791623288391,-0.4073679982722153,-5.022281811981574,-10.435405637044145,3.157361876960971,0.4758604018441688,-6.83815863993488,-3.978594742793681,6.172761361289549,2.203549777065756,-2.3326597924739385,2.769858969756924,-3.837582727944712,-0.0398649688855312
-9.937520603981524,-0.931437288985232,-5.161804122351012,-15.19298224595037,0.5217455936995897,0.1831269065619763,-9.22563590088392,-0.7649881059005812,5.955151745778219,9.5976336453844,-1.1913806770993318,3.413474654841101,-0.4798455743480225,2.1769679700591618
-8.977369957163601,-2.383594237285793,-4.356747961072445,-16.53518363689439,-1.4854625451459538,-0.1021066798643327,-9.37463045189195,6.217749640666403,7.090265540002125,20.6240557612578,-0.632507466225567,3.594702694013493,3.175535701205634,7.332951734125784
-5.756920836160406,-2.9486677177753733,-3.862090203416042,-15.137665406407727,-1.7258161617377246,0.1268604900737467,-7.597400153413943,9.165847730521415,8.645332114188678,22.859102691852176,-0.300144756972232,5.20245277267175,7.063061620776953,9.714374392206595
-1.3764613531248688,-2.2503545796799687,-3.893481138287667,-11.30519329108809,-0.8551109868445756,-0.1827030916413119,-4.811818956035413,7.267722566589673,9.592077270957253,14.588333756329613,1.4577234917937858,4.973714336232023,10.55730922087367,5.868719493562026
2.257972465900881,0.0464158729196566,-4.684874733350255,-5.604087032355546,-0.157284796641397,0.1243924635297071,-2.059461523744316,7.013122892521848,9.68553869038181,8.570862626655767,5.38929584147802,3.92478014695884,12.6310629852312,1.2856480467249554
3.616020049184769,3.315113789156946,-5.63951109667944,0.3805507713741498,-0.5335786947049747,0.18153721501635,-0.0736456423235552,6.552052071672962,9.481901231985171,1.7799959066533135,10.201926491724668,2.75884885951825,12.597192839769916,-6.828498344534906
2.547863686421758,4.065650705334454,-5.804697083933422,4.546530672192665,-1.4031726625993346,-0.2490892243834831,0.9786110434048982,6.13731635520843,9.444502722156749,-1.4840088071255089,13.578402196763795,0.6026375532108351,10.589006699271186,-12.430018461270157
0.2319891392665294,1.96498941452502,-4.901036565256846,5.677326725302628,-1.5482074168056936,-0.0735770609901996,1.494523562841854,6.52439293018792,9.114211882208735,0.9983283030141568,14.127600921694825,0.5335621556474309,7.336875415598346,-9.154985523779697
-1.8359137453423635,-0.0846333857241229,-1.81442186827877,4.195585403508499,-1.2578195783739663,-0.3160381359511135,2.1125338420380544,5.379311936407667,7.318474909488181,-1.6138410228736773,12.20941558030631,4.135762954873188,3.615784210847052,-6.024498021008296
-2.872696567145729,-1.7567486160533636,2.199290830807517,1.4575112966689474,0.2441910827881088,-0.4133304559468074,3.174330744059766,2.8785795901608897,3.3040607045399213,-8.10253235144451,8.976115247587876,9.070493295870714,-0.0178719212931142,-1.0935216425111052
-3.027639148030492,-1.2770633826892224,3.940476205396042,-1.5481496358668032,1.9414999545336775,-0.0655534516300745,4.322305199227884,0.0534571438358468,-2.3344940611491225,-10.351559241320953,4.962517268027659,11.69923052374602,-3.1090244589618123,3.889848016029504
-2.827146104541267,1.2569316681438616,3.280693717469101,-4.640995519357865,2.203065748401881,0.0388356563361957,4.623989501371916,-3.5097148680296404,-7.892077349581141,-9.772167906395667,-0.067592421658869,9.973478449706608,-5.246723702155659,3.437512555418658
-2.5615721451322884,0.8813244509480695,1.2375474388027077,-7.697174171538842,1.1953545749630456,0.5363522851824654,3.271765864473817,-7.338196411302417,-11.7395380041548,-6.648592912664724,-5.902801788903808,4.178408342684358,-6.332561586936087,2.710638464369018
-2.2062047934105777,-1.4685006349684278,-1.3025108997291812,-9.81892447800911,-1.465982941291294,0.811920836856078,0.379021217355131,-11.3216204002634,-13.30532463584002,0.5195573828843149,-10.897832759718158,-2.3628830715621625,-6.81165750079262,2.320830317361948
-1.7818167729163932,-2.97795420355394,-2.2354224666870524,-9.633100152487224,-3.3920514094811187,0.3442364690525321,-2.82515937616914,-11.827166395989384,-12.973899573201784,2.2277061298827974,-12.689109602657611,-5.284918917209966,-7.328012300292308,1.3263036210243098
-1.5805930845672125,-2.787123711001162,-0.8374385380479565,-6.5804072919519,-2.267069740187384,-0.2540842356756314,-4.711886178215863,-8.304270298103264,-11.18612530960408,-1.7914562372284837,-10.186155235089975,-3.786725291083495,-7.918679785123615,1.5429125883036798
-1.898114421670865,1.2505974564812443,-0.0590420835749467,-1.8205574857909423,1.134751140255115,-0.7615666161964882,-4.427830290006401,-3.9956233391862415,-7.833852458500221,-1.9821081476342728,-4.833691993022395,-1.278248864813004,-7.61364839891624,2.82975851789836
-2.548719462810901,6.719748002739425,-0.2990093209788722,2.354502589703064,6.197250867902402,-0.7704436382634394,-2.596423831826584,2.103942660719893,-2.6593521477592788,-0.1123635613427717,0.3097215730400791,-0.8981540913752072,-5.145583900402976,2.927483781773316
-2.7916412751571613,8.158896756278557,-0.0567272910710691,4.200158876924085,8.458494023240481,0.0175110916760802,-0.8899428506855642,5.265173665258408,3.764966307928166,1.6048085279352986,2.9310212971915064,-2.331321411881781,-0.3602432156272428,1.8539688567082828
-1.9359659529357671,4.6786425969633845,-0.7196463446677086,3.7485693417801578,4.9336276991476335,0.898952507034112,-0.7165092858103712,4.689548737875101,9.598408996769091,4.603571753893294,3.004365868883625,-4.795272368453024,5.014940292444166,0.008021052197164
-0.1409222626168542,-0.5182344602721303,-1.1015540726001185,2.4727335446623755,0.0060322477984332,0.9679540551520024,-2.049076524553378,5.120430462437537,12.50648921017175,1.9241150436586292,2.113202126480253,-6.493198534647915,8.226982561392632,-2.2727682066505075
1.4320217045722785,-4.890968759438109,-0.5477744303696664,1.8147935643495248,-5.125352774254174,0.7655225654726093,-3.385535128038633,5.309205991637553,11.174834722789145,-7.034586724577877,1.4954264462773743,-5.148090897687262,7.496270247705532,-3.831200768306082
1.4601441313905994,-5.6799276860643175,-0.3762443622355272,2.052304088313853,-7.477881770799612,0.2671526485825291,-2.925610417517234,5.681168969052823,6.354347868369754,-9.111740475726137,1.0338295799920123,-2.033529198298294,3.495778484524955,-3.993297003863676
-0.3291207434694101,-3.370530880515698,0.878611442564308,2.476388124633818,-4.887562474177623,-0.5031452929035001,-0.022232326601923,6.862868366521533,0.5616067033685859,-5.183364634831307,0.1994693156311058,1.513095575834524,-1.0289861948396355,-2.5302447177457914
-2.693680737735733,-2.9571540953821267,3.634516445494957,2.434403299504897,-3.461422460361089,-0.5732869527046067,4.2779904051516695,7.886588399394198,-3.3875913411045566,1.7176680973465004,-0.4102788583776338,5.623437936399776,-3.25273705332949,-0.9228221929039516
-3.712997177624633,-5.482431352426561,6.878181747345343,2.021796791108762,-4.088411633241636,-1.3059707689889557,8.01302602846263,9.072020870193787,-3.976817952358008,14.44661126620011,0.9130263796449398,9.88792676610341,-2.242430568424723,1.1388876676089417
-2.299207881200985,-6.920680762823375,9.127949182700007,1.8412034982196843,-4.105501237986355,-1.8833034878621109,9.699566515442848,8.681032195727578,-1.6717103956971116,17.3557229371401,5.074412747082732,11.791336986540845,0.6459535157493086,2.521170701983276
0.92379985705891,-4.885360066894622,9.404766246042144,2.40284897936532,-2.975936275580296,-1.0675627178555436,9.195248323975717,6.47419367680975,1.6340135940509055,9.571071246958883,10.444232038110933,11.216718245513846,3.093306343449278,1.3852972052818455
4.16858664714557,0.4660073937300589,7.638503117241107,3.987292367948397,0.4917134514325104,-0.1548129495407566,7.455964837112239,2.608437847786693,3.884404113685784,3.438773734805875,13.581846391815471,10.39775508191368,3.609873449945305,0.2212681885847181
5.983392786745643,9.192456193011866,5.161996383348366,6.914729562087771,6.887100922960766,2.1434807544379675,5.598092891396794,-3.50988591903838,3.9385035357697937,-4.530331329878135,12.162217821420768,8.049030866478986,2.3550411038789747,-1.3655828347015042
6.3805855258402495,13.011744794931046,4.289619376022023,11.423514884263192,10.054815722518414,3.38850186955521,4.143528534004654,-8.04366681803947,1.827259600514413,-9.044833964545786,7.27042232870739,5.184898383850572,0.5745967218705861,-2.472982754504534
6.61911878709218,8.145661265034496,4.842766294840991,16.853505612090114,7.012170536357025,1.406491007814794,2.9461510103918838,-10.903481081086834,-1.7818764868695158,-8.124273669447257,2.5496325512808404,3.109786728682073,-0.5909916351105,-0.692407825434135
7.871978546079816,2.734328975406056,7.000294645581467,21.026420241521823,3.4957555996889647,-0.6104821097501094,1.5998677368378829,-14.003885791642332,-6.319157740698705,-12.991070483363988,0.8064542364093317,0.6068076786747115,-0.8829518330824975,1.6418269929746692
9.979394290479886,-3.9037434121562185,8.901724066171228,21.00992592961847,-1.12513829018535,-3.700391077244392,-0.1706073224453348,-16.441042823447606,-11.58486449605804,-22.34585830811632,1.3751856588242752,-2.3381006061140086,-0.8632897624038218,4.282846066735761
11.402531923743798,-6.979760207115719,8.157194350390245,15.188759791983063,-3.717639567706407,-4.985404215127853,-2.373043805938221,-16.599074440081125,-17.373655536979406,-24.998410735392955,0.9004708118209841,-3.7886432383787625,-1.3436343199481868,5.370477912875708
10.464876204369451,-2.72010448240441,5.908850744855217,5.007327484837836,-1.400924511904078,-1.9004653666698603,-4.739485895645046,-14.329537781994148,-22.890835713842087,-22.115259464140955,-3.1936527325693493,-4.050853928100539,-2.823193025185347,3.1540458924479573
6.866794966058299,-1.202265725083229,3.0166254439380857,-5.315132176243596,-1.019351398522896,-0.0875092044697427,-6.705522486996934,-12.343186074966896,-26.620466482920445,-15.20773557809161,-9.934023570443138,-6.0802824752156,-5.156652790832785,-0.5160234174750684
2.178394748095981,-0.9460233542816088,0.7699760609548749,-11.148740210217628,-2.0383262179801256,1.9589734650329007,-7.481478219404753,-10.339168527828695,-26.90875319636429,-1.8954500141364683,-15.360197491066868,-7.5776291331545,-7.437777706099193,-5.422738712812545
-1.2028176071917525,-0.3550208216346668,0.1569009692536846,-10.202649207019745,-2.513948543499521,3.5192801595695338,-6.397749064504223,-7.520011725922225,-22.873257628714207,5.344661599201224,-15.789227311194852,-7.429119398078863,-8.18119445749007,-7.166518369643709
-1.8800681707570843,-1.7903040439801492,0.3032398896767937,-3.7501429944197007,-3.270982567879256,2.127753736312123,-3.426231077600846,-4.386221535097061,-14.95642464610396,6.107999347770811,-10.737040687769053,-6.64241172336946,-5.989457371860469,-3.94676226926918
-0.5888629481900676,-0.2137679025909935,-1.616666704102308,4.294251000705796,-1.7674986264533228,2.972339858631352,0.555715303688654,2.859211199905245,-4.7598482647739,8.00599415200029,-3.084777540089357,-4.266050836703925,-0.5859573695502771,-0.192623047794579
0.3732997773831492,2.7121419406166054,-5.406685157690198,9.627003977244382,1.408698007229492,3.951633961476909,4.121713837542444,14.559381489538527,5.632985888143928,8.198125334419087,3.230287657441117,-1.9364347119957688,6.474418849175127,4.800231025036615
-0.970309185527544,2.998741020138351,-7.982898486470218,9.762014013303094,3.0552171524597043,2.703764232324965,6.123005398117549,18.566138841732453,14.36352205688364,8.509204714616585,5.769282320722681,-1.9656294469728253,12.23001160077384,6.913193716962399
-4.621257377065419,1.7605647231599468,-9.2631140058896,5.099228206926199,2.6255094005633985,1.1989196938109457,6.350563108690789,14.8676661959703,20.22453352224833,9.625207054039434,4.530450121044918,-3.598650154743656,13.93926020459244,3.338093264734544
-8.568320552617397,-0.7775038945752419,-8.454789103506917,-1.6101341843558643,0.8024468263727511,-1.57697430952094,5.471149599908269,10.245162496449158,22.800369955272707,10.819067429857585,1.1829461007334636,-3.927961737463716,10.868124798769813,0.5822071582327477
-10.371911987024983,-3.341536051946948,-6.174010226296287,-7.083671677404038,-1.2276155888066915,-4.166200011609892,4.30211583868963,1.9952529846611295,22.40911104043917,12.788807120391889,-2.268870834941918,-3.1515495015823016,4.820805014792239,-2.47070286275056
-8.995950283855166,-2.9853134421865,-5.3718473429685725,-9.48597882980691,-1.8388395157617252,-3.994215168018463,3.105192667483045,-0.342737484820566,19.870380246524363,12.018403749436647,-4.418647229723533,-2.0094460352992174,-1.1040647608007887,-4.393383318783726
-5.398274788074147,-0.3011636565422596,-5.766815271061748,-9.177345701078911,-0.8572431015568727,-2.480432321638772,1.5662349993158031,4.574443488121187,16.144527501138867,8.371494476470852,-4.802039968537841,-0.5657894832227034,-4.571981886313388,-2.329938293869558
-1.5755017348065294,2.046942115058502,-6.03657126928821,-7.714179504929689,0.6554922435262739,-2.135042784782529,-0.5442936276954526,4.684637537983718,12.027756809475228,2.060022212409791,-3.838452924303283,-0.615867880525282,-5.2485368167872295,-1.952060301112233
0.9367986896312246,3.918706439276978,-5.514986288789247,-6.119822413009402,1.1569671942906268,-2.6113624732156966,-2.733036840476899,2.06604098952344,8.093385172697708,-7.926932714523341,-2.433199892928222,-1.5832550079749723,-4.362751290443057,-2.3936804037256163
1.8590399967967384,3.6428196843195257,-4.44500441597913,-4.1688468093916455,0.4920756838879359,-2.859478202045162,-3.882572572704341,-0.0128110302724713,4.812267377380081,-11.574540302510778,-1.303500822825363,-2.150838618663526,-3.25342151445026,-1.953728539194847
1.852946240183229,1.2026641504207618,-3.340508103492795,-1.3862091113246748,-0.5704630628353363,-2.075045515410453,-3.07416471180165,-3.3547050572461594,2.550526888551701,-8.375292861396325,-0.4432112752399177,-1.778882883304887,-2.335514983401921,-2.0998363310543
1.6646285122964457,-0.396361834922281,-1.9693988150237067,1.4318528581201235,-1.3631732685907985,0.7223996111885533,-0.3871267767749629,-2.71986473399494,1.2867495769845405,-6.247659876902358,0.6997541608852131,-0.6964582781538422,-1.2877385781166453,-0.0141983956717515
1.536676481543516,-2.09093787493848,-1.239221630522596,2.0849788294699536,-0.8341404584727856,4.289350810754349,3.059113787163305,2.416050178382496,0.3326059125890381,-2.952237493117948,2.315932154765328,0.6344231780226217,0.0392549407455291,3.6267185367471
1.237457684812668,-2.6691783584236286,-0.949298290452881,-1.2489558783072,0.4132153219648999,5.113975211168074,5.806618872091356,2.356190924856544,-1.456126762717325,-2.085048213844579,3.462269429304264,1.4776843849899393,1.1234412782262737,5.2221429631454415
0.4953589053096578,-1.4462282502575867,-0.1487846078372502,-7.904323350078286,1.1178065992792434,3.080089001614041,6.822744610213746,-2.2104424450418536,-4.887823076481347,-4.938679733104764,2.454911420714751,-0.1351831556061717,1.2126332673404363,4.670688198569476
-0.5812118036240292,-1.871329405642553,0.024475285537391,-14.469109594461166,1.0541279569627098,1.4481357733199327,5.749691954305675,-8.514506853754687,-9.62091453384221,-5.241070685048526,-1.5693604387533924,-2.769933843091421,0.1603697811355431,2.853379948519135
-1.4094430598543113,-2.4882676765788987,0.1099588346660778,-16.910903453994095,0.201002701429554,0.3638366672959733,2.733718921740973,-18.57611966470642,-14.080121023710085,-3.9903520290788217,-7.275631731250783,-5.871384907679782,-1.2873499864356432,0.4711355359714803
-1.2546456935089765,-2.3747818114390857,0.7202234583563594,-13.372483255579375,-0.7866519176132439,0.4291995618150801,-1.6869431908638717,-20.379067723092557,-16.300261484383938,-3.557124169458927,-11.496393119501974,-8.050965654826662,-2.080350534902067,-0.8827587441386435
0.1987263080480943,-2.3682681740427323,1.0076033127294248,-5.308210601719182,-0.9176546010283312,1.4414538881645886,-6.495071751836292,-13.029497083221878,-15.10525826676605,-3.0533327744158303,-11.454954763893056,-6.104320372121084,-1.7503457228669532,-0.7591517025300463
2.431852221130555,0.684583733153437,1.9539495248046437,3.801685304492821,-0.5018459725882976,-0.5559604070925984,-10.308222548925444,-5.942157209934619,-10.76508868389152,-1.0440629617607469,-7.092624597877389,-3.0594411951386182,-0.7638491433947792,-0.4591805657553101
4.250372521001779,5.35206839495453,3.423072304870111,10.787068077079551,-0.4529581193170524,-4.346184080002722,-12.006995750408706,3.70412343120312,-4.73752226916794,2.4134441882313107,-1.3481609614507022,0.3679663470298838,-0.074359492020946,-1.127946807581406
4.548504401824076,7.088772739784634,4.27098610842988,14.15775728865006,-0.3109000037928234,-5.494535330232119,-11.474793982526704,8.702347498280913,1.2012341194969025,5.720378305887973,2.0637900096734256,3.83329882180812,-0.3394673500431793,-1.7087856469756662
3.1504234966529907,5.671399368289157,4.277449356686036,13.787974717971366,0.168876132121861,-3.411716879576576,-9.617537966615773,7.317758728779989,5.810660213627571,9.123207036424809,1.5248200551854865,4.2591680590572425,-1.470313629697415,-1.8598214420658623
1.009142805913939,1.5838055125499657,2.891483520011001,9.966777125038746,0.7845081740011609,1.0542900259631902,-7.428923607037177,9.6980991067404,8.780559162784215,9.499762995727371,-1.4662341499890346,3.8768677805209952,-2.77994958459837,-2.80194641509324
-0.4823818054595392,-4.395398341903489,0.4654851296732525,3.269847906288021,2.714909956513633,6.965113097963937,-4.973384585844741,14.005016677812415,10.585195294304183,6.217769652028488,-3.909899805592545,4.343073900455141,-3.4766281626355635,-3.008175170283839
-0.5403730071584505,-7.210272307652647,-1.1320798001791983,-4.594078013099889,3.740780956642945,8.608652937343379,-1.470031396579813,15.247389695059686,11.966002732396682,5.175980428188886,-3.913647038262667,4.3220499442376665,-3.088499498751702,-2.323590381939227
0.4623561012505917,-4.439755799925732,-0.8694600452818791,-10.350555972653131,1.9610708649031503,4.106918608456511,3.4037733696574435,14.632033704769407,13.324422945200936,5.755789120610347,-1.904963861531925,5.155850797967138,-1.6220769041810286,-1.3756213357730656
1.3676724407792946,0.04947812434064,1.1604279774981854,-10.514216923116663,0.217158146418268,-0.0871412431252098,8.299948983433794,11.78991716720464,14.363873631806598,8.139267394807607,0.3355606141044376,7.816881518325723,0.4672952942545123,1.2148086264881588
1.1476443146762847,5.52825319259731,3.679706777975391,-4.109295534515248,-2.4878030764390284,-4.395618136291537,10.567350042950778,5.885592686419343,14.245783815914097,13.619249002563402,1.4489769447716083,9.462110605876395,2.3696472793859087,4.316966277946743
-0.402254292557707,7.932061552475498,4.61081396615374,5.518856596538036,-4.173053009541856,-6.7182745059159705,8.223663415926374,2.407693899916356,12.22876886612348,12.962905445210298,1.243439481154276,9.004960601677231,3.1140101036034125,5.186294844871122
-2.6443044232137964,3.2816013893284603,3.602600840639426,11.946428898389982,-2.3852436555056364,-4.218328263924653,1.842004540995376,1.396604223803331,8.366924810975739,5.979891712004903,0.0862907047144645,6.620998557360703,1.9849884930959971,3.5833110008938074
-4.584197658643674,-3.571520931002048,0.5753034704855149,9.75741505714558,-1.646669636769283,-3.4349252516252653,-5.483466338615322,-2.303369319067395,3.716752874020045,-1.6226931319373263,-1.8100647371981395,1.6174969053099202,-0.9099627567169648,0.968404373043154
-5.381673454301577,-11.10775791937436,-2.316341937913333,-1.346542909954472,-1.1453127479384009,-3.494779496006465,-10.24186147127363,-7.697454549915093,-0.1734287926192905,-11.898480638878157,-4.152693322369117,-3.808321640933032,-4.336598073599795,-2.181968457083404
-4.606902121743765,-13.550195588600968,-2.470287536015092,-15.662889994417071,-0.4041080578132304,-2.0449823258839026,-10.90903347997626,-10.279510244104886,-2.168134292212052,-14.048164119907833,-5.883118530234469,-5.664691640539839,-6.372604582378322,-3.316250189596421
-2.31757098329264,-6.953387254354021,-1.0695067197648167,-24.777648808294565,-0.6799484565889857,-0.8231721869111086,-8.62595935754835,-10.463889313505229,-2.210521192555426,-6.537979602417707,-5.384702981655735,-3.910629915556612,-5.566067429392604,-1.375025637941787
0.8981230754593348,1.3861585340532157,1.6386967657410985,-22.818673881967783,0.6265053997290052,1.2325127160746514,-5.759666759600506,-8.981881938762081,-1.3001779402032412,-0.6758560818222282,-1.867771826167953,-1.3259627373183394,-2.036336993397189,0.0204339201630142
3.9947212917784753,10.32820770441772,3.8363277815569807,-10.045803260294704,2.807993988324276,4.328516616652315,-3.840990077706138,-4.834286873237165,-0.8261909412132269,6.186301554996842,3.484153724477345,1.4314177912967687,2.4834737984832067,0.6203949868282429
5.869081103029462,13.281384504365086,3.5852659751468114,7.505012323676292,3.5661036799089647,5.331768786741543,-2.7131066629140204,-2.019614191062406,-1.7085495073128616,8.632226369238666,8.154061143467546,2.755072833578253,5.888819920415887,0.4310928764178506
6.023574125114849,6.879029448570113,3.033937090648404,21.759545761228907,2.608268989867806,3.924235207297947,-1.3413498537749593,-0.6039184001963014,-3.878396123499302,4.510726781972046,10.387494169831594,2.036830348285939,7.241451117975196,-1.1499445805415576
4.995547742833727,2.114174620816192,2.8342358839028803,27.04999958455861,0.4001262986050387,3.576650010374389,0.8525468164836973,2.060208791451812,-6.3887596705430845,2.332556110224787,10.610557523820525,1.652327624586647,7.188224311517345,-1.397105987372526
4.025173835639952,-1.7847227013632625,3.6587239987141618,22.566634683727163,-2.282257167345639,3.009293509264455,3.497990126110814,5.131035854151782,-8.062247517538719,0.3481178878197905,10.553035884323007,2.402525676825485,6.846211698816727,-0.1404833975592452
4.049513520378255,-3.207007977108478,5.009217885520513,11.824505318160991,-3.23006852054467,1.9555413154092152,5.839506632411004,6.378802050381078,-8.246208673418016,-2.5157133466688326,10.967598990416858,2.965162932234529,6.315096657926079,1.154236156971871
4.849235487359053,0.4278757960798178,4.862188115727632,0.1268754606443565,-1.765779770201929,1.298546172177756,7.440063384397096,5.834110366689492,-7.160212312968174,-5.076933486486535,10.561839124544182,3.277574531540854,4.479717081982091,1.6674832423049204
5.210190615561224,-0.5368665469620129,3.9025050105930106,-8.096513224961235,-0.0217251171494576,-1.1777053909685242,8.193494938418404,5.384361872999529,-5.594676352942258,-7.483574638330045,7.58060636350033,4.051147160133179,0.4910263160082238,0.9082585308159964
4.066773483831653,-3.765373026608065,2.2317134606701954,-10.71879871518027,1.1744860723291333,-4.640240449663598,7.853515149742122,4.576590862046144,-4.221012498847564,-9.458484004053156,2.472679191286886,3.691033952131989,-4.54907359887752,-0.6443755666632878
1.5724607422629688,-4.503031873588008,0.2708072150507016,-7.98109899495914,1.1292830687333026,-6.124576521456842,5.946126492858028,2.546900748005324,-3.107766742368227,-7.843551270877175,-1.4537778889309152,2.1302914668774364,-7.649192861780854,-1.9797277888692133
-1.0012917774805317,-4.11930777930742,-1.2960503121179858,-1.8828921531615848,-0.0754458093664449,-5.301785320699111,2.4053613472691,-0.5207037960564294,-1.8590357160058344,-2.142823626770292,-0.6243774905544939,0.10336017222438,-6.104968883004297,-1.6409653727111968
-2.5053158521173917,-0.2521384596396296,-3.3616356521303303,4.540247972729944,-0.4667117550818856,-3.623937202917258,-1.7728028370260065,-4.634789241635538,-0.2023032074237392,2.808302843408168,5.2121793339482565,-2.40608580099437,-0.0014010098570054,0.3315325827682454
-3.0474364060041665,4.442668470123331,-6.466910211464473,8.122910479168056,0.3500652854445096,-1.0211368460516763,-4.811858253142859,-9.95465627112456,1.5908976678671962,7.69431442642123,12.070386585837952,-4.697894260750521,7.301676492255012,2.224227769416673
-3.802000600066776,4.7838099367713856,-8.733764479356688,6.897743958840479,1.2198235522995409,1.1746527459398322,-5.374014030243828,-10.432351542137084,2.8997377825432125,10.66082550994298,14.78100532036207,-5.44439005799167,11.347288681729792,2.912387829327945
-5.625939340843587,1.8443130183264853,-9.07341272376977,1.409915764353414,1.189452715567597,1.6608679927540948,-3.612278033492132,-5.53014534250433,3.361833592219696,10.572693353669369,11.36390527887498,-4.595539866182774,9.703484696906642,2.0597598947297904
-7.927631651733918,-0.997342683812878,-8.952742224312347,-5.1506641699754,0.1167673241250875,1.6339977158198329,-0.987256863069888,-1.6129591725409402,3.233973998117051,10.719203178772409,4.591217046123504,-5.029614805752588,3.504206808956667,-0.5242063108766509
-9.07373219088933,-1.8807413902588888,-7.757736657974409,-8.778697077342628,-1.617600590468197,1.7686522220528451,1.0021948320775778,2.6612881295975104,3.079858327152465,10.30241133604562,-0.7762585316894928,-5.720702223501762,-3.679142050973809,-2.428512183183297
-8.041266220093334,-0.2299762850051014,-6.209318258245142,-7.585362200045921,-2.193543317217283,1.4390532184215707,1.9354962487009288,4.580424867084392,3.075616386172584,6.449066895208016,-2.410121071049417,-5.4448399844046085,-8.472780477016855,-2.0807594484332683
-5.64212108790241,1.7170875164635218,-5.741518924778853,-3.5177077310755465,-0.7238074468114317,1.3303562915668716,2.413030722057627,2.868592894933656,2.675326799758864,-0.7204694463758491,-2.2291711813316226,-5.597348703048449,-9.65725887250062,-0.897674726957137
-3.968380651334286,0.5611609574344658,-5.262195391365687,-1.0181352532318044,0.9786808099175331,2.8298798314983657,3.067401175712888,3.087868113134979,1.0662618268197264,-6.914580692871528,-3.948268847689434,-4.138585048893731,-8.19022071096083,0.1818624539052968
-4.491352680582594,-3.669866556785246,-4.369585199948324,-3.2535996070095905,2.3182237738288776,3.718639080004133,3.793765140936415,4.383432431884701,-1.9508516769686253,-12.466207508006534,-8.903234784170309,-2.290021939983006,-5.816002212585886,-0.4764130490529794
-6.672508787856003,-6.72709473991066,-3.744547665133063,-8.96932358532581,2.173914050955888,3.135269429386001,3.9672729891881886,3.01671700899228,-5.502530882368831,-14.175069097590608,-14.326672828812832,-2.6802336796788127,-3.732145143343956,-2.356756385785856
-8.48619877451415,-5.401608455557861,-2.925973705597251,-12.955558037941728,0.5656979176644897,1.5331270885872437,3.259662695785181,-0.3818433142329539,-8.11685576508384,-10.691297250176572,-15.757467695694572,-3.2374350369179554,-2.257494326092342,-2.984880734815961
-8.326815059032612,-0.4742530743149413,-0.7985031351867433,-10.211806896517402,-0.2956037467819228,-1.7005790419803657,2.054100686290269,-3.7636608542984304,-8.799802428564021,-10.577621286555214,-11.226272954628117,-3.1965414180826883,-1.2562087357073892,-1.3552320975594845
-6.357078150229711,6.390938888809359,1.4380916684688978,-0.5370318349470438,-0.6895099678450625,-4.553172405903419,1.0241318588347212,-7.647184145719728,-7.803744563360397,-13.062424366894437,-3.2391709991564426,-2.533193555692125,-0.5384595710405051,2.5118054841785096
-3.9462538669082505,9.600840838897303,3.05619178920813,10.492413812572096,-0.6066329759486052,-4.942686100293081,0.4395600228024534,-9.052069632884036,-6.428761588532893,-11.98782932589632,3.1934228412876564,-0.838015986038337,0.1251032471213591,5.344594696279021
-1.892687658305164,6.252538852038842,4.158659370217546,15.395068850287316,-0.3734548646915474,-3.5248443625836217,0.0382635854150805,-7.3631231902036705,-6.033702909683427,-8.621685712209644,4.530435183455609,0.0014954178318823,1.0393246701091812,4.691459949444282
0.5448495390809285,1.1076451994740344,4.318421758579548,10.655112614798924,-1.5068209867383957,-1.9989177901412525,-0.4150751662591005,-8.252158361832763,-7.086494316221518,-3.404962263714649,1.1430754339998543,-0.7115067085077756,2.295259985395319,2.076669064172402
4.626490695605355,-3.984653122262046,4.519025444347806,-0.1310129723547106,-2.661689066704475,-0.8194065330059587,-0.6054871538073314,-11.13927846718119,-8.976061114751957,4.658083857312553,-3.551886145061502,-1.930458507644541,3.4042761486560096,-1.207728735418187
10.141327057149454,-5.843124087456917,5.117523051314052,-8.539056177667646,-2.3759938952752906,-0.1025596247631294,0.1178350062776871,-10.754309862860907,-10.59566045879211,5.820448988746132,-6.021849497991042,-2.4149598052360632,3.5012736086315783,-2.822704003720616
14.694136627526037,-2.876420047595848,5.973499212997698,-7.459739327764169,-1.0811673630628078,0.3472322576931303,1.950546794757031,-7.788031632763628,-11.087561645186412,-0.5353522182229516,-4.965267994609462,-0.9412033615838656,2.2473405664680115,-1.575887121139576
15.365268900829989,0.6641191574875235,7.470619150696863,3.536614627176533,1.1962493463470438,0.8929956892003718,4.153039526381235,-2.091151258429313,-10.160927790023663,-3.4601738032426974,-1.5315095723738068,1.4362040520531134,0.5960793424582391,0.0266401718101763
11.379978847658094,3.362613243097857,8.476113201012863,17.636776517048077,3.4417397584370737,1.619519023039688,5.533861288076281,7.463923895884092,-7.918032205765996,-4.869701265223839,2.1105401778256407,3.532767059104449,0.3879658731348172,0.4178245910223009
5.195780238024241,3.41010417641765,8.222634541288416,25.45548577886231,3.238892883243882,1.6346712006647102,5.519833107505292,12.71312056020452,-4.594617238688471,-3.208083822744979,4.345901423607643,4.7556084031903145,2.7344284364278053,-0.0547915215190188
0.7681935987197619,0.2493265906406389,6.92898609017931,21.498775557063368,1.2338992562323523,1.146345186153224,4.7513316473812495,13.469337602185927,-0.520553515071299,3.637654879162637,4.7947206954659976,4.394741288932695,6.566266222393665,-1.0326204229881673
0.4226904148379731,-3.005642893678202,4.008635924709972,7.78634935945513,-0.2590068131477791,2.2779696131853977,4.527611871280215,14.311142126672229,3.801375135285838,7.0590327169727605,4.043025519794838,4.211353965595802,8.941785219102144,-1.9505886706319453
3.107664086305988,-5.754877627326351,0.5213470417806115,-7.792155656509294,-1.8491934142432185,3.939062466676556,5.540262062985079,13.363027563836704,7.789196347179214,7.723726664080288,2.9192322842266947,4.746830338633084,7.258105837368049,-1.870205861996412
5.521647544852513,-5.4577095078834725,-1.0243604613650903,-16.942957078395196,-2.136169722245257,4.375989755856499,7.06283838628211,12.04235395085089,11.082091652621088,8.754493944778437,1.8712934738071847,4.872175427383967,1.641090471503162,-1.2813094811078525
4.993022724984357,-1.0799054720066703,-0.6592227017546796,-16.15235519424151,-0.653443344871163,2.888087328418451,7.381552468502647,10.702108403957943,13.73184196268926,8.534053887320534,0.8555073472755197,5.343019634426184,-4.647386333427676,-0.6622744808963922
1.551907710320961,2.2627091263599857,-0.0152856317231933,-7.986805031840817,-0.4321893231194993,-0.8764042499033241,5.135354468041086,9.33903484241973,16.003984064142358,8.661555958073539,-0.1799078345871834,5.586789131163895,-7.373274453781292,0.6204794484611588
-2.4329650694975555,5.553231564420788,0.6112160131568635,1.8637152986131584,0.1257254091734487,-5.333945583658311,0.4472294720396803,8.465748016294466,17.914483606954192,9.28659632128274,-0.6970381525556064,5.227394007338699,-4.433058361170396,2.247903913679739
-4.453108210549772,6.381069387718868,0.2758164692683077,8.837947452361377,1.0847887982040576,-6.89172711996062,-5.043318848475785,6.307450039821725,18.937606677131768,7.265956773677011,0.3144400302523138,4.864076504680768,2.5648086764665763,3.136147272320489
-3.862174574437532,2.3633695865761606,-1.5457664064818786,11.490358687222365,0.8445989598764454,-4.553358799887137,-9.201214743236694,2.989142769893777,18.18625306510448,2.7359636836091825,3.21599109170711,3.244796882708916,9.409417842022089,2.835930907867319
-2.0794080904176333,0.3183080626728689,-2.939435537413485,10.28057915656343,1.308425701919423,-1.5754121795787193,-10.652720003974462,-2.578607466316233,14.965825134403335,-1.806806458345469,6.546465955255398,0.7174062286952549,12.089604431416134,1.6476290892229837
-1.0466100385752202,-2.5692723229134358,-3.998479652352067,5.5034068521347566,1.2841312378366403,0.8863421627494169,-9.423679740152702,-10.911313353323427,9.348610170147824,-6.903157211605134,7.362890299871422,-2.2674130594291784,9.16889159831424,-0.0868811552502226
-1.4019656913415766,-4.78542590124245,-5.170333565783956,-2.7731648812389267,0.2239250670013768,1.5534153043218537,-6.66286877106128,-12.937808463874411,2.447031221516905,-8.225560077133382,3.513571530090178,-4.314273245422769,2.285126070732129,-1.2376335006257533
-1.9775895990676489,-2.2414208788888503,-5.375118110121903,-12.725139932072707,-0.0174338004242274,0.2578267695599287,-3.7817593448244935,-8.318490587992201,-3.806007008893097,-4.929865691718839,-3.9185099470406826,-3.586140872093202,-5.127974996456771,-0.9495513637428892
-1.0978296949231918,-1.3264090532477364,-4.479167403309234,-19.761879213293184,-0.5704200172973034,0.0634391466415111,-1.6363274258811202,-4.957001044752786,-7.43090049507461,-2.199742295728281,-10.62362926693703,-2.816153297055302,-9.807624893673662,-0.0824693023050485
1.405582060508905,1.806993039663662,-2.659043516605752,-19.03810204027218,-1.0717547631516773,1.5906551695637816,-0.2586961473641764,-0.9503027654838636,-7.499984357179656,1.102707260820044,-12.236787816198472,-1.9900571301133831,-10.255926243151066,0.8718264617827916
3.3463143358315506,5.478401251056441,-0.5514427405508417,-10.051587525583784,-0.6524053910418137,2.926238947876974,0.7681104944497292,-0.2856353137530067,-4.893756368408418,1.064474694826696,-8.173165866945453,-0.9166185663794044,-7.37398189434046,1.2632455835345509
1.6203319049641038,3.325917154000645,0.5808185486605312,1.3472279761505206,-0.6569722773906345,2.847989053699693,1.667790310993837,-4.491256884120817,-1.9445029787625288,-3.484639919300537,-2.4546774373684457,-1.64632372249002,-3.896298036503055,-0.0177280750048919
-4.938233455938075,0.3144760511157379,-0.664238687513456,6.621223475778862,-0.997821576573936,1.4939881616819175,2.135792768497822,-3.845316488064639,-0.8993001527743729,-8.01311799913118,-0.3696618127494275,-1.4057496233562603,-2.7411847868881694,-2.860810019998347
-13.724576615152642,-6.086499403238577,-2.7413748230168604,1.5094414728476693,-1.2941279010253537,-1.1722667862166474,1.6112979351279364,0.7494348300526634,-2.257425268116464,-13.768103936713109,-3.8256456930726586,0.0221149908232317,-5.056983065393041,-6.586736125681624
-19.517454609306757,-11.32086081890279,-3.410334625980472,-9.932578084902502,-1.5042400626068535,-2.753985169543776,-0.115580700041562,1.9906577725646528,-4.431785948490244,-14.7842362566761,-9.700652145279491,0.3613749686559406,-9.304222035600503,-7.960815123517481
-18.10029928531316,-7.986203974848025,-1.9268778526040788,-18.303398023145803,-1.32460586594922,-1.7777626840217968,-2.563639933461332,1.2708111152768793,-5.158649014237881,-9.940450453959256,-12.714908448963342,0.8676066533518181,-12.28047287653817,-4.962591569237247
-9.480098470482917,-1.8399558779381,1.8228731031793568,-16.514012449931897,-0.024106442002491,-0.4677014873239897,-4.8241600162766645,-1.7027394589980174,-3.4490883017830924,-3.786898640633689,-10.03908022477242,1.3175952730908325,-11.489341334360802,0.4373248025075272
2.043695904109086,6.979243559923091,5.171439691611181,-5.385161119350983,1.7298905289151714,0.7487484977271953,-6.162424607618448,-8.257502156699152,-0.3132266360412359,5.464764942666943,-3.3653931593759694,0.7948748607741377,-6.965446286932775,7.392800867580944
11.025307685671407,12.245332672800227,5.767057852947672,7.610485440037792,2.348209839201774,1.14318776765422,-6.397939302047007,-9.710099913105172,2.3212572095169435,9.595564737302965,3.112109664453044,0.4644492942870988,-1.0443432418430234,10.37831902754389
14.537271351558672,8.32961412583094,3.6428761291862406,14.892921963273976,2.2222493416636127,0.1893861971476494,-5.8067367736697975,-5.941961116181859,3.3188279762563297,7.55364205231037,6.405325158482242,0.5391438830128654,3.5785479804321767,6.785008132393763
13.419896254045057,3.867485658202953,1.701847868982553,14.49091544927262,1.84348636441596,-0.275040566166475,-4.791379304605812,-3.3259692779852066,3.017075164980497,6.661106972203925,6.56214378719028,0.3849217802288268,5.66875190355438,2.7379926113301365
10.567298840685112,-0.2043885036274254,1.3810434498035495,10.196350307408238,1.2924081616451155,-0.0639831070547137,-3.677680619252669,-0.0738032836185762,2.454178266946201,4.846631820176125,5.486471080560932,0.3293821425346827,5.7170228160043735,-1.4301311807612185
8.249870150303991,-2.5725695155277686,1.9030290521240985,6.923807912976258,0.8300059276267536,0.1342834729062038,-2.6827855483097665,0.9348587350273894,2.222591544162924,4.446767603792109,4.675216192933249,0.2359554490206503,4.921735337243604,-3.567095069232213
6.832084663128512,-0.5799032956024867,3.307080130186579,6.1833609199973125,0.3967357554169025,0.2566685270262727,-1.862263342661663,-1.3600942250232322,2.177792528200144,6.527862713623764,4.29009940625167,-0.4220130570224442,4.216449697394182,-1.695240949764973
5.4635373531226605,-0.5267153392574968,3.4829693400337653,5.735089820021244,-0.533811563860592,0.1315874574883324,-1.0238008944324974,-1.2291818888484958,2.0377710533598474,6.8339844906362615,3.915703981576712,-0.7545399103560632,4.065705180291502,-1.168654457402109
3.481821752697897,-2.8247118478506525,2.6099546856284346,3.054620381949121,-1.7916856767404574,0.0500948719612575,0.140732273795038,0.5865586326204906,1.885595372066064,6.095908517023014,3.4678497189411246,-0.2265152487181705,4.564479825490707,-1.8801523147572556
1.074265386330694,-3.5860049073469247,2.420674122630949,-1.3032683533836007,-1.8186367053438823,0.2790913085450365,1.608932625431862,1.8259732502930976,1.8901194399861647,5.5674240530756585,3.061369279728865,0.5275226807656669,5.2373658776151615,-1.6602859395585043
-1.0760551671726262,-3.326187889277345,1.8623268377405269,-3.8563641522202943,-1.1084024436639988,0.3953179461455668,2.671336580601178,3.3933830760096813,1.6914395104294044,4.6486319003841645,2.364712085302699,0.6569905682565753,4.881617154903665,-1.359426149778037
-2.416622697673347,-2.464327272968561,-0.1529269888042671,-1.6012311102821286,-1.3615039395651372,-0.1962787331891062,2.2263176189787828,3.5835802425961574,0.4240972901562827,1.2882515957167306,0.7126307785754307,-0.8385520090880628,2.279373502267049,-0.63140554241792
-2.7519557467271625,-0.1310220835339901,-3.526123726560804,4.758422095104152,-1.7077954684871268,-1.6247813937134696,-0.2870472438869456,2.067935452138028,-2.375960636902846,-4.6814016733163255,-1.85374356411171,-3.7653297816727145,-2.3617130674301734,1.1019213220219723
-2.1104147576489822,1.3718402873100013,-6.306403909903324,10.949490410421504,-1.8229156983541337,-2.591485538220547,-4.111840073748567,1.318169539282786,-5.860695338923165,-7.18103144895481,-3.889036259910654,-5.842048924685572,-6.703412427644139,1.7745509309290406
-0.6697995741578779,1.3382540002135277,-6.754745198420306,12.559679457517404,-1.4319237098238555,-1.9167675561500157,-7.400053641517047,0.96415885294158,-8.062854853763383,-6.283985438984134,-3.355303139270859,-5.220406422390131,-7.566780581306489,1.33123755572325
1.1133165379164325,2.2118398847955074,-4.629024102389423,8.589232579186614,0.9994663863638464,-0.1808691068822741,-8.415366285038374,-0.1156739338415573,-7.313735850226578,-1.1267742258466826,0.5038070621014867,-2.8512890427692703,-3.5508029345557475,1.205991612858896
2.4494789675793527,2.822512347974679,-1.139596287687689,1.9199258932569592,3.7482461559547375,2.215770092511126,-6.732544920766259,-1.5690855062363092,-3.7758192890256623,10.036610277287666,5.975836551409657,-0.0943183864188478,3.3271399349634976,0.1239743154622229
2.5204980872265423,1.5544874043511423,0.7476207154138247,-3.5251962135844224,3.888184261496847,3.4035021851748573,-3.41897527955166,-1.925187067343173,0.2978507464358699,12.619329160575129,9.676083806832366,1.3580641800764777,8.68777642121222,-1.109075697578888
1.025700399544121,-0.5021467722016798,-0.2871583880185205,-6.095561366099901,1.7922719729420238,2.1364077694794457,-0.1076259081567059,-1.1635740991956005,1.996102727923926,6.354781490569263,8.863935049198744,0.2230659478551134,8.874039823565681,-1.5056637061449356
-1.4907981379534476,-2.3962046385495834,-2.4053627857234217,-7.123984315160897,-0.7445485388455797,0.3839455910335409,2.19275950679571,0.7355338270581097,-0.1191209484582032,-2.25125796765498,3.472376925667845,-1.3242145826040677,3.582834768888233,-1.7719042155524447
-3.892389795294207,-4.4704550510548895,-3.8136013838370495,-8.650200879931958,-2.88132743541855,-1.30618808175156,3.604632043872016,4.214943951595345,-4.848888243891338,-16.69591756782372,-3.7237728442853495,-1.9316691316419383,-3.964823960881631,-1.0152187050374777
-5.151025747566337,-3.929204077427133,-4.0170451819204045,-10.667681770572926,-2.5329304832520507,-2.052951447831673,4.952028464111777,4.558388046426826,-9.165596928711238,-21.872379614464244,-8.912406399980227,-2.0762428335800616,-9.233800473487804,0.5389701947294203
-4.931044100300824,-0.7466601332982692,-2.34841297143651,-10.72436498481602,-0.0427734972386,-1.217863442576305,6.880091062089377,1.5394528635942055,-10.46296218894406,-16.406066658483567,-9.700464886656732,-1.1209318096617569,-9.212057781297515,0.954942529237142
-3.558149792171207,0.3377516631254361,-0.4823816260377956,-6.302728769716282,0.5981384545666051,-0.2887094557458191,9.214190611152503,-1.5131622973163514,-8.50806934731645,-11.980497532981502,-6.514525958925219,0.4899854186873957,-4.0606255889453,0.9544532920824356
-1.4772425233165905,1.9597345619726536,0.0543401090438726,2.2874210222469173,0.4146241850063089,0.3493242040282862,10.956562855067205,-5.689614877971558,-5.5190472739765255,-4.934156459490913,-2.045850338400328,1.686183561534741,3.1669636708422786,0.6768943076872673
1.119994447036106,2.965977831704323,-0.3267504310786428,11.249417977026042,0.159814907131361,0.7553820034903848,10.883535213989717,-7.051361749039456,-4.28873828284236,-0.4049785735415588,0.7661205244039593,2.276837795188139,8.356760460843361,-0.6384898134827715
3.9576804822519303,1.375158781112781,-2.446079573513296,15.622502908065712,-0.6667931396268428,0.8040970464585986,8.379525394959273,-4.890686717735573,-5.88997808283716,-0.0502830982311809,0.6916846340028542,1.5173479534346122,8.671313771016116,-0.9994105835339322
5.983624759763131,2.584405453120108,-4.577614471901256,12.78514533183204,0.3986551762594289,0.7341186097280537,3.983094919447808,-4.061860997002546,-8.82069240961306,4.216526205650723,-1.312317587549387,-1.027685242107455,4.108155314133114,0.2399050129051861
5.394241104424282,3.0962176916213675,-5.941622056202977,4.386485789830715,1.440689950673807,0.932638220847518,-0.7773161785568732,-3.6053667587666713,-10.179938085285926,11.008620494729088,-3.318360987125061,-3.92128977034195,-2.6900701069027946,1.4378226598212422
0.965131059357418,1.4870849298805906,-6.497659145863151,-4.78394857242364,0.8607891349715291,0.861498623528961,-4.244168109641976,-1.4968991389867958,-7.7730160742355,15.072006164626265,-4.158045846726452,-4.954696300447303,-8.309862114943883,2.335983575227612
-6.234436562757253,0.3467977023892663,-5.073369258992412,-10.123840252583022,-0.1392143077215643,0.5333216590534505,-5.618536400758671,1.6889402719718274,-1.4552137906510438,17.268884942026173,-4.130626736696911,-3.631092941773818,-10.790993218923916,2.459065507920554
-12.625727839812896,-2.472580580596162,-3.699729354504622,-10.235387426829334,-1.143823574452137,0.250919251021437,-5.3165360628622125,6.61088636169253,7.063711721559798,17.41248524337891,-4.19596365656173,-1.1073349868047246,-10.496484440443396,-0.3126524306255447
-14.310041045790626,-4.859301702621357,-2.6801627064603566,-7.388735811654442,-1.0313281919595942,-0.6475881211836616,-4.404775959464473,13.621461487911883,15.359638234785509,14.436547995642716,-4.617660666136544,1.1050524364994143,-9.057136144503602,-2.9691521552316105
-10.21538515042758,-4.258753897057379,-1.4839982768845792,-5.187377490706297,0.1097864003942002,-1.313138208609829,-3.615886854340374,15.550605652168596,21.295083837205624,10.357933265849192,-4.483259114165321,1.6159517435720343,-7.546692512355435,-2.809098537867473
-3.359325460120516,-1.7933964345612523,-0.590622587234765,-5.439831629058716,1.045209521523655,-1.493181089576262,-2.813266258915206,12.019847550960106,23.428316777048224,4.763344707343903,-2.5556966875038256,0.8244247521620798,-5.667159212437724,-1.5015632247321122
1.2957457416627562,1.4413516333741854,0.40235556857769,-6.89978203459404,1.061539499510197,-2.0959850537026345,-1.338993987542466,9.24563911945902,21.17625123194037,-1.271244239211221,1.456375419718853,0.0970660124554053,-2.5754871270543447,0.7015802387477315
0.822834698912942,5.189856643026133,1.9558891685944269,-6.901893017761893,0.3627989571321787,-2.316966986080472,1.1525505417144473,5.655320433910368,15.092725789601502,-7.353642484724857,6.468914380009693,0.2704251909443771,1.7300726736623917,1.3724659071467278
-3.322727881558692,6.262596798456292,3.095534903791233,-4.301983329174874,-0.093360247679069,-1.847283898508549,4.182579831756641,2.895623607913995,6.999701179589351,-10.09722039273862,10.731860049866668,0.9577489148567572,6.011008430916917,-0.7046379256894968
-6.728817444215423,3.687149399819881,3.2876561445962413,-0.8945304567009202,0.398793983625979,-1.2242976581136815,6.683197248078386,1.9668780690180685,-0.5898040668786848,-8.646655425486719,12.838740296169776,1.3582446055705455,8.72463344545723,-2.9285995287009485
-5.941503455345554,0.0983059872420902,3.901578900608199,0.1131470967297971,0.8634935590194301,0.2514488127187047,7.680194564813775,-2.2016371913995822,-5.736755778136569,-8.623814752686366,12.122495111655518,2.334069432136572,9.1929376462488,-2.491595566307853
-1.3390492627848722,-4.890956687498026,4.328947117647304,-2.81624654847958,0.6806267197343889,2.3181881069867822,6.802668842174008,-9.171384604619602,-8.12954825434354,-9.150759074057309,8.467566326183587,3.3931547509333937,7.806715460485917,0.5389492652531512
3.5021164936973577,-7.336588029493472,4.13366098092474,-7.816616431931195,-0.1715181643560375,3.3204070135497843,4.3278521310450735,-12.292763994803506,-8.936517901838762,-7.350167215331178,2.2903556849209403,3.8305028360562994,5.303628117002697,3.3486089270480472
5.13381096749575,-4.912339252992456,3.5018307388815613,-10.898107855875036,-1.6719804581184308,3.2524244755741685,0.9706190794592652,-12.00872554687349,-9.479075396162091,-3.964066938412389,-5.000238157344768,4.023690368932051,2.189336895725024,4.036682661691634
3.096127591332177,-1.94247171441098,2.63567259907202,-9.12266451019282,-2.499437148025624,2.840514162073701,-2.2879970545299173,-11.316797032175856,-9.925887552527918,0.1515499694520526,-10.816863695690271,2.5180112841784585,-1.0064589318392905,1.9741221908058264
-0.1507761794688633,2.096401973770691,1.6987547593580046,-2.937933530672211,-2.764381223144492,1.861586795731032,-4.364023135443148,-8.891196326466316,-9.275936854275264,5.333523421906445,-12.443024213302834,0.2924545336909379,-3.2362161501555,-0.7498020224212428
-1.815131159201684,4.805286452142688,1.5220130766614413,4.158268873974393,-2.040272674061725,0.6776798230271918,-4.473030546772691,-6.037753743725838,-6.672552510547035,5.275652763140951,-9.031349773217414,-0.2223657857544314,-3.2567686045076414,-1.7963222605177085
-1.2516351233851282,3.273666984626012,2.812377270698115,8.074736258158524,-0.3405761007836703,-0.0508336978394453,-2.7188893279606816,-2.9966311063308586,-2.723904941779921,-0.7534982809139564,-2.804310906620117,0.7722743204541734,-0.8087949236376488,-0.9125401748358832
-0.0760442087043316,0.9937743832487806,3.036796821831302,6.67363473924361,0.7605139819715132,-0.8641103206932137,-0.3188517430371718,2.535446816187901,0.6030437469736682,-3.207204814649163,2.132706636741233,2.275030540367476,2.6498518798020143,-0.0894067254429245
-0.0714178045113556,-2.49515168407832,2.26414088355612,0.8450422462211975,2.54824313250779,-2.330234675280102,1.0654847229740767,10.352980616059504,1.6029845707918753,-3.274849840285516,2.8817034129066315,2.809025812710517,4.868956959404457,-1.912911005850164
-1.1150527994236938,-5.347594765819989,1.683572983398265,-6.036025531689546,3.071441885757934,-2.931878291045709,0.6378442239186768,13.34072843149014,0.5174820307910295,-1.6480183460339586,0.1793841016619239,1.2457311154280974,4.869517540168999,-3.5177358334394366
-1.2063466833706116,-3.657724345731138,1.4782048307440865,-9.62390141567289,1.293314974196095,-2.604050669935099,-0.6913275053150301,11.284668277276912,-0.3791489758474711,3.5702173346879627,-2.1975191468949333,-1.0806978040168724,4.08319977532642,-2.4582365324361155
1.4393495782867376,1.118894509840805,2.914502741637769,-6.56638716447398,0.7600209509916209,-2.858785497433207,-0.9367703856867422,10.615887922207817,1.4212891446065044,5.20875162702354,-0.7727802286485996,-1.6284060073753404,5.076597907286725,0.5882149477641024
6.292865604594738,8.454938838361606,5.975070382989896,3.4859508237306045,-0.5806535685369281,-2.072948269814184,1.131625598353594,9.867331435274798,6.420918512151332,3.36246823021966,4.458128909228663,0.3898779761268051,8.797104289293685,7.912562372182941
10.51356280313732,12.846250941704405,8.475972153623266,16.83997783081898,-1.475882384574001,-0.7422238798085462,4.539572555791494,7.00724281227626,12.325703177938522,3.002205839994078,9.88483714696244,3.4053522799589078,13.02567079789992,12.268319196369225
11.187994374412796,8.497800730426807,7.86960815066735,26.974498633359133,-0.2233557882278339,-0.2950548740498985,6.586521729147762,2.785369242672042,15.43360840252356,2.76781094236056,11.274194044161618,3.819291680950232,13.850847994593067,7.811064920760615
7.828048820423163,0.0512297284379708,6.129951687014197,28.1502354124205,-0.9765069831382512,1.180439020600231,5.132942391375906,-6.944123058092989,13.159743113170634,2.977429809498932,7.169740679271428,1.934438158847296,9.07406017800028,1.3724356580325043
2.8807612291915063,-10.5018991547601,4.016129673650081,19.36929238851724,-1.6797318456157182,2.552438366557889,0.7406249807206393,-22.81823600883104,5.811956317977462,4.287924561323928,-0.217073395593303,-1.0879612330005988,0.4327356379044431,-8.684797565684924
-0.1919981912317894,-15.830510634804062,2.516330150970302,5.567731629732094,-1.3437496197702992,2.4647309519206075,-3.425811432982784,-27.81045441163348,-3.5916689399670645,2.1568225091304605,-7.050532918939922,-3.056906874068641,-7.483244017867378,-15.10271587850373
0.4541926929662168,-9.82320795325816,5.341946373754972,-5.379158765895795,-1.0935522178686692,2.380048617431757,-4.092312304936627,-21.66091099116477,-11.171546236687504,-3.482061942283427,-10.67482897489444,1.106061663028286,-10.672773669252877,-10.211322476944142
3.9321062267144384,-1.5860932230454752,8.43637672329327,-7.856766715555892,1.5514311487305743,2.331506276954968,-0.6405653670332754,-13.745068116549774,-14.320681456477985,-7.840772643549386,-10.741759966703086,5.810301696862106,-8.466171301666606,-4.605396858388903
7.753608434224731,5.894845421055812,10.040562702549304,-1.9441171949567604,4.605389655929984,2.042464854325565,4.359693242958201,-0.129101080164621,-12.7783865753496,-11.709243333914229,-8.238388255945097,8.595274692068926,-3.376696544609075,2.3173281189198693
9.948778152125868,8.45510187660257,10.536869052087576,7.426465008719731,4.890260923534486,1.5093237655136988,7.349934936227697,6.733847652792694,-8.219005164280702,-11.508214190628667,-4.009642969755021,9.780257131958876,1.342347011862131,7.382810555741803
10.285437817783674,3.107076312255586,7.345987916422269,14.466445188409466,2.8286277743818777,0.3719084108080429,6.698556520500887,5.185476934672514,-2.93534800699868,-5.97868750493097,1.5785064672533906,5.872649579519409,3.979862652749773,4.244397957928827
9.797197364069376,-1.3781406730236698,5.124681332222806,16.19243193059296,-1.13061311065421,-1.1101817594563408,3.7197680622101927,7.824925767960478,1.395787247174212,-3.858092668509296,7.841580064537823,3.5479096818111,4.735138488209827,1.498405667965761
9.412133612288102,-2.6077663366010726,5.262687868125344,13.184537631821,-5.135079774136741,-2.605062195493015,1.0598653007610324,11.68817629811471,4.189781116366305,-4.359250304765256,13.229212483935584,4.566046165871136,4.572750486701295,-0.1833817622932905
9.071245523425771,-0.9113481480135502,5.280812709927709,7.816797723558608,-5.325126016986568,-2.5519040108466,0.1822948773406096,13.157974245105342,5.662603654305116,-2.710072680145254,16.042860914971357,5.176639827504433,4.187119688723413,-1.5425302130023002
8.017200160557508,2.8888467863890783,5.310024237371392,2.2579994314801866,-2.1554914569554384,-1.2589556878209789,0.3424512681800138,13.632255957865528,6.2597659774257295,-0.3653994340461101,15.838196686306048,4.75007241739921,3.9742529414108674,0.6323996214072583
5.791802677799637,3.673869398259086,2.763362800434958,-2.123922903895746,0.547902307860669,-1.4183978836209494,-0.2062133188524484,11.460603969956118,6.3097486279994826,6.908050465753252,13.95704734354041,2.5014866030322453,4.437326522629903,2.840554942986765
2.9357069749205493,1.5998916020163083,-2.5429953523541533,-4.328666370840509,2.122380314877471,-1.9663004317841437,-2.220868502228484,6.118590972735701,6.033595126245913,20.092176386922443,12.409532314175166,-1.9518522768709237,6.037321706368417,3.594985679668627
0.7447376338462135,-0.8483005506400635,-6.702749952190044,-3.628226501892186,1.3415827306891397,-2.2272813843997508,-4.7076038029215965,3.0890731064190846,5.670587712880149,24.08162339632207,12.063709848459736,-5.575107830969636,8.461512235637628,3.380795952963577
0.2577800133153261,-1.967314979688512,-7.612089516855534,-0.306451561594713,-1.078428357004077,-1.7318410949699974,-5.984960896567344,2.23828524495465,5.4440847801680405,19.0030937080879,11.929199988664765,-4.974582831548816,10.277121475621756,1.431021020869303
1.2837064945017571,-0.6622864499561669,-6.842070012649948,3.704825693170761,-0.776966787809138,1.04266725553072,-5.3438600508278,-0.2937226033669458,5.379607116274968,13.617685972866246,10.294475851154488,-4.168364441707281,9.688940521939472,-1.0729576171553823
2.297850349644321,0.3754650691728885,-5.240253420535456,5.476327247245038,1.097874588365109,4.334252179461054,-3.6501518880064903,-3.465443159369229,5.244569803096525,4.704014530377313,6.60439863316202,-3.9571465700474935,5.911833951504832,-3.1118440843779043
1.426618700458178,0.3499284772353468,-4.891298317048772,2.9665465143609424,2.5385146538651067,5.270177356245247,-2.43788370728106,-4.565136926159157,4.784081389009771,0.0912552565450235,2.1874275885626986,-3.9253279565369463,-0.0907329873197113,-3.4508567820618614
-2.1242720744645283,-0.1387178839115102,-8.848661099415484,-3.295284174914485,3.040436535828753,3.2418448061754974,-2.515720438041029,-3.80945255410142,4.062181395478021,1.2133935942651413,-0.9116285366263526,-6.536116551180284,-6.196669717493862,-2.042438199556133
-7.311085499020457,-1.26704972944443,-13.635629412602617,-10.257237488003014,0.7590212469430315,-0.1339224142154729,-3.420650351811112,-2.137091640249299,3.4999636184805283,-2.8051165566197107,-1.8392295815329192,-9.638187484984256,-10.509770794870256,-1.1348230763783065
-11.863869331722247,0.1897533480392631,-17.675611126631903,-14.3217934961417,-2.1882271600756957,-3.7098402179263785,-4.078618533459533,1.0409528153432874,3.447464054756722,-10.216119040994894,-1.7173329019143893,-11.60064759980389,-12.396578845920333,-0.6693258379172197
-13.89047725140643,2.825806798268458,-20.072038064502863,-13.863574118659798,-3.2594007359338004,-4.925158650792326,-3.875418340512745,1.874803473414619,3.6535620725962583,-13.38058023095838,-2.5939570269979413,-12.369596607645292,-12.539810278211329,-0.5603042234408382
-13.215815891929084,3.147186383950493,-17.912163876249267,-10.396594244529588,-2.3661745956776348,-3.01544529598492,-3.1102249609821406,0.0306241885533513,3.232739590521497,-13.502359703575912,-5.6291698069479885,-11.711362617384871,-12.269334814311726,-0.5667701622356612
-11.367776140229129,2.8950551192904403,-14.999035707425737,-7.460767359114556,0.2204503872816269,-0.3421335056425815,-2.5566092482692326,-0.8695651000672262,1.3256617075930457,-11.637380654485444,-10.201349480775503,-10.404602158842003,-12.779925337390363,0.9078778343269192
-10.256606669029107,0.3845753100777173,-12.523708698887006,-7.986613874973546,2.525371561797044,2.770449035864321,-2.718867853083541,-1.6970448942584304,-2.0727985914178184,-6.35596881499165,-14.592378874818229,-9.3159304623115,-14.55817789849019,3.621494151635834
-10.70463886196364,-3.877140889457487,-9.928601508668754,-12.062011987827738,2.915195863758875,4.385037474258892,-3.510922537229709,-2.269462394829984,-5.933724362110152,-4.4060496223473935,-17.4090658202065,-8.835236352866621,-17.05395611592582,4.531035424528963
-12.051262015176023,-5.934204880127466,-9.542117569086644,-16.79102886069215,1.2940011778211995,3.153878402247745,-4.507559922925426,-2.0634948888468467,-8.932079482516363,-6.018619409138683,-18.39307002931794,-8.691435082510178,-18.74777474104735,2.122975751782045
-13.040191289348815,-6.800640900740907,-8.575449766634732,-18.4128250810706,-1.7581959068038744,0.899972913226058,-5.343506503935937,-3.328734081165217,-10.457472686183705,-5.718661920125101,-18.062334219114504,-7.055043860007774,-17.888128761619594,-2.008836361508868
-13.048987624617876,-7.433243811240565,-6.073977740226636,-15.106613478214374,-4.533855910543595,-2.1440390083820056,-5.840779267564471,-5.987151682379208,-10.915466401218628,-4.902987091468077,-16.78765835411389,-4.304662134047845,-13.762475556078853,-7.9832452381889905
-12.488357765103572,-5.237783196987552,-4.440163639841536,-8.303245818390682,-5.07106325057851,-4.2064189435332,-5.899874445098305,-7.497401176606406,-11.023828207279005,-6.193732409899164,-14.335783970483284,-2.2112943443639463,-7.629497241265785,-10.419468526603008
-12.04835806590282,-1.5962392042414375,-1.457764682534823,-1.4564034759927011,-3.0832416759852617,-3.116188847112765,-5.476924121911072,-8.16086310822247,-10.882627064538948,-9.13103990150419,-10.349784129470605,0.3773011082846321,-2.294831388193728,-6.290040312930079
-11.582740769044811,0.0445580674307697,1.5340940224415722,2.6975058095169797,0.2716836067547112,-0.4731580003582745,-4.752681317746102,-6.901283187822562,-9.900980290374058,-12.282691894468575,-5.278791994199608,1.5239447580477004,-0.2674596085834224,-0.98619573949742
-9.792231739697783,3.3670674979368727,3.298630649220084,4.073504739925269,3.4616890367156783,2.69947992748052,-4.20150822449871,-3.0627328812291865,-7.751379721050341,-16.039376245470617,-0.7429820688919975,2.096953853396613,-1.796664831925867,5.877605723623701
-5.158300571736376,5.943068554818629,5.407598137277373,4.769440734177991,4.566550888647621,4.593276645775128,-4.260524963541272,-0.0627800390226416,-5.282808430117164,-14.647537879674358,1.3131883127858686,4.824571022474607,-4.482928017796539,9.703963025134197
2.575935665954333,6.008640350941426,5.051776689860051,6.769051722428387,3.563245592155204,2.995578933861438,-4.765558277184134,2.409176863254366,-4.145383305122991,-7.3145492212160175,0.2523859371901906,7.027622341173177,-4.980265314650616,7.158065562879507
11.655033096548207,10.161793242870912,5.54838867153798,10.024555157382174,2.5388070025858323,-0.5669767821003557,-4.734769963426871,3.725256842883773,-5.155735682960689,-0.8260455608333052,-2.2134525583762112,10.619813715845286,-1.5181101587518313,5.650285609550076
19.022432341920243,13.728216214040833,7.485123673702524,12.62925799006139,2.6510801195628844,-4.103248656481634,-2.8912142699254986,3.068717827692419,-6.958666688174411,6.168834364978886,-2.8174240752787654,14.75276886975926,4.775877194963151,4.60248545248575
22.01349182195662,11.52974726183188,7.713623500589245,12.660916854095667,2.7052109807018945,-5.332342900179054,1.361482212288088,3.490399610769805,-6.622554913885644,10.727983039130564,0.8109845443362218,14.875551531130055,10.751857585983792,2.4701872807892693
19.758079807991308,5.615552751471165,8.633578478694814,9.698861274222123,1.6825176833360458,-3.053764366991361,7.281438613646912,4.676533984071275,-2.0829780868878918,11.450498317503854,7.880396267420323,13.551321431281483,13.483677646893732,0.9861912044187854
