AF3,F7,F3,FC5,T7,P7,O1,O2,P8,T8,FC6,F4,F8,AF4
3.2535813495758585,-11.06998291618813,6.799537774977422,-6.101928883112244,-0.6647010258632449,-6.0392576741091295,2.826347349490241,1.164611776611569,6.0098028252853375,11.312938524941538,1.4320769284297334,7.872293695057001,25.218054663326026,9.92146177573864
-0.3493558239556599,-12.248696589043412,5.021989646604592,-7.223112179489085,-3.245945568319769,-5.920676902325891,1.987810498410047,-0.6468011558360942,4.765788313300305,6.347402723315472,0.6069749385715504,6.731820784001548,18.72172154555306,3.191924564944869
-6.565407211039137,-20.177859175222075,1.981942675098416,-7.144446659855117,-5.523969783312637,-6.048301030519366,-0.4437567607852348,-1.79754017481374,1.4198048392787292,-3.783989363678927,-0.700669016310794,5.718327169248848,5.99647223407214,-7.707147463116888
-10.530772245421282,-22.201261997972157,0.7960391069444367,-5.545909306091755,-5.582527914481645,-5.190669312184849,-0.9262678653965388,-1.0913814953037324,-1.240663548249351,-6.651469680155536,-1.6202559749494512,4.972868657357701,0.7501862985174392,-14.075717981562336
-8.768593244588015,-20.339847425472566,1.6598213690977686,-2.690482780274589,-3.191172946655243,-2.818461515330088,0.8252310506254219,0.8656454794597508,-0.9354388684210058,-1.8463469941706512,-1.6758138075968496,5.077365036505251,3.151111911832446,-8.786997349001627
-6.0346680219796855,-14.31112993027953,3.460277835737117,0.3354422485124395,-0.0575591970767668,0.4260719400203026,2.908680073972375,2.582534924806062,2.244427581231953,4.987849621030978,-1.1261735968202655,4.367688525613553,5.461704225168492,-1.237960300955689
-3.252235558052977,-1.6609229410654271,7.048819533105371,2.0977504100205024,1.5095706296197164,2.886699528128805,6.236171344651995,3.19282686488992,5.872645279879343,16.886597460822117,-0.6210366088429602,3.0138524726841256,10.737527700978772,5.575899290581459
-1.4720300024800674,1.803610348689148,8.067001664935422,1.8591897384341567,0.4928426869254636,3.963765784784588,7.433383825534136,3.104481691374655,7.167495865211844,19.36976877245643,-0.4651582464598363,2.024334358717798,11.159647319612915,8.592042347943988
-4.075827131147393,-4.158541170394513,6.248323977845791,0.3191287647221976,-1.947446181573902,4.459192375348965,6.152322140110655,3.395544829965104,5.359492637514677,11.112596503902411,-0.1634693780403111,1.1594912082132611,5.501474021894281,3.957941066380988
-4.350105573498031,-8.186089188652105,4.385464437448626,-0.7626070319574225,-3.382090568609893,5.863379629780836,5.018540991779695,4.740396262385094,2.47310308562621,4.406323547428943,1.2623673627969223,0.8827395941795197,4.071796131847433,0.608127444112869
-1.706410216807499,-13.571794112581165,1.4294787213858131,0.0691180974862391,-2.1242884086070437,8.832185348613121,3.19848421105451,6.849556370877771,1.750889495636731,-4.164905339111243,4.323331792245046,1.3960393825458923,5.177652451197567,2.242903341390923
-0.5995077298267002,-12.417329433432029,1.1876861460753674,2.7194052443211127,1.3072393418846424,11.874376948419863,3.250511160859753,8.728187172657723,4.90859214460562,-5.975265824441363,8.226662925977017,1.5507215789330289,4.586178894550704,4.6158107347540325
1.3236838615215067,-2.6092487602633723,4.225476851513419,5.556804049907566,4.521675352253656,13.379352085713112,5.683631437362786,9.384886538132433,10.518573664212925,1.3045842015138875,10.978306914249297,1.4628102042532918,3.733747894523237,5.418152847148845
1.3882214840347398,2.743302485713302,6.230389894437108,6.760704317309692,5.173208643477338,13.004188346152814,6.856342163796421,8.477960001248992,14.994902122739646,3.869342722820877,10.613783252811269,0.730017869791835,-0.4296035254993435,2.111136640680038
-0.6745716031393107,5.562221535487351,8.101595830262104,5.850229878511971,2.9250198347725664,11.26122730777204,7.364001475518883,6.574843378318072,15.439105073267964,3.890955033468423,6.769853884480604,-0.9360730612499766,-8.664793367597998,-7.498593640945676
-0.812252592375718,6.339657559982072,7.184855245277139,4.025779852037875,-0.1690219718552974,9.957675428929198,7.534142324672826,4.863937113210312,11.917318431113994,0.7287885936485844,1.303963881298312,-2.100369434470288,-12.545435006618604,-14.351540635747252
-0.5118023398647715,2.6394065899008807,2.535137328236032,3.0132124597962147,-1.2535681246791732,10.263015393135156,6.741146116568082,4.353200803386915,7.190437962773743,-8.212853419217957,-2.772236517794205,-2.8872482795771286,-12.428324005657888,-11.30081918364429
0.6718340837433632,2.938668341712684,-0.6224610592651608,3.4823786347018637,0.9762645162675518,11.884504491831,7.564347227995797,4.982403019891272,4.200792256422087,-14.199683706884066,-3.4209710688873898,-2.54423487516242,-12.771487663379371,-3.505798422156356
2.4077058954112696,6.9471372917099385,-2.992872308200404,4.521020329687861,5.057714680580464,13.197748419844066,10.0317661036582,5.405878117775131,3.637609004404752,-17.8930191579127,-1.1148310710572318,-0.6751979312912243,-11.90670656535684,8.517162233620265
2.7473632350750803,9.089138824745548,-4.34832948011066,4.677169253248797,7.763526689411343,13.665925162664854,10.798679595974454,3.9055323216864295,3.761321358723773,-18.118764821837992,1.5506752034057314,0.1803805658098224,-11.786451029727784,15.554267186767628
2.892911927968977,10.892974436781852,-3.644036011284968,3.609105509749318,6.660118982863288,14.067739927140394,10.232123423002104,-0.0711768146438487,2.5079690008971127,-12.800618499242203,1.9491444300540728,0.1925596668766726,-12.92819007443131,9.718152595680166
2.442739253119561,10.678856621195653,-4.52884776925241,2.765930845047881,2.221991350897913,11.66403448482632,8.890675554343138,-5.040215326221636,-0.2178518024741063,-7.289923786876651,-0.459595671979903,-1.4040208483659042,-11.303535742050528,0.8201169979632885
2.06343899096201,7.5668795401235505,-6.750949683036146,4.337504166064786,-2.283495945886345,9.094203721615926,6.103470438977851,-8.233509646090809,-2.257173792648757,-0.6541293971845038,-3.712879293207269,-5.285850877655827,-7.264359080415138,-8.807388394168509
2.9627101750406237,8.025186365637115,-6.224894548831583,9.256837436308308,-3.20276559719383,9.21768084090034,4.438011798750511,-7.56324040140009,-1.1817682816195845,4.009062381771497,-4.92750106891892,-6.189968252875676,-4.874952442498935,-13.390105558405924
4.048294791454394,11.81643950059707,-3.3628451946502214,15.94863757688627,0.6436148206126528,8.983019318872078,3.949656171716071,-3.2191533220910715,3.302598872315853,5.505863500043151,-2.545227894759403,-4.167513960957233,-3.647235496155071,-7.194569797558755
5.457491175986887,15.066700177860058,0.5540254256884328,20.99475638557888,6.955577309171373,12.937872203749864,2.64784515409917,2.4594452763875374,8.762839855063541,7.268926838638205,2.544738615125567,0.2969302209668527,-3.1253396508023257,0.2619736450690512
6.70604544551294,19.01721793805244,6.317287564405752,21.3437838299031,11.653253910795067,18.23537623216706,1.0491886800517456,6.719229911904911,11.838746485327414,8.143986399445522,7.768783177166178,8.570699583678206,-4.141150375240441,6.668308591529725
7.104156082464024,19.400999048744776,7.356500993087657,16.420061063858633,11.920423090550074,17.853769501012174,-1.22196627435156,8.250338236768087,10.873146848083488,6.697960395846439,10.751666217808598,10.610472184855176,-5.516250785670874,9.23384794681854
7.601349737668642,15.38829158870699,3.0681889698120486,8.534638466033487,8.154850379178344,15.520382663437442,-4.465920437076357,7.668998849946654,7.078683974463821,3.033776582607329,10.784599147874982,6.0239186106409,-7.453366183947287,4.251878089928934
8.042159591467556,12.56800150043584,-0.9173925351492468,1.318992743110023,3.36670872532362,9.974907996716174,-7.77618162563473,6.427168517143056,3.2658926047877666,-0.1771459148776829,8.854490741327151,-0.5284573865909897,-10.07447714050168,-1.4642930633490474
8.428680716312472,9.901369526236085,-6.173038722146115,-2.592778727551184,0.7073472907303717,3.2326771116880755,-11.312409670877765,5.303923396860618,1.343485578357722,-3.056544059466637,6.453812065524369,-11.54732049176959,-13.215203650179197,-6.82298291907084
9.079853242696512,11.473532787100002,-6.939688882716696,-2.924961021367253,1.2322713567246866,0.9406341300513072,-12.621513903226186,3.844159973404877,0.8685242194644398,-4.619729408628632,4.321819949443821,-14.703422913516343,-16.457503169517764,-8.7897548362867
9.626214705231614,18.64337716356089,-1.9687189042771516,-1.33012081479192,3.579153269782948,0.0036403561811421,-11.301382701676818,1.10764351714055,-0.1120534563545492,-4.080080409163322,2.1628127850903183,-8.8635870041083,-19.708164273648563,-3.4602329593341663
10.986809728771847,26.10989534196422,2.732611782562641,0.2309716377710851,5.507238311513481,-1.5445848772585644,-9.7358813875833,-3.1117114735023383,-2.877961527671958,-6.345742506252062,-0.5888188469899656,-3.0871093979736544,-22.52321919557948,3.9329000487094734
13.675483970977425,35.20152393603181,8.802522260847956,0.8843494883209031,5.791727885059183,-4.879535764166875,-7.25972211971032,-7.766045744474345,-6.705518918500309,-11.202445159719211,-3.850907665323488,5.686037619810767,-24.678887270040367,13.398058470914137
16.159082587496936,38.73356910732701,11.414955638350404,1.00567215094483,4.9294991626241655,-9.72234473200809,-5.858861889394758,-11.179575362844666,-9.670947180964056,-13.819588971582723,-6.788680592528605,7.985993232610056,-26.206516968796816,17.8785159934953
16.759989464576442,35.29847910757869,9.37847527829392,1.3075350383155322,4.313698588593759,-13.507342297518695,-6.00902091486471,-12.239501588896516,-10.689478983580477,-14.91945332184182,-8.620162631961026,2.092105955127313,-26.852780322360548,11.06135417667596
14.700785394114082,29.96949496971416,7.623572820990939,1.8841540731623283,4.8179474101379824,-15.944986692640692,-4.415691620031858,-11.152619271142138,-10.6560466945378,-15.07137230759258,-9.471667396647447,-2.1942915267171266,-31.591642749519178,0.8182460818551809
9.501816388913095,20.51014977358548,4.698748520903332,2.1199385585137955,6.0658831910322615,-16.329288641999028,-1.5380095793473785,-9.218566748983523,-11.501157702112932,-13.379911163628677,-10.345550139322208,-7.363441739526495,-40.78910730125957,-13.290440000833506
3.817203339981023,15.630996328517943,2.6035498641535915,1.455810589127199,6.909145200114321,-16.044082682859813,-0.4416159412734904,-7.885405228055836,-14.1204298256874,-13.30408801308046,-12.154976973924091,-8.82889360160126,-41.82380681446584,-21.63427397441493
2.4290971288825203,16.31258498492224,2.0453126190246245,0.1705423836505186,6.531213004157674,-16.9606875265469,-0.8009200017192784,-7.832845743581627,-17.284625850598033,-14.882305936859028,-14.739337361178686,-4.866393000834638,-34.99006408743131,-15.524418119488056
5.3156242194065575,18.8434399785084,0.5937749437397666,-0.6739901378416793,5.084839678444463,-18.313152677473777,-1.807011099839116,-8.684648004260708,-18.653663709262084,-14.093081698556729,-16.82892254274926,-2.764213641805658,-20.697401262698342,-6.993645145107026
10.57266723786957,25.74325698272651,-1.1032219941397636,-0.1664055707516656,3.278014859578044,-19.509750598509964,-4.072686145033618,-9.44059868492838,-16.94557060703141,-11.474259488991674,-17.027261102099455,-1.1161214177679477,4.37059584066772,3.7504297170138567
14.395967676966828,25.327295206634997,-2.087346579920855,1.4773730543297807,1.395210813977295,-19.77495077853485,-4.276515822766097,-9.250938059138289,-13.215090221608987,-7.865489295104099,-14.937094349791511,-0.0564750288814925,16.678443101619433,11.296579215818044
10.36019610742622,16.833055077001266,-2.540194251424724,2.866543040980208,-1.1200275712603416,-18.17490636777384,-2.184051668519292,-7.984272538307496,-10.065411675756696,-2.532741491112449,-11.457640224349706,-0.7638434088681061,15.566552282797264,7.541587260310273
0.4158830215829394,5.659598696442574,-3.564508292042525,2.515009577053828,-4.884601618795296,-16.175333360770324,-1.6439907886981526,-6.198045215995485,-9.508245349113364,-1.0778562710450572,-8.048692849096366,-0.2069066239511453,13.290029496282443,2.67947796769701
-9.735863023679713,-11.236633715105494,-5.078527167785937,0.2000308858022776,-9.247942371218397,-14.634526089690825,-2.014517398369496,-4.5315104447263455,-11.326607708253574,-3.919258462893511,-5.618364797036006,1.2811445197850753,4.279436960720821,-0.6668994842343632
-15.340748240865477,-20.52198265584329,-6.140304683010609,-2.621626758155026,-11.91799047714458,-13.029339752725372,-1.6095626698233294,-3.007548114767334,-13.262453849703048,-3.679095322859137,-3.9194846160089383,1.97941270766304,4.306319395567842,-2.718807830652684
-12.236877717097768,-21.07920422268903,-6.924186146999886,-3.859592592444056,-10.421175960519474,-11.462671157301866,-0.9592093541376416,-0.9058576577985972,-12.781206834137985,-1.3754646265408177,-1.8658331624835127,2.3175183711980343,15.227732804221876,0.3684731221607082
-5.931269800582164,-23.914040365467315,-6.454496582001609,-2.56581556681278,-4.498878235166471,-7.085480209062134,2.3237204296371163,2.5267174908805723,-8.954154711423776,7.548500834459738,1.5232767670196772,3.115775557707816,24.535689566523825,4.710025695261919
-3.453346770324361,-25.918900680257824,-4.462044472807057,0.02586026969115,2.760627197604764,-0.0411040394018629,8.685481639149442,7.034351563136865,-3.059638992893019,25.0331685995283,6.253835942833702,4.20520343416391,36.17330109273485,5.361958458441611
-5.969607219823663,-27.859996557220096,-3.337303191136678,1.1866985353766104,6.575862072377172,4.736830774993373,10.499667605246662,10.969014815586888,2.3886227369631827,31.103641604494765,11.181627832961254,4.533595601441441,40.22394628944764,3.11285372515494
-12.161847300375513,-31.08214248192746,-2.906912270968925,-1.2801146806199937,4.038809847650428,6.577088394915588,7.881576453180115,12.153654789312764,5.3075379288869335,26.042971137466164,14.665890357106829,4.146325357511424,34.4897684141268,-0.6719995433708679
-17.969986645429742,-28.80547264637346,-2.111158589090769,-7.211734100756398,-3.2945880390723943,6.251873379889841,3.2079137049064386,9.49823114254344,5.183600496961153,17.507119904896907,15.612590016785584,2.3473904917270083,29.06079220660845,-4.074984032962286
-18.443650130666896,-21.171270669139776,-1.4007988690954234,-13.935185383077703,-10.242128422431092,4.225998039016955,-5.331399354239018,4.066396341364456,3.0569034937740174,0.9271565656097056,14.176114980304876,-1.2121364117701727,21.11952524022095,-3.56351448782391
-14.57518982900175,-19.010630612694385,-1.0018696567246963,-17.99199704485522,-11.888155921013116,4.015248078333742,-8.554266850870528,-1.4108534719773846,0.6184502570396004,-3.4126457491572326,11.6052370097354,-3.029006970095243,17.995363825007427,-0.3096327211360752
-11.927865753318972,-21.67750476792728,-0.8892450238358136,-17.46316071118813,-7.389524353153161,6.667337718527582,-5.875380396029145,-4.338298219797215,-0.8432723089411827,6.132111577520225,9.334563045669745,-3.134936744918397,21.56735069446892,1.4843097785399697
-9.72390291434632,-25.6818309567422,-2.05519023637017,-13.154089192065182,-0.4664828926657103,9.189847166120332,-4.025836698076493,-4.031084347062073,-1.0676734086762618,11.807443804456188,7.986579979713095,-2.9511669502984645,22.00282341685698,-0.3887607172853983
-8.767357814247609,-33.34308060952051,-4.671701809532783,-7.812304950125553,3.805987920494058,10.391861424430154,-0.8701809291938511,-2.1066198772649747,-0.8329243076573327,18.20810473780821,7.028496167512705,-1.674641202014697,21.289387853003845,-5.337847876357206
-10.28809206072833,-34.36206795656255,-6.921248864864484,-4.089372646539328,3.0623254707894443,10.258354220644806,-0.8641248045210852,-1.2197027493475936,-1.4099271251299663,18.258691133576164,5.343305157600836,-1.732026666765036,18.90709743063077,-8.69758917360822
-9.14114541794677,-27.99205114531571,-8.992253764801585,-2.8561729362675674,-0.9118244840754706,8.366080842786301,-5.111114204487032,-3.1096485134034832,-3.643966480870613,8.942930595162784,2.287518378061324,-3.31554596205298,13.26208976625798,-6.237815892141549
-6.989289454355477,-21.72600790975075,-10.147938506370636,-3.064745675738471,-4.331993154688544,6.323081671811978,-7.407973861227685,-7.373904038675851,-7.101028341197859,3.432676746651974,-1.580058987465485,-5.06031556116229,9.024228296018356,0.1641304742573111
-6.02672923755634,-13.124659530002395,-9.917595445375554,-3.0358186798943585,-4.901304365056412,5.562319821992091,-8.898178364404641,-11.789790878166832,-9.960162337813578,-0.4115088886056816,-4.715216219978114,-7.579787677810098,5.710619357810204,7.748537028199935
-4.723604380350396,-8.422436475957706,-9.62484766307183,-1.9666509200395763,-3.4357713565755184,5.1722005702313965,-8.996966619768639,-13.890763462251204,-10.077326340392906,-3.1656908827078434,-5.681067136604046,-8.44486047771737,3.704320869485042,10.988572573099212
-4.748477900522356,-8.939051058538029,-8.939305307705263,-0.4420341336243618,-2.48185189087145,4.081762600316522,-6.605617037836434,-12.659317640957743,-6.722674362129999,-2.550299418278826,-4.326793548403765,-7.381046006798999,4.00702971912663,6.915396195999958
-5.149459384766154,-7.320725568608046,-8.801384553025509,0.309150853874176,-3.642746112257748,1.5467522638388824,-5.210837211456283,-9.156185233510213,-1.6231563843570769,-4.324568903346714,-2.084419484983215,-5.780835655749467,3.959155910080958,1.452341945773162
-4.19843065128046,-5.201218719404454,-9.469386917819216,-0.3750569129123864,-6.255664142538238,-2.9440938264132552,-4.433318758340795,-5.67562824863407,1.8424760279966208,-8.041328174167942,-1.0269378307831465,-2.977294987341439,3.9435694377073234,-3.240670395634326
-2.798891165302589,-4.18863808737163,-8.21636419708489,-1.9754322705199376,-8.399827291110894,-6.448415446958034,-3.014344977818342,-4.082824599394677,0.9908566093525146,-9.71241920604046,-2.3554033488256048,-1.4099025650749375,2.760423270765212,-5.169946250361993
-1.417617492424895,-3.376535909838072,-5.157755618242149,-3.2186852559228187,-8.871304407164637,-6.847553189603096,-1.5363233051396086,-4.5890244041076445,-4.070740452355048,-10.18425928568165,-5.544900373747462,-1.3276780518905176,-0.1959842610856512,-2.8653399921343747
-0.6601204629726116,-4.394258121442705,-1.887685975070756,-3.092388159552036,-8.061242495459137,-5.906515498753679,0.6509239069967274,-5.854690947742919,-10.40253141998471,-7.418672823992753,-8.868001834037518,-0.9074895496173896,-1.961200672161081,-1.126929360961996
-0.4877738677789267,-7.419144519231501,2.1175894127217223,-1.5784697421216622,-7.078026235895536,-3.956737101608868,3.6529688545854335,-6.227002451078183,-14.363648775203076,-0.5484198503921315,-10.789486256335085,-0.7578725500857244,-2.8947696281787625,-1.3430451060962194
-0.2029651241640795,-7.009380391044064,3.479376174462404,0.4308436250419021,-6.3085135386635205,-2.5670996336926826,4.888897219681818,-5.003309749456544,-14.152212397170086,3.1278613016574828,-10.939013578112776,0.1557883713848275,-3.523341122892064,-1.1661478588899208
-0.0334234098917547,-3.1216928615968373,1.69577159789613,1.8611625761343649,-5.033137094856492,-2.936569484027689,4.30900007144635,-2.680469515732814,-10.677790293460331,3.886779342815881,-9.84136774673068,2.093282668449567,-3.301819091237393,-0.2867237923880598
0.8202004599783103,-0.2469359668141854,1.6682995661690947,2.190212407365009,-2.44731019533915,-3.3059237081153934,4.469917897445858,-0.1355907244160574,-6.254144205829754,1.3913311101136956,-7.88550745290622,4.146826437390797,-3.168691360664277,1.2096908707787717
1.5744592875345642,2.696872567799805,2.6908025997590963,1.6589959521706823,1.0642021206010783,-2.1277514806570834,4.886761071305998,2.336496869406206,-2.537338359438817,-6.244505892169895,-4.792350174961982,6.6336071502496985,-3.0740599784792084,5.275967952676448
1.3988995610932844,4.209368930847064,3.045595877634232,0.922738023663766,3.787489039510479,-0.3611721407955753,5.079367566714528,5.161594582295017,0.3777544716733341,-9.061377904146685,-0.2388160435196371,7.481200492032539,-3.257533290259905,7.164251249705103
1.6331382603021507,3.4944572846608337,3.5060745476701385,0.5204797462864144,3.902471586125216,0.4468792157741075,5.437218028386509,8.728965382661267,3.12252387604991,-7.191699372274379,5.065552431961852,6.414294449144411,-3.953708413384775,3.887970973652915
1.2269229091657043,4.091266894882483,1.4728333853708253,0.5759936224384756,0.979372966205804,1.5376654872299935,4.0306295737456175,12.596139845145554,5.672575093397668,-3.3000592804727207,9.200657571393757,4.823417208475883,-5.298108996144663,0.8759920237055426
0.582783353441045,5.538611880477831,-3.395293813375208,0.8594222794558279,-3.563907230109584,1.0720244667829706,0.7260072635891168,15.554001918765318,7.073159988530345,4.972938294862338,10.273716382768484,2.1274660827949123,-7.503454405045347,-4.877008462113734
0.753434175017742,6.073118599445591,-4.438863111881956,1.054246051077869,-7.39184682971898,-0.9194053312998118,-0.285404145460312,16.57982755563634,6.658368469452299,7.135693684227552,8.085470011518769,1.5693451512113703,-8.055415000082293,-8.969444946894733
0.5068280021847853,6.207189396104363,-1.8611553076509717,1.0040334514459477,-8.759658587573629,-0.8167384885460138,0.8277985700158127,15.79494343753611,5.447930975799659,2.699796602691185,4.622184032772105,3.5291354884509194,-6.865345746255366,-5.679045446257301
0.1333059056700478,6.261913273430238,1.4403443788977908,0.8152776785508684,-7.452885383797517,0.1785244040402863,2.344876802772517,14.4823345033735,6.005181083714624,1.306891023639524,2.730969792056756,5.5000748726535855,-4.527034966673907,-2.8072303716989984
-0.4065814181701626,6.046324281145202,6.905303998685072,0.7994003015148676,-4.626594642159368,2.0195920756162025,5.163041634928876,14.068825927883646,10.441413911222186,0.8340177770916276,3.986035455442562,8.32457864099175,-0.3549686602259324,2.225398542131714
-1.0843847812271794,6.622786338371533,8.627347998307124,1.284236923668411,-1.872772826071868,4.959751431567062,5.954296636798063,14.927982220622626,18.18458362705277,3.0245419560405487,7.520927802525337,9.003648042320489,1.339409343037706,6.733440097862608
-1.0678668682614147,8.105447583514128,5.996836802505602,2.373020703205197,-0.2369807738482303,6.102520578909485,4.396967477732735,16.03697217236956,25.686936795336543,9.531401351004565,10.778538301749649,7.022795693928124,0.3406672174335241,4.550125142959063
-0.6546781916720974,8.336169337779616,3.797393948096458,3.8033328466437433,0.2788636301581826,4.6096175093520975,3.5134644133082467,15.77762209028628,28.715310455541687,9.127437502937944,11.49970347667932,4.67022828138548,-0.7934021131386736,2.5598778280971857
0.2837436222585623,7.447372378924213,0.5818032844134365,5.052841191971359,0.5717506803795884,2.764480801261044,2.538412395094419,13.199887641593934,25.52740238340833,1.991515279520288,9.292817734295376,1.084871148892127,-3.101230471317146,-0.0391225076537115
1.4838630711409198,7.588579502238575,0.0562389993707804,5.666129307719981,1.7726832375045136,2.4874233149457945,1.72053692064746,8.723301919202113,18.2629481663276,-1.8131708695482436,5.606206415120261,-0.486122686280363,-4.447832503497788,-3.0687100806519747
2.2379105897343323,8.45595303079756,3.091677198358366,5.556294367008899,4.384787950071605,4.165380602871682,1.4826216714596867,3.790454582449857,11.299700921754017,-4.224614837662322,2.3456442352662026,0.4190960330943612,-4.497549667172877,-2.6719379966717622
2.8266236076664226,10.347065572364146,5.808967881011241,5.021201348319532,7.737397742298185,9.392250239819017,0.4210852763611831,-0.1310937241507899,7.941804041646887,-3.382471986214908,0.4614917232500986,1.327570500934245,-5.117870454364462,-2.631344379389847
3.5123184766808424,13.728796669657369,9.279453129961704,4.4746550444337,10.249760508837657,14.964438376525605,-1.3327987696895067,-2.3612073135232503,8.240766964167534,2.632767031116362,-0.3314332612141122,3.12014487674234,-5.7579830047067535,-3.4861685234334976
4.0998592314077,14.188981584146171,11.381911695970146,4.173510977782325,10.517999288675496,15.970183367813728,-1.2434510107860763,-3.106314631464372,9.66744086859378,4.151600269353796,-0.6968396192372843,3.4477628301220165,-5.3335751367253295,-2.6677940308503114
4.803544923979855,11.609309057243872,11.46007494167988,4.191339497725179,8.499636910718142,14.151770045952611,0.6504021721163911,-2.985515947133,9.777873080890089,1.7066077693444408,-0.7237359149977141,1.8980054646818785,-3.92772069879073,-1.184266380910911
6.338508027331354,9.076282218820108,12.373174114506815,4.573463106337808,5.759919399916825,9.73244330579258,2.7162797836775394,-2.5076880640884576,8.355622163745819,2.9854377272709938,0.1143070938699285,1.238529684423587,-3.459866263790262,0.1430935501934451
7.815550372414213,5.6229481003953765,13.495002346984048,5.387044147804425,4.385515140224151,5.192587109530713,5.481926807685507,-1.8680693970070676,7.232254091879685,6.456864877484873,2.106951577266323,0.9000539821633539,-3.845220817069152,2.639636653561654
8.633342883956914,4.228069880396482,14.18799661976254,6.548761236645968,5.361178058040657,4.299293439543968,7.310417817085956,-1.0358009982625451,8.254159384703039,8.502222378254313,4.5622448386056895,1.3645319593109326,-3.752592019270055,3.3511338407675737
9.485349409453155,5.507819402532904,14.801884321808185,7.674981500397864,7.826247310714992,3.840563316681141,7.874175323187242,0.0850341203816906,11.46471227270171,10.058421252521867,6.089808033821438,3.1148998722408843,-3.539277238508203,1.5408444979571847
9.511279979806895,6.194655546418476,14.545009967064823,8.275203331618393,9.938099865684489,2.971182807823265,9.66422658727501,1.5338697775766628,15.103324538426188,5.506137453817414,5.755556438500342,3.6745638079433567,-0.5958762484460294,1.5616687949907029
9.796004164516114,7.095433035044156,13.327556230498534,8.220551857538174,10.585444917930982,0.1815539940695454,12.314881841404906,3.18019109618478,17.165181235474215,-6.285007682001121,3.977751363157189,3.173153199715051,5.52003518544455,1.2544243949420435
10.785151185292946,8.397572917851127,11.401473834678724,7.98590509493737,10.333284511800295,-4.287217479088499,12.692814335470734,4.631717431063826,16.913881150936838,-10.392944986943087,2.202554199325818,2.5523145148840385,7.269396831953058,0.5128065345430692
10.554953823097188,9.691571944464886,8.535312401386339,8.25675667799349,10.659863659237724,-6.404401070058932,10.951192198352128,5.306100220029621,15.061995156955607,-7.460861353860792,1.5910041298223758,1.309852194211899,4.8446465597872646,0.6402594153282193
10.111218071936907,10.087015202529164,4.5265008250984256,9.134695522619946,12.202819166555251,-7.790600733743212,8.249432207716946,4.753764744019892,12.769525390085604,-3.253743691841109,1.969221430301399,0.8837668861683442,0.5448542804465547,-1.9375943756992364
8.3092344949302,9.348428881216924,-0.7112157305319716,9.723867191687384,13.768872781728682,-7.76189553376888,3.8977740580523705,3.0546824282427423,10.631346566618534,5.40533477661229,2.0736976774020235,1.405971949093599,-7.379709502873531,-4.9802031425205255
4.605849345920387,8.173709135587995,-3.500990055424439,8.674739948083904,13.216131366015391,-6.48039783692496,1.2282933396796336,0.9204470253093064,8.553122950589115,8.062723112157672,0.8573821835841109,0.3641919384981415,-9.701808419402632,-4.204435225762353
2.0892447475040554,6.231584762129171,-3.58106840910836,5.377889224999631,9.527068828230789,-7.147534715139862,0.5231076254354887,-0.7089692155442329,6.34351066961729,3.8062947929221296,-1.43614137183634,-2.0443341499441443,-5.815315184342445,-0.1336040007369435
-0.0645884302013468,6.254681077241818,-2.438659099640322,0.7647182060886384,4.139656722488331,-8.614410159586503,-0.701307354872703,-1.3536775089709032,4.165836114086454,4.047759219209128,-3.503125286598538,-4.116699105629083,-3.6023221632734543,5.802931110254203
-1.9734111359306492,8.520428740304228,0.950697694143586,-3.126220283553792,0.1430861969368047,-9.876674071729092,-1.6359808202204165,-1.4413063445725296,2.313993520643555,6.652953395211612,-4.301010220060093,-6.264344983341994,-1.018525911413271,12.676666526964691
-2.175602919251115,7.781806275772134,0.9657575212152286,-4.6047989964091895,-0.1490884438150208,-10.748041140465803,-2.9454955908691933,-2.1098035603687118,0.6353526588101799,3.974439249234918,-4.163926775251035,-7.309762905955371,-3.9249421063732415,13.348803556251095
-3.775274768924343,4.408864086417711,-2.7932708261383103,-3.625123670683583,2.809662674411167,-10.18153369606569,-4.921111296449286,-4.439421940427799,-1.6326736190239377,-2.8304155521863064,-4.596316712534508,-6.879269686984754,-13.943820895257907,6.620767665373046
-6.686684809575834,1.119433892290293,-7.36262876414778,-1.789507709307836,6.022090196331606,-7.912522800839288,-8.476524433276692,-8.628600693482756,-5.274110068573298,-14.363926514161674,-6.896425722149954,-9.021007660307852,-20.092851841583283,-0.048757465438077
-8.610378948251366,-3.055944952675816,-14.196223616245405,-1.021378281237003,6.2663383733323545,-5.673934432747092,-14.02125732733502,-13.698006077800947,-10.244566070775385,-32.27308452580343,-10.893837575821532,-13.626892187906977,-23.718188832663667,-7.832142739278364
-9.493046187027009,-4.603569955104873,-17.10646810530556,-2.040105025128721,2.571174730628279,-4.438821739640965,-16.208015865126598,-17.958209467364384,-15.409860486069306,-37.52606098669814,-14.990508890610766,-15.661200971909228,-23.959999619999827,-11.631304489987162
-7.639825328944182,-2.9346718309720714,-15.472034331100511,-3.936621347201412,-3.192408142664077,-3.352880752713124,-14.989864165412229,-19.960169412609822,-19.21352988731508,-29.219067000124507,-17.463895188278432,-15.663222961274872,-18.489036245862504,-9.228363326148555
-5.245800957027262,-5.346725801380091,-14.158895943143776,-5.14288803211107,-7.965017527925427,-2.3919243151508303,-10.635001035866903,-19.31585694631169,-20.725407163645784,-23.43946855076345,-17.797316222013148,-13.315960605524896,-18.79253454955584,-11.10596507278692
-4.461818756569552,-11.313251760446462,-11.64335588370012,-4.8381837652181,-9.859419220920882,-0.4712452117221001,-1.6619265929448823,-16.846061439403037,-20.14146983497533,-16.06055445650415,-16.79077733231492,-7.4756815229561635,-24.54498368851661,-14.465692878689788
-4.772032519670681,-13.02186892942912,-9.346420827746943,-3.505591957805345,-9.25522243829549,1.668709833866678,1.8055897678304365,-13.961421755186246,-18.32673912900505,-11.064111637232712,-15.398053976441874,-3.902011523270106,-22.37043228180737,-13.208474305534429
-5.524553768478605,-11.38974486162846,-7.882812540981376,-2.2330197268958862,-7.951533560423295,2.32447665423473,-0.5026921975169505,-11.713028874985094,-15.906732816093356,-10.981111274818945,-13.49202008747536,-2.4713040527349124,-13.82415279909502,-8.191151581886798
-4.897423494037935,-5.624033431290408,-3.938020932836396,-1.565454864658312,-7.41494988874584,3.6639584314158817,-3.203443016328275,-10.1804286407639,-12.810803125007409,-2.644690530988683,-9.85456887197654,0.2289287247044833,1.6421198291783716,2.8714456081886506
-2.4436266346885462,6.05121359054221,2.149688628075653,-1.0823750922975697,-7.732687495344407,4.665003282260244,-8.670627237448238,-8.608740251017474,-8.673274942974817,12.928939431634491,-3.505192003223041,3.0561396681506423,26.96787330554194,18.370121429105456
0.3208398347318323,9.335016130994177,5.402415822996475,-0.0761279525121549,-7.974958398175872,4.466428804554542,-8.983466572323719,-6.14552451561044,-3.636565296111418,18.893481764688698,4.8514303700394965,5.207506216114767,35.54602107323031,23.75764516698548
0.985300337476718,3.948625111287718,6.01707727257632,1.4230390427512791,-7.323477483855385,4.859937342133154,-3.1817535126780614,-2.5920448329217294,1.2677534654171545,16.51532349186611,12.688222125731794,6.912454369496677,26.39671770018249,16.6093019614288
2.407386354574132,-1.2134025133027473,7.123859422738973,2.3681239610855256,-5.814432210012665,3.0497122068028366,1.2726274046454569,1.391543472517858,4.557073813660105,13.24663981052594,17.131976320715566,7.635043328198409,17.853351317644332,9.786773754040556
5.268584371556171,-9.327614728107886,7.744231776393252,1.5055084675706816,-4.161186108736747,0.1484955733326253,6.273691909297963,4.740851743914124,5.213182998971556,5.800658078862903,16.93540529090278,7.173019097916133,3.909831185779229,1.5866930792699336
6.77183715767701,-12.140937695756351,7.596232740491356,-1.449083858328521,-3.065907911117867,-0.2407884997505785,7.496360320862783,6.711308109136947,3.367431933807377,4.5741661502979225,13.379584756045809,6.904602784329768,-0.413471923727265,-3.080662060888244
8.193839517721276,-8.13136544458865,6.980563834838824,-5.353981742146655,-2.7562340634506586,0.0626490089023371,3.525019581525076,7.304538503873911,0.2695143171848018,10.913109640828926,9.396731083050277,6.7164006526066045,8.105798281937659,-0.5893609882453664
8.49245588758933,-5.543544360624397,3.53287471084677,-8.35098036181361,-3.0414604713819986,1.250923341537678,2.079972769224796,7.0927216215676765,-2.444737672624274,10.964487908383903,7.573211766633062,5.972882121880533,9.823756831053371,-3.785284728955936
6.395395523503535,-2.187249143421339,-2.9428698432732983,-9.179951546895348,-3.597315323494773,2.531920086322108,2.0214330986063334,6.620366303031093,-3.7643120659088143,6.837583144990741,8.47724188807392,4.921570705478269,8.496715165976735,-10.280298787316536
4.718791480309569,0.0224060113024656,-5.209836075077065,-8.043497789580263,-4.09332545758884,1.49559280054848,2.035648500384647,5.90604620141761,-3.984386822697133,3.966185697994396,10.45951641829696,4.3419537437718905,6.301268661932341,-11.737097018503706
5.086589169523114,-0.107098749164016,-3.284855918204136,-6.355842253732483,-4.152580050473111,0.1413024082696672,3.439578884037215,4.497949662997298,-4.539728751614763,0.2854822556491115,11.009431178107976,4.271803768164654,0.2372997901408802,-9.347815590883537
3.341960590922629,-1.1464447137378926,-1.9083846232879051,-5.597165216449049,-3.431467756973718,-0.9828345145081232,1.5631345339642193,2.089558009867089,-6.9227237555144825,-1.4312752628003047,8.682005138580049,2.7351259131710477,-4.1515470538844506,-4.429857582387269
-0.1125210119343355,-4.065533232163067,0.444653976757781,-6.175469571258217,-1.93607268369098,-1.7243507197451169,-3.744525228124957,-0.8133040683073358,-11.33366537845856,-0.4537783224729766,4.210954952871077,-0.2197131605338496,-7.221884120485036,2.636011709916521
-1.856237116534642,-5.847031980163609,0.1421376066814878,-7.183284574216938,-0.2686927409197563,-1.1338405744233797,-6.492691849001535,-2.843884155538396,-16.159156088873875,-0.7927008417571088,-0.0328192954660527,-2.5764607238246287,-7.870692292336018,4.939305165651346
-3.8188990673129606,-6.387124791922802,-3.6515803130177535,-7.250272907581756,0.6054281998432067,-0.8632332292159818,-7.4012416212742735,-2.5942667629925658,-18.9430274610392,-1.760779918369532,-1.8760567001912076,-4.652990035875797,-4.769532142223224,2.1123307227156345
-3.10883449633119,-5.224869729751326,-4.667880540475085,-5.829882651121192,0.0419099786629404,-0.9103722086638948,-7.24710090894524,0.1979853678155723,-18.28943451965852,0.5372802620932412,-1.0621970066009845,-4.503278947330473,0.4101323983334173,1.6259004429011357
0.8751924856654191,-1.451155007809743,-3.687633380630569,-3.857403472324304,-1.7228005745900197,-0.4496327615697038,-4.845943563473785,4.083807238894265,-15.136519413099553,5.80205293416351,0.5640586490126691,-1.5400556385807602,8.547160235563698,2.5685171252888868
3.120418965183796,0.1741243790205647,-3.0473169448249555,-3.1492598076707954,-3.704471948679465,0.3618969422899986,-4.070101832269745,6.634015300149889,-12.159534454933466,8.943162881665515,0.6234613162748541,0.3243251480089992,12.179681623064267,3.783194960736427
3.071789098878054,-0.1862999112444922,-1.71140071789272,-4.918007750624387,-4.923051990327438,1.8486403396043187,-4.8939255151150665,6.132298390789373,-11.641058299461486,10.391039010547132,-1.7721165670640344,1.5537945958828152,10.632746614950848,4.619420885930536
1.3319332088927371,0.3549779383416319,-2.17805513881578,-8.584119232617704,-5.066378776076263,3.185361449610142,-5.253094064873017,2.963748569593691,-13.599698095723785,8.073949038773073,-5.283674257476857,1.419117119617085,10.0283914922274,2.0880303507083173
-1.324127175419334,0.8935221393287135,-4.805675725150294,-11.934285787971156,-4.452344635834607,3.5027821572224647,-5.953116528802782,-0.5241167140103764,-15.846067144181715,0.5813118916133088,-7.534851788197811,-0.9614954039072258,8.557436635191895,-2.140201785410341
-3.02288831026102,2.0053634371751965,-5.253493415277408,-12.614651945729236,-3.4378065922848275,2.529151280251635,-4.856241302732716,-1.7469816470803892,-15.932931038768944,-3.953224318889333,-7.136869420034898,-1.3628326512415647,8.577266884185011,-3.9638877795666985
-2.280534686543088,4.052046795057569,-3.9328016578477545,-9.808122618194062,-2.0208935945962683,1.6369575322286514,-1.621126958928462,0.1285446543870705,-13.240561367873802,-6.0587609140348935,-4.73582077210204,-0.0362816845271081,10.98632135909417,-2.892521000978846
-0.1821578781896854,3.315944837637805,-2.928219516292218,-4.7466851755654265,-0.125649835551199,2.617251790091747,1.5630339924385734,3.598403514313645,-9.339126262774558,-6.6992842699638055,-2.242004373690561,1.840326374549396,10.443323338710249,0.0253490722779093
0.5018195331411079,-0.2592942185049438,-1.4867726564932078,0.3160834337288793,1.79096163187703,4.865507150086496,5.22867213085274,6.162674414645041,-6.401452095735513,-4.057266444422562,-1.1144278429710417,5.147985231576981,7.489475765535165,2.6773515363638576
-1.121188575434309,-3.504739780865178,-2.7858862986363406,3.7435671772961294,2.645504761536884,6.618961201572914,6.173618461490742,6.432826463971615,-5.254224000724074,-2.5516430258036875,-1.3559299058032828,4.9753204990352415,5.475687136921474,2.205302614756223
-4.985773143682061,-7.153387052778267,-7.327317439624953,5.391590033588933,1.4883104699639738,5.220648056141014,3.773049502750676,5.149412271988556,-4.920748850909778,-1.8956293523002532,-2.02664732813167,0.977034107045466,3.597379939006029,-0.3351314309523917
-10.082202807720815,-10.134074373305095,-9.98657129497035,6.150642250337983,-1.5141725162850896,0.8757736394673297,2.4451910509884667,4.250305658147099,-3.987548325711675,-0.7047016024816614,-2.534491817285605,-2.0730862541377,3.8356884045723376,-2.727967199882108
-14.089337086279208,-11.867557876893091,-11.379723541687888,6.830600969975443,-4.892321674196406,-4.431934954207696,1.4139897497602596,4.920376939474634,-2.309272603154943,0.170268697980937,-3.289458151859293,-5.218873459043987,6.90127069866107,-4.336293170202964
-14.846560594298914,-12.596536369918423,-11.08012460422274,7.538870052143233,-6.819689541275151,-7.391049762636981,1.346933256062003,6.457162416460735,-1.2352686239754913,0.5572558195056637,-5.112160610794669,-5.738213845627663,6.986010784601506,-3.605292118825765
-13.542313164350873,-11.74863413268601,-7.979680649386845,8.007065777528247,-6.443918052365984,-5.111184367700936,3.081728872527671,6.962659566708627,-2.050523926017542,0.3551498366067384,-8.136356093418078,-2.6219608720178083,4.416546383871871,-0.6326605589696224
-12.306905279251437,-10.136784242761946,-6.543302350098647,8.260026735096094,-4.448967582826953,-1.5436334559830032,3.232163137861329,5.144137333930786,-4.202694986985684,-0.5988202843480795,-11.416329819276154,-1.3509133807824192,0.2768441573184286,1.0520517337088269
-11.207667078660696,-7.559707244457046,-6.507151026634639,8.743563916639541,-2.3751575502120765,1.1349930254049436,2.079149080110466,1.5348715120806329,-5.25323675977069,-2.4665090242834387,-13.616061717648916,-1.1974912240086515,-6.733083004777136,3.051079879107417
-10.613205269321414,-5.51125854318281,-5.203024999372634,9.7784497402296,-1.321926175370221,2.0739254903299496,1.926258229293201,-1.9147084575997615,-2.8806331827258216,-2.637180125001751,-13.986260355237771,-0.8505262797978616,-8.547155207304076,4.549600915428579
-9.47764613596694,-4.232296371821564,-3.408292648505651,11.072105170718942,-1.1445510327048245,-0.5405361477592968,2.2587190768082195,-3.399641235776567,2.805220926904961,-0.9847642364296832,-12.617814977810196,-1.2523287554510396,-4.757211153417283,2.738976996218155
-7.504738692240052,-2.418718871401629,-0.9569149377672778,11.973828326531498,-0.7478493903529229,-2.622736536888008,2.938419689584405,-2.561353351676414,8.86216689606881,1.0421376139567715,-9.87827823368728,-0.8856614791357201,-1.5186070143755448,1.373614577706747
-5.095127059442781,-0.4837815742257663,2.486035335972097,12.236083259989146,0.8795587782484109,-2.479423007854519,4.317169030651762,-0.5237274846473863,11.586741560940998,4.091801150646797,-5.904621775938679,0.2697765591530781,2.972500063846769,-0.8865826591474244
-3.214650405931488,0.5874466917396759,4.306371584645255,12.34506856294163,3.792664221537548,-1.9793589751250624,4.799194526193334,1.1500983525227149,9.349461667213845,6.1360401691489725,-0.8889112244079875,0.641877113324509,4.3272026516780135,-2.863882563104483
-2.603583747760373,0.8129061792075255,4.436885748110576,12.895244110443048,7.027310962153118,-0.7805659003834873,4.3584367331885625,1.5829039178236517,3.7842298145900495,6.934949027155588,4.215748021321112,0.4629949667045548,1.413283879322452,-1.4977340683087634
-0.5239623138626603,0.5040189181158415,5.899187755971942,13.61923854394406,9.288667699593637,-0.1454110684410496,3.6912315991290936,0.9584271502963412,-1.5763139090182603,8.897987307346176,7.692945806019971,1.2420607203065432,1.5395215733436385,-0.2019094142959689
2.0419973831398206,-0.5924815680328809,8.247477294071718,13.247685644762914,9.808219771888892,-1.110706463899219,2.422584787211436,0.0836267086616224,-3.898057329647653,11.596775163350944,8.261337314472653,2.8264977845998493,3.663333561768713,0.499543973667834
3.605851309142588,0.0117412271265162,9.773562191535769,10.6081174875129,8.793094508309036,-2.3748043351481503,0.9269212075969532,-0.3284248889978762,-2.6860609473704784,11.33675380859497,6.496627400675575,3.6862796839547913,4.83576282159206,-0.2877455778865217
5.329407771569733,2.5166217084580462,10.892542489149456,5.996524086070192,7.256901038153824,-3.572639557894518,-0.7768032210704097,-0.1022543575558181,0.5861699612410689,8.158702680773496,4.849671756690885,4.0111976998480685,6.1584007124336,-2.445706454502593
6.044342547165051,5.452746914229774,11.178577859992249,1.3589153868027068,6.38512477664813,-4.355913839383698,-1.4856275736851556,0.4123896417490549,4.058390333513557,4.030202354337932,5.765454939382881,3.9105297069739176,6.558208418224263,-1.909825817049236
7.222257115593467,9.46981113315224,10.324524227904902,-1.1487425950149124,6.771726094389889,-4.301829109177228,-0.9770535429612464,0.6486117337784663,6.692157291660164,-1.8798624255146563,9.365504434989374,3.0672168703774823,5.677174706189488,1.234682100150906
9.60212768808726,10.537813066178073,9.622572688433047,-1.0423940162688543,7.924129236913052,-3.291208355213417,-1.032582260936722,0.1794070331363499,8.318885841194664,-1.883528255644113,12.920681240013272,3.2367477581076645,6.230973406211287,4.58572800411991
10.625843311880832,8.20916147506512,8.930102166195317,-0.0845783772133561,8.410841654913023,-1.940231657547559,-1.370102424438655,-1.032555618930635,9.043826914275265,4.890771381767974,12.924217139607382,4.458396897641855,8.044380533043885,5.155795198533809
10.796557205927858,5.831742752468754,6.566213952187527,-0.911093097556492,6.759150307889739,-2.392874113882524,-3.676653926741295,-2.5554822961603207,8.969540863998064,9.481282185135973,8.183192010444351,4.335494149008075,7.354260933984301,1.276084647685864
9.237692507005242,2.3934055845727804,2.62518432216272,-4.834935992297789,2.6558237894501104,-4.220354651664061,-8.454884473854227,-3.620052827318293,8.513476663659645,13.58269300861169,1.25171913825303,3.121989371962382,4.419250838249369,-3.8880241042186174
6.09335681988625,1.5991671510297745,0.5548004347842291,-10.705801983025813,-2.4733311632370683,-5.647665391170145,-9.13292191509069,-3.477954829197291,8.691331498386702,12.452990116615908,-3.164701402961505,1.7108897613136609,2.1433102677087263,-6.359770850943092
4.679485084077205,4.172408226691587,0.2852685903272554,-15.758517770705971,-6.208094176257852,-5.271526020808801,-5.781624988481651,-1.888115459015472,10.6537898145027,4.094818025379323,-1.6519104813768273,-0.332073762905472,-0.0916488145525444,-4.153920930260501
3.683691193455048,4.657382324780618,0.7910790185211299,-17.655440543914796,-6.8704858975549605,-0.3986650987704694,-0.8867437115135185,0.5478654576381761,14.594574680469524,-0.687969959845376,5.332997422294234,-0.7350479155770772,0.4258925837732439,1.0453880545823333
2.233647437198373,3.898659836435393,2.8991215929007503,-15.999049224154287,-4.876621284333572,7.117015446664854,7.077282481477388,2.5310792170866563,19.014555735635923,-3.175770328446537,13.706631445293493,0.7505150476350816,4.4496609410051375,4.0825260517414685
2.065415145502258,3.9554435216817785,3.6154849544771226,-12.218950489145852,-2.4101320367748365,11.745594896804484,10.187970570855732,2.7751032775840088,21.288887895386605,-6.25011159796298,18.54295711011511,1.216109584144739,4.577415740041861,3.170912262745216
1.5720503979689124,4.0230307146759285,2.8124964664469667,-8.21024254111835,-1.5400268335999137,11.654160182269054,7.798827469199803,0.9007848414899052,19.440799231646483,-7.996700144241108,17.276656648839865,1.121927185714372,1.209895801911716,0.5397499781408736
-0.9821434916619884,7.295077970518101,2.6969966395150946,-5.038525935239246,-2.432601884641759,6.37601067649948,6.8929127239725,-2.161006803085815,13.845898254509455,-13.88512806991478,11.117099337253624,0.0113960367293911,-3.534334156322038,-2.251806443266809
-2.6961175982758663,14.258306152438884,2.620862920257127,-2.693243209819208,-3.356894632885382,-0.491642931383046,5.666340873132249,-4.701513251424036,7.373223524446825,-24.254449379396064,3.924780407237993,-2.7051044609898995,-11.25205232105288,-1.5696711610565095
-2.707090776118347,15.331536177244663,2.734708288275673,-0.7656691777818487,-2.518090789814337,-2.81171487263071,4.926898183372694,-5.433966965196305,3.5726108797367857,-26.745134488779083,-0.4465168362353466,-3.847609212705256,-14.678055741667151,1.689634102092153
-2.445709436596199,10.66571218502566,3.2980552869776267,0.8279847364333932,0.0685403139169018,-0.1362650586747695,5.659569488345899,-4.466312419180511,4.150740083759683,-21.725822991754377,-0.4909723516882067,-3.5320867935195244,-13.362031313829844,2.7687649758460453
1.0693688925897182,3.5667447094139866,3.2854022896174158,1.7581397055830017,2.548798199956373,6.376921105772329,3.722102158780853,-3.215504623301147,7.742809471768254,-14.65628235522287,2.3478244426527475,-4.2454514555985465,-14.252426437776329,1.9969114089433533
5.049814087611023,-8.206382874212121,2.751675855414531,1.737747758928375,3.109506721681768,12.062992207441798,-0.6063073642180108,-3.239742860702254,11.076044740343583,-2.854580401898987,5.003147219780246,-5.444219382069587,-15.841478712839049,-0.7857959307720817
5.070395337173922,-11.735161589390788,2.3167063214418957,0.9316831739131856,1.8941705644430409,11.799100029720284,-2.304223041259887,-4.886790570085935,11.653844700132954,2.212451167839555,5.013018836672998,-6.618203477712718,-16.532757742017193,-3.13113428698546
4.211785802295895,-6.032966096555627,1.799663583981499,-0.0936505011529504,1.0040383733125466,6.772219388687431,-1.813113783376298,-6.883781183072323,9.730341951304052,-0.6555989953489204,2.128040253137314,-8.108422219159683,-17.231974954231937,-1.6063175290411902
2.065540030530682,-0.5326630853676572,1.5258497649879892,-0.7755220757117591,2.516913538397528,0.2083235673539984,-0.6831511066545467,-7.271210963389176,7.88657146692427,-1.3836644143861017,-1.732764836872093,-6.227004890722361,-13.903597419649888,0.5802440328779024
-0.2497527578197642,7.881109758858574,1.6021502941070545,-0.9212231762611048,6.408077014097106,-4.597044249909109,2.0968573781212894,-4.979526898819909,8.593456797202496,-2.715114618255395,-4.046874165121416,-0.6206196552043441,-6.131267023940121,2.3859104174300763
0.4671638637603675,10.3867522053149,0.7760842345778685,-0.7771213499079739,10.34626396772667,-5.723064816392484,2.5256396275976685,-0.7815683679337333,11.931210548777978,-3.1125615703300085,-3.575431813029626,2.579786628831824,-2.5037359399102352,2.4164908164378334
1.7518084068229212,5.250282566350904,-0.9373022198687488,-0.8247037956523631,11.538117432077769,-4.299896617945403,0.3125594328039132,3.169162949990282,15.48018416380701,-1.209184551342478,-1.1706932712174272,3.964292418697885,-2.576340124547549,-0.6797112538764614
2.6982222218308185,2.688397154838837,-2.476483335563028,-1.46230942509521,8.922454983357683,-5.241618902824816,-1.8242446945649125,4.871726723514104,16.42165036868677,0.7335058087569573,1.04521688779894,1.9891189373460976,-3.2344448861688684,-3.0716991051054894
3.452003146711489,0.4305399039034126,-4.070312399058426,-2.713091161883169,3.838503814457555,-9.418989173487718,-4.847534056466354,3.8779280065573296,13.91709056408035,3.5676758328640403,1.399270172079083,-4.873016827315988,-6.295864296566863,-5.15555499242589
3.1074340416406767,-1.2629523274668748,-4.806783123214657,-4.086051981865172,-1.1894732268083263,-12.532072982908602,-6.037969454116682,1.4870093943317766,9.681699315311738,5.643153694214269,-0.1228981830798314,-7.058245533843292,-6.482077572178087,-5.597217342064013
2.180013319437587,-0.8718302592146022,-4.423843900427786,-4.718633625646504,-4.277875854464806,-13.991837628114846,-4.9150312618438505,-0.3455555110893744,6.3974032860674885,6.704091011549484,-2.094991000168215,-4.859453515640368,-3.391675102227917,-3.1702190543301407
1.8715489907331115,-3.8578896424346016,-5.23625374369264,-3.814952972648213,-5.09273771290153,-13.494854024711069,-3.626257738145589,-0.4553391863996863,5.533667378910531,4.574498780580419,-2.984046936433007,-0.8503387940939441,-1.4392236609576432,-0.59783177545899
1.5829169770796772,-9.94763294954262,-7.087312350484595,-1.1530116433940414,-4.425360135370376,-10.581687540969396,-1.3995142228117496,0.8577109194349735,6.485370802983651,-1.5395815306966791,-2.3911463389012404,7.151803245825267,0.5480642084888451,3.67608310516338
0.8977599211514546,-11.893162975150814,-7.779866183205449,2.6959528260451533,-3.223022719927201,-8.181181110653807,-0.1648620604189412,2.338664092567507,7.534721621624984,-3.227778440755753,-1.1826651503632473,9.499062102720549,1.3441198433932284,6.339745327085473
1.2066793006726273,-10.255846256382272,-7.63616810673491,6.605973445708816,-2.045258072986861,-7.006991765867715,-0.2613776249309082,2.9055343883437343,7.479537435639258,-0.6998669321927921,-0.547459518356149,5.707231383522906,0.2707610658586856,5.067864590991659
0.8737094080620863,-5.985571117780983,-6.107715386836859,9.401333049959865,-1.1660161076253752,-3.790039057016388,0.0984057425818583,2.429944098760382,6.396765967045365,2.7721229013626263,-0.9395174166569488,3.3208623658584755,0.0760620828690208,4.368290609592952
0.2241777979722436,2.5470457075760176,-2.6978141610396844,10.269932406047918,-0.8273483877253867,1.006536427874671,0.3987698503071285,1.6284728369385562,5.089308509334225,9.056321728061302,-1.8550496539677503,0.232262264149205,0.3658440060630482,2.958698312353975
0.593353268280727,6.109633700741774,-1.5941050998941326,8.925807266810116,-1.1888119270976212,3.8299261705407046,0.5973322222247652,1.3075414073605796,4.052856551337268,9.037034026138826,-2.539371647985643,-0.3497721989861425,-0.1203101410229896,1.4120737943275654
-0.1067000775394586,4.38869202123968,-2.805186897064144,5.649098694931443,-2.072172044572124,5.662516236302688,0.8818069706604855,1.6727541024243902,3.058053404291872,1.913199753780634,-2.85195844043292,2.7987078810559045,-0.9966647906008632,1.5023634475196177
-0.6342668516613457,2.1916636023913934,-4.0699374968767374,1.3318870426468656,-2.930055874230764,6.23055028682185,1.057187561749363,2.243993175855513,1.606470752201112,-3.908463732606985,-3.4284448874329065,1.3299852847754876,-2.779872379741065,-0.876381928827462
-0.5473111321607722,-2.682315999814956,-6.313291549644937,-2.611406923470433,-3.200580227152632,5.352029225311489,1.1748398815353909,2.359844840601001,-0.4037701095331432,-10.492676092613092,-4.999447366119746,-4.113255612984477,-5.67509098002243,-5.502654426688725
-0.9145883094000302,-4.414444228053777,-5.703527619468988,-4.730386605670963,-2.728770904262406,6.054121050941008,1.4932660420751611,1.792629443686124,-2.552502297382423,-11.637800402519504,-7.554539543374354,-6.150586900619445,-6.554935268775997,-7.554107694465608
-0.4843950164064201,-2.325810114545211,-1.739380100637681,-4.356693086012108,-1.830152534565741,6.961416559441522,2.022259330615678,0.960168033114547,-4.367980775355832,-5.559856002384634,-10.191564015516736,-5.942984381683188,-5.341806017695545,-5.932325560504034
-0.1793282797682256,-1.1229384953755632,2.083372010031794,-2.1815684339823296,-0.9508067425241098,8.126400032173018,2.0702801947309357,0.5731574103360746,-5.805546263480689,-0.5094296253631901,-11.81683907453161,-2.0441259959613363,-5.263496376021334,-1.88918963073582
-0.86293013254143,0.6292304717126752,6.723944214410187,0.0499475202610293,-0.2886316424708495,9.313838407860557,1.6466664156209356,1.0221885235377943,-7.21373799025844,5.327738548106929,-12.011388963409557,7.13422877844274,-5.739459883135866,4.504431469723357
-1.95093194204752,1.590480914350431,8.817572476423292,0.7397635677738359,0.2628947962702508,9.459527129094518,1.2635131868890337,2.029359041494205,-8.877193359725252,7.155244413901216,-11.19936558765054,9.647474758480216,-5.624600289315123,7.702957803017973
-3.013847831831334,1.151266016962363,7.606658074342985,-0.3176088112422199,0.856057992185971,10.650385287778796,0.7851677031672423,2.882076772708726,-10.670430990444595,3.279950351463408,-9.97393891503057,5.524590790237405,-5.372532706806839,4.898182341926259
-2.708965551015727,2.5375689391012237,7.075026590463583,-1.727727141956283,1.4246753753997443,10.437695514442373,0.5031842900630784,3.0565396437082164,-12.186367998641998,-1.2044407711484948,-8.345977699929794,2.083083230733918,-2.097391010618489,1.5404597371299418
-0.9721373265300668,5.423567069394429,6.300171068280818,-1.65322269965535,1.6699526741613662,9.722813626838636,0.5143986081854153,2.6448748617724505,-13.162389372188024,-8.00234326093083,-5.809274617202124,-3.187533312307527,4.587333924714864,-1.4042126433095168
0.5542487428819418,6.361398521105442,5.731817907239582,0.5349478029735106,1.2763465939318603,10.55067648319813,0.3206809578602605,2.1337343727140405,-13.725983943583364,-9.411376594657726,-2.249690972598461,-4.666140984257579,7.479744667682603,-2.8022474263274875
0.2599769938951792,5.68795096002369,5.973673392988333,3.5480137679670456,0.1598098408834429,10.246326750930304,0.0015962694267967,1.7199828988969728,-14.217143553708546,-4.258708558586749,1.2763734404635851,-1.1503459732771537,6.848276674779281,-1.5166042151697905
-2.5271373252541016,2.3109910054517946,4.966941530422383,5.157897425782828,-1.410211087472387,11.055534771958229,-0.4999172985467246,0.905865695998722,-14.813016614884928,1.9342709351696863,2.901431722869189,-2.240912722358102,4.475531546136736,-1.7249970562418926
-6.258766184125764,-4.672693301479686,2.9278397207876394,4.142454848809104,-2.8617984184739544,12.03321896566228,-1.279742913809707,-1.0457509207102955,-15.366458100953071,11.352069875456728,1.3676430956492744,-6.777732911523302,-1.305955688484796,-4.488111093116666
-7.969529854203728,-7.339360901336784,2.5697257701734104,1.5043760801528006,-3.543202654991706,10.567338136523029,-1.002265451741707,-4.090842172798456,-15.60852842167862,14.88824177194308,-2.7080024141162653,-7.945700901059554,-2.4501973225021647,-5.330293910232971
-6.24218889362148,-5.679672672515827,3.744999089169454,-0.2330444500614632,-3.0807691453056147,9.311608927795584,0.4029473178206166,-6.869423980070672,-15.473980686215436,11.355244062853506,-6.941061866048516,-7.021644318717385,1.4327693582507224,-2.615609038448858
-3.08524443347799,-1.696036995010129,5.16288708706243,0.8218581889203858,-1.7095112269313333,7.425614838051028,2.2215892183477948,-7.450786452990522,-15.201647408490496,10.617726802374246,-8.680608503349687,-1.4562910467055212,5.330421880206971,1.2337223405683526
-0.7254815018046517,6.593688773487273,7.37802886161052,4.1979449584423545,-0.2852950906842437,5.129688186686471,4.790849343213793,-4.946670723467141,-15.11550436569003,10.557763702341976,-6.702511810139725,10.251149163826588,11.131312809455128,6.947991132894468
-0.6175182861072437,8.171624818789756,6.34521218544937,7.370487616073634,0.1980954621822928,3.878720484136499,4.622625829096258,-0.5591727567747924,-15.31261956341172,8.900683851045109,-1.8081697185718093,12.86854827640235,12.904750460385069,8.301904913085908
-3.123234276324619,2.47244831385128,1.5952310667975085,7.9120803246630675,-0.6546287897250895,1.743796406851169,1.352902057515565,3.054726417327169,-15.573665122629432,6.919158599197853,3.910454635757418,6.340927726303359,9.728129346648007,2.585953864017998
-3.960643192914702,-4.547113758666853,-3.0233392163301867,5.541617617174262,-2.2653689160672634,-0.8148786981468699,-1.7381466933885727,3.707329076304856,-15.614031260393247,-0.5591089392863272,8.311141868292857,-0.8042996917093636,7.967660780443711,-1.0605477727995096
-1.9889662994514192,-15.59827948489789,-8.492083728237812,2.1678724233139057,-3.52183586695679,-3.2663746299001675,-5.48422087370056,1.2365399364277303,-15.4932003138415,-14.076670085614056,9.99904073992982,-11.927912481720533,6.174354274006825,-4.545078072935119
0.2987385908756911,-18.775907915819992,-10.275538281431784,-0.070027578474713,-3.762550975266487,-5.414887108320546,-6.968260863332985,-2.651370738794851,-15.8097874413683,-17.206701607746957,8.477592742851023,-13.859203828481572,6.312373529280279,-4.850185090944333
2.750264608510244,-12.754622812649158,-7.407843182302775,-0.7973323690896343,-3.4051347625336845,-6.809700110814539,-5.461379586594849,-5.950384461806355,-17.369062945691024,-9.961305134322362,4.118394453839352,-4.767838143632497,9.502266975825444,0.3056768600387585
1.1308298104343275,-7.793016562359501,-6.379988556875816,-1.4280264541017047,-3.5196156380454013,-9.06477608567661,-6.306569563615673,-7.727462465877677,-20.370949583582508,-2.683721369959634,-1.6998332877176807,0.9996102428595004,9.965522026163002,0.4146045012307172
-3.500817113681418,-0.9736368476935566,-6.081127499195576,-3.228740161731606,-4.669493341978008,-12.239470238597612,-8.857512900925407,-8.08217015111005,-23.68095501382262,8.141136644691487,-6.592453323627161,6.553215910726155,8.231190174350681,-0.0841851933236502
-5.889694528898136,1.3972087941472895,-6.8178612180850005,-5.510171510126961,-6.1908390556889525,-15.328783910936238,-9.786035572975155,-7.11284650343517,-24.98706481210321,11.205763583804783,-7.925485266872627,8.343243440740753,7.112582435824836,-0.0599843463481076
-6.88330615201007,-2.484661001596329,-9.766017345766294,-6.002935037401711,-6.76623720058714,-17.183005057418136,-9.847385759845103,-4.3796956653206,-22.16892163653069,4.446760212733965,-4.344290206078137,3.834695125694619,5.630324663440527,-1.9442178435296968
-3.441406548281164,-3.625793483179065,-9.664011601207172,-3.2579239881226147,-5.826424376622567,-17.175362922084478,-6.7926967716971935,0.3378548807786341,-15.119492828406324,4.143083691907644,2.9380876424213582,3.1496408700467344,5.741120489015266,1.733091185106562
1.2310802517657238,-3.765664260967164,-6.6758493293477015,1.3086708076357194,-4.318916814335477,-16.034678003156614,0.1428347278451656,5.877907136123342,-6.474471057053108,7.780803490318573,10.41854636273377,5.030694776415782,7.901939481483895,4.6079031833182
1.5901210268935944,-3.94592395554734,-5.796293574465151,4.006582312050284,-3.89552930874124,-14.755417868124644,2.631256964027739,9.74771134020211,-0.2164232548300688,8.12852746334229,14.418759124158363,3.852538400112567,6.598369801981792,3.337162893190331
0.4503157635093178,-2.8240831079763824,-6.209975376177039,1.9067783276088173,-5.20074626377802,-15.162633158442263,0.8481491420180776,9.837606308486473,1.130712756503149,7.483303844344573,13.60292636754434,1.044034332505033,2.027694411817455,1.9070086204885983
-3.382126045733642,-1.52362167516875,-7.5317963382727795,-4.355991031662855,-7.00028390204967,-16.61300285091336,-1.429226575050146,6.340687663486603,-1.5154863578748845,3.110636757828836,9.767405203669323,-2.4314676620584788,-2.026759137736594,-3.0514036757392096
-6.206202449884217,0.2330405966460825,-10.666837172757557,-10.71129659526911,-7.1521491924187295,-17.456410346133094,-6.014702556333251,1.8897434242907425,-4.5138169465864415,-6.106606276172534,6.061750581000116,-7.296947234763722,-6.590120537040911,-5.738079951261145
-3.619081316407219,2.5975702544749546,-9.105547140364818,-12.823714316378256,-4.556692987548292,-16.595278670447886,-5.423784802289136,-0.4895074280367186,-4.531337153768288,-9.466429013542182,4.147340248153833,-6.955251900136817,-6.752686000250388,-3.047737531871129
0.4449098408335579,5.49024573786817,-2.5484680679782,-9.61584382765048,-0.17876346768535,-11.911428493928655,1.147916381755152,0.1717117376588195,-1.3026651630199133,-7.166402035225086,2.9445797806937204,-0.8034918477451792,-1.5225685247853,-0.1894099116555294
4.180460199011046,4.813370958016233,2.832166661557169,-4.0634453417007705,3.8520468069907032,-5.044559393635326,6.058233701260335,2.231197982649057,2.3945424576902585,-9.890229368438138,0.220105455769529,1.7268133672178685,0.5803443450111334,2.708319234940868
5.852545138507588,0.1550430267852288,8.357658563350268,-0.5838596769850364,6.134878424566228,2.3602181746910667,10.997043748780962,3.2907445596808245,3.5506593140125453,-15.897240127386988,-4.516756964247875,1.827508741465632,0.5759655834781299,2.961626814897632
3.9782284289284,-1.75266427436079,9.871376836531129,-1.3238503606095593,7.035208449156691,6.965588226775476,11.87809862670954,2.6129851938068587,1.8886485004021711,-17.746038713081894,-8.762593046467757,1.10067309133152,0.6209112715128915,-0.0550508699486246
2.0420325482102246,-1.6057661066096889,5.980065566252508,-4.534299246548602,7.986344654678472,6.049666351228973,7.136161911865833,1.6950336295244215,0.1775887348464486,-16.68629184107771,-8.876770155028783,-2.229069538313728,-0.8273523801832765,-2.033123118491015
3.6671187330570127,2.371389424732507,5.89426056896005,-6.293714850537336,9.922657668734548,4.73072651282707,5.773989371141875,2.440855739832065,1.614892987192464,-8.429667762714995,-3.468830629339801,-0.4992074387163412,1.860457943707387,-1.9384639759755569
7.722891797899623,11.83559653847205,8.661262606192397,-3.934110622499421,12.414518366043868,3.3914396325704823,6.75612196645768,4.810718353261388,6.786355476868833,8.921646248830282,4.856092029059023,6.571002942095473,9.03636951477808,-0.2815260259596651
11.372469602465223,14.30526031787863,9.57776983860363,1.7892206246607012,14.168134587285095,2.313572845683132,6.775668863321712,6.412690503262953,13.062676623124684,15.76318071113735,11.137508372832093,9.247583939015776,11.303533785143374,1.821131187087233
12.11265806802355,9.907027682880225,10.137942554766044,7.4601021274375,14.17744622638278,4.346421659642857,7.357082023120662,4.61392579963671,16.913394259299714,12.305805546354865,11.77274769181068,8.758191211014601,9.40487456318022,2.49480127106861
8.248775672187165,4.564711287246682,6.700886305036258,9.808908368768742,12.389013674396717,5.712374636817798,3.9589432826042175,-0.7764038157687825,16.891325454866184,8.43653411737305,7.197672957825136,6.052718190833604,7.405943219051985,1.633574809760597
2.7962593617731764,-4.467524474746662,-1.620200475634154,8.112086098991616,9.482669596680186,5.571340823410507,-3.99274972675484,-6.8678243159482,14.56237685893468,-0.1230523461961473,1.4140462078009932,-0.7906469557004777,3.527091809929625,1.1410252377108103
0.1426668607255284,-6.19306292210993,-4.731089836308906,4.344593760165691,6.275246232166845,5.838066965291703,-6.859011396861924,-9.834485948881948,12.744354923485655,-2.7663789602156705,-1.1002800818997578,-2.356738937720809,2.789254733339556,1.160626607410176
1.3757465285392074,0.6228033750712744,-3.0519366621045845,1.2770590698647046,3.391853819111301,4.715549467318496,-5.17987118894724,-7.977297937140465,12.928383848555129,1.9435165714630396,1.3978294436220544,1.5506275660521296,5.869771243812168,1.0350259675602191
5.849451273930334,3.662924383138838,-2.101700244005257,0.3162435981404359,1.2946022550649687,2.086232864966548,-3.1727448748192875,-2.989953958111193,14.305821344221696,3.4792098494346693,6.915233723558696,4.0766493568245465,4.617573464842519,1.3050010031602512
9.403289917322605,5.324503240181401,0.1049311294289166,0.8246419144032666,0.2978436327976415,0.0336796604948127,1.0998667750435476,1.5935010552447633,15.067053165197,4.357478220057929,11.42640313208587,7.182409363675221,-0.0923409641259394,-0.0117729710376249
8.176783244629759,4.589328419414538,-0.2233417931088249,1.192657193804889,0.3353065436240543,-1.3035891631990697,1.0565944013315267,3.246006328203103,14.428380861535024,4.529347968787386,11.822025056610851,6.4746427861077525,-3.2872826665348027,-2.3998228455971184
3.5158522867878217,-0.681265989821845,-3.913168976134505,0.4451090695427,0.7137008424036368,-2.037959972096949,-4.083791905633857,2.0742711150025075,13.307817044350228,2.5358585458962803,7.913435870357077,0.7042529584070746,-6.213501292223796,-3.555430244379965
-3.2037929859715653,-0.6422308945890237,-4.984864225231464,-1.1092999908530867,0.2855913576934332,-2.31805338662724,-7.050994787704715,0.0677148259864832,13.101398719791051,1.329633555693024,2.162430682896658,-2.530991984239051,-5.06430180715028,-4.377926726678814
-8.266290014352967,4.324471057886215,-4.267422825859281,-2.6107711090207504,-1.853003539510912,-3.9579345342677623,-9.300731391659443,-0.9514389929493604,13.990022377614746,0.4845209656268683,-2.4233114866471768,-4.304578623516219,1.2776274145812971,-4.016787525030134
-8.081005251622827,5.022838920681313,-4.113540568809471,-3.8085518330872734,-5.572634321635132,-5.764150594520969,-8.840375040330406,-0.6440754982472168,14.661621110502423,0.6248287487463854,-4.419288093255543,-3.727367140960302,3.163010629613741,-1.577847117267186
-6.297179242722021,2.953944118761306,-3.5975034134597488,-5.304808125372562,-9.483424408125272,-5.896246545300762,-4.289971718186964,0.2419383725728821,13.82601155750611,2.333563058137161,-4.4505055925229,0.755422369519095,1.2472198175618872,0.9302035807221224
-5.003518827517456,-1.480624628394788,-3.4304050187101662,-7.539326535575434,-11.594112650835129,-5.677881782715716,-0.7776611602830044,1.1536326202303315,11.938154058172357,4.464059086616504,-3.874185014387992,2.6949185251280543,-2.5985703243069613,2.4281772295547226
-4.990984192805942,-9.98263436455056,-3.8560930217639777,-9.63067979621304,-10.528008014249105,-3.908378389428803,2.4481806702622406,2.3522756148915525,11.14613632926591,7.386458895432112,-3.1990797494690435,2.514304235480758,-10.465473990719516,4.51765415013214
-6.918655355787312,-11.8871608900832,-2.963959655705517,-9.58518040681415,-6.4981208361160245,-0.8100088253428565,4.340883296501455,4.255296368797461,13.17706307019618,7.707298570271623,-1.903768238867368,1.0598770698460314,-13.414256530917966,4.53106559026786
-7.169295444928668,-6.885231955837956,-0.8534638290455029,-6.104237005934923,-1.3412026656477654,1.512695935613854,3.8452147934357215,6.364340985285506,17.09566713982044,4.993296940973545,0.240795280749051,-3.0788038623757155,-11.161968393425084,1.8326878015885544
-5.639015379682869,-4.614408355325024,-0.766321269847786,-0.3828921216980632,2.483129355948094,5.185679474885113,3.649600224823877,7.127337527103968,19.352901146764875,2.7091693081953343,1.9533585044517752,-6.019719912931894,-10.01712044148458,0.6461991623681314
-3.9522013042717625,-2.974740729007998,-2.567772990842798,4.153262673180741,3.336769750631824,9.881469949310818,3.16966689357059,5.122089579205793,16.57324913771668,0.0287904087470495,0.9793651733228774,-7.910657908697601,-8.05431308577656,-2.923797559924089
-3.018548858264237,-2.446936047552645,-2.3968740779831874,4.483323697255022,1.397365905803234,11.593832127412789,2.6881394682835427,0.5470573985344229,8.817055383206643,-2.885747621868916,-3.770218931756741,-8.647565160453711,-7.933067907927855,-5.75778730284957
-3.274231409506568,-4.574195952287393,-0.6939938543531717,0.8490592701454478,-1.443845349590411,11.500819719527106,2.607027624653633,-4.45080342509534,0.237589967580325,-5.536189477173904,-10.4980281049014,-7.279079271732685,-10.587021410680997,-3.23056973334376
-3.1167776200228783,-1.2935225107532913,5.28002545575154,-2.976793534693273,-2.797716630034383,11.655766488984234,3.610868032497028,-7.12393251266656,-3.849112331685129,-9.631220125765838,-15.18044840522187,-4.785026661219034,-9.061052858987184,-2.2061360736194646
-1.0791730312998613,7.306528240830994,16.646075285248504,-2.696863087540203,-1.4286250082344365,11.21939072760575,6.05189007678622,-6.158020323722156,-1.2122658280080856,-15.055042453699867,-14.46734313031619,-0.7012559019748009,-3.82979842264406,1.6817428690341605
2.234174973939455,11.001454520250446,21.221496160332745,2.6663868952395706,1.743708641372688,11.373797365157277,6.981100912839627,-2.712257162981249,5.3899128949894735,-14.893200579325253,-8.47542329399594,2.201656434389084,0.0619915796417789,6.595656871689464
3.582419823348326,10.880908594705756,19.140311821318743,9.594936867075486,4.156481110721584,10.792086613105376,6.506510546849791,0.4472304095453232,10.418542964035288,-8.824705008173666,-0.9751141108153832,3.6719424102523046,3.733954359825509,5.067845013687273
4.202599523925078,9.122990260286938,14.643939471904517,12.84581519390172,3.534372823935157,7.625793229824413,3.6551428264886536,1.0600055686395846,10.070948128886656,-2.5954617107151625,3.3741082673692477,3.4910759017146256,3.644634301086392,2.9891560215857216
4.796201542006783,3.698905582304738,4.876849480073794,9.868014442495625,-0.0788739055658211,2.6444438606419265,-2.4232346819295603,-0.9628418399733364,5.262833191997553,5.332625067606002,2.5251045144239583,0.7365241080031593,-1.3700033775471503,-1.9118705823555917
4.551946344042788,2.4953675444423866,1.4033407851222888,2.9977645775173034,-3.9452451078857447,-0.702395778998721,-4.596389813589056,-3.627391388598479,0.5784793600297782,8.007088437093037,-1.599866588563489,-1.1829936986372716,-3.3869037650146483,-7.625653588418952
6.360875436203292,5.828673066874345,4.9820223806204,-2.483360922843442,-4.5928449898798505,0.4871955134680665,-2.883287327157249,-4.554185302113535,0.2106750818704217,3.991213480915492,-4.94748010494962,-2.515693233834889,-3.197131151821459,-7.209116212755481
8.038964890729929,6.947500137831844,6.398217351739193,-2.68008616816915,-0.7702978196074959,2.641487180716344,-0.5305128401243625,-2.860205885684863,4.451518062443743,2.470812053784514,-4.719705874713631,-2.8082095910146463,-0.6411904367852841,-2.837032119831816
6.543136120081631,7.458074844823995,8.251258959640674,1.945757348778197,5.140712226869887,5.329452158336968,4.080101106552685,0.2494692960680335,9.657811624397016,1.6909362198179356,-1.4479352413259834,-1.2409311447064129,6.016901998575685,4.283380797516887
3.341209313887864,5.655446861490918,7.059245044844917,7.342542559320176,8.756640647198601,7.440106704595773,4.883818595133887,2.516252031988518,11.491314467928904,0.2775820502658915,1.838982735542496,-1.6484462161252988,6.607758340648107,9.231720248305678
0.1904088679014913,0.3994211486940316,1.394273418860912,9.416232243254369,7.226215415232683,5.762522250957685,1.2669775831687513,2.331119148871897,8.483064410123514,-0.3988894833184156,2.4028144650262018,-3.842145491209856,1.083103988643771,7.598824046939654
-2.3354399113373514,-4.32516061982119,-1.8961431795551256,7.173812501279952,1.6564912043247837,4.162490228953436,-1.3792606938547616,-0.2414773038761772,2.950837798546397,-2.524870708612933,0.0353168139575572,-7.019010861105761,-5.528249750056303,1.998814449666232
-2.49286190645801,-9.163177025490445,-3.779483550510972,2.976263544628876,-3.768476538264924,4.004856563208389,-4.478118150880078,-3.744930648570943,-1.1840099199545389,-6.010307559764219,-3.0532036520687864,-12.027618996470352,-15.511264610147713,-4.383563824112377
-0.191911630545668,-10.797029853740597,-5.413951646939398,0.1188152767856554,-5.262408097716083,3.36361512235058,-5.677254526155309,-6.460316997883766,-1.5038662660342208,-6.7263178466601765,-4.326738030176715,-12.812433865415075,-18.35480178709143,-6.920311507157631
-0.9832310411512296,-8.186792109312764,-5.613892316608068,0.1080621439524778,-2.468281345050407,3.060866370885182,-4.060988818114938,-7.406662996010565,1.4978693222836048,-4.747309863868675,-3.0044885445723155,-9.000009714938098,-12.870578248334295,-2.9067776495010995
-4.440365445240265,-4.427614296839304,-7.055566347516343,1.859153551125023,1.5383164609399138,4.283349305688178,-3.083872289571864,-6.589150620799447,5.477258697039508,-4.629827158372001,-0.4062427581592942,-4.6158471009581055,-8.965121004713263,1.999383913491247
-8.020097848361083,1.656722721974053,-9.707880023811867,3.07649555535541,3.089030963190719,4.6208207509561054,-1.9843270296419373,-4.619790369493603,8.332253258222927,-5.722052973429665,1.450597907443476,1.799660620096267,-4.1346658762610105,4.917343459650536
-10.568517891906222,3.732262980410989,-10.151340824668566,2.2722067114860165,0.9574880750746172,3.346089067708855,-1.0722116702420887,-2.2604032636329165,9.364576296188822,-6.129353425738798,1.540976035385876,4.564761390017369,-2.4699662590982907,4.888475384080096
-7.171807614343799,0.996797842049602,-8.71302253311019,-0.2867399274163666,-2.994030261114691,2.4336903461074613,-0.8727609816790514,-0.2392932604762676,8.884280859805967,-6.5675644948858665,0.3595027103998207,2.814163695178923,-5.6905622969541545,0.0899671923195903
-1.870839235001652,-2.505469971454432,-7.839353709371285,-3.136814918165693,-5.801733655037692,-1.7267355761582048,-1.109190823082834,0.7845339556618525,7.241222919413309,-5.252026715664012,-0.8994629712827651,1.2179719510466052,-7.446445359781471,-5.132248835901357
1.2167345932728983,-8.53985043114132,-7.007286789316307,-4.82557454465519,-5.956676229354349,-7.00914061588413,-2.104525743069169,0.4323745083123373,4.543141068438792,-1.8454327892804552,-1.4857509813884824,-1.764544462526401,-9.097956135192236,-9.016525494027125
1.5630773159175997,-11.033372899902584,-5.890171670671739,-4.705377764549108,-4.245157498481703,-8.221670101878749,-1.450889046092077,-0.988688194525913,1.2147663584288173,-0.062577514531431,-1.4640533930973283,-2.5563603353301536,-8.428209056903528,-9.362438223173328
-2.303450488789999,-9.269302616568286,-4.857919125786598,-2.973808890922148,-2.435597944995549,-7.705560298358252,0.9688763090895388,-2.314668197236573,-1.5693994651590737,0.3746358734141909,-1.1649173241181336,-0.3967562984134756,-4.281290492762582,-4.767547055213458
-4.17188089053752,-7.525834909983996,-0.1244832514745607,-0.3294936944986961,-1.3890934959453047,-5.187759071583352,5.276029342025294,-2.03814022132087,-2.448695414965564,1.590112361505776,-0.52131087945091,2.715352312877238,1.9515086343489272,1.6896263280728396
-2.246683934775381,-4.210859652610231,8.604629470110776,2.3337134024246,-0.4874116265460244,-1.4817655051783256,12.210987113217644,0.6114519231413738,-1.1420080620661697,2.933718013659683,0.8796060123987242,7.941401506442367,11.346018887793376,9.74561089535622
0.254616337771871,-2.164256286488448,11.698578111323377,4.140445047792877,1.2484386175143345,-0.3933586631220702,13.979896293558902,4.807123876456786,0.8317304776537493,2.71720317305122,3.0569441968706403,9.56296158212383,15.202579631470863,12.431968401588191
2.1239869031706853,-1.9383760987856808,9.379866605067422,4.497333256986469,3.7266115513471703,-1.1599214310834605,10.24223918476577,8.322217210294156,0.922401907159542,1.0050488528666526,5.071274347726026,7.127658115725245,12.90189098529563,7.134685678065881
1.1998264783545385,-0.3424116805357758,5.07026041834093,3.37307606809531,5.648303293069658,-1.2545839955678133,5.669577498682807,8.858227056259413,-2.584175323290053,-0.6239347198893153,5.420704129779215,3.634107890183902,9.560303058628058,1.5132198335132436
-1.3970854771973578,1.9130297752989904,-3.4413033598062865,1.3568161833929082,5.821088612638055,-0.3015015116325454,-1.6053980437526436,5.594070151641542,-9.119499636509742,-2.4743203507281404,3.214489644193489,-2.418980779928531,2.9584274715216003,-5.848331699787068
-2.2213543504520388,3.4140749387259075,-6.227901244369044,-0.6416790108553911,4.477045429494017,0.7190855774763973,-4.4198052053446455,-0.2313457580516242,-16.134192872279186,-3.408834399697345,-0.9568024115432756,-4.544130252640851,0.2698399738860313,-8.932211643108008
-0.2004344377533083,4.4802735243006895,-2.557936301511107,-1.8765737781006135,3.108442571980441,2.1100634631911226,-1.8055368426160845,-6.152720234962184,-21.03396626797489,-3.037929397581242,-5.379618415396399,-2.108802232228008,2.3749899464498943,-3.2077875510321867
2.8096286094373832,4.668845527429267,-0.6147325471639244,-2.1010720978322937,2.917006104857208,3.1893294201906475,-1.643256971950405,-10.04484883151132,-23.143852309415895,-6.359279418029494,-8.552150585162202,-1.2252403552744866,0.8440836635750553,-0.3618841021347294
4.6577836992312776,3.686852331296855,1.861772309185294,-1.5703142251909838,3.513224574844368,2.8346221956899638,-2.2670121259245275,-11.220699555025034,-23.94867240949077,-13.35986807346761,-10.21121790394592,-0.4096241587524119,-2.77663588172754,1.9473613470602116
4.5577059508848805,3.2214754741099862,2.011421636850176,-0.7926533855237228,3.309443336770461,2.065364556265682,-3.207916683896997,-10.376284243919242,-25.34279866728375,-14.683553962038188,-11.028749505837553,-0.5583466965077549,-4.669891270933323,3.560414526375672
3.3465809817278456,3.169701783374592,-1.4348922303884355,-0.2288610485374445,1.2691723612934511,0.9619079836762432,-5.635408018857485,-8.698676468892254,-27.515458276589477,-10.744976886307445,-11.354506903621772,-2.6042298868385365,-5.886932201974908,-0.1211845061933888
2.6638681153620465,3.09607071151976,-3.3988672586318174,-0.0938915080171742,-1.813504039752288,-0.7585184432566177,-5.524030849627209,-7.0085735889115535,-28.579698363473128,-3.028887397306183,-10.468560583795032,-2.882213705059453,-2.4857592042744794,-0.3296374705558854
3.334896821050389,3.357184296523845,-4.780584474486616,-0.3284383246898414,-3.9076695528451486,-2.0543738819205206,-2.918140947397144,-5.515597107318022,-26.45844188570687,10.70260340993618,-7.31865133245748,-1.7304605918465064,6.482593603497058,0.5842526518674678
4.335325101894203,3.2206123818869163,-5.406537441011004,-0.7367212690916407,-3.680032191449622,-2.436171072722626,-2.652026422095645,-4.070812970348873,-21.240880869371345,16.138227895000547,-2.0502496170555986,-0.8332298237804378,11.260153747471522,0.0266409031245379
4.209005167123619,2.687358920100816,-4.404932488160629,-1.1894910324098538,-1.828432825888079,-2.957057887366028,-4.172291559827029,-2.4498381861484475,-15.54653073504619,12.645352282793308,3.4161975321158757,0.4292524416934442,12.442046529175466,0.901935795996588
3.589583288639091,2.0890356834394863,-3.6213903797079703,-1.7134032925053957,-0.4710286061538973,-3.8526492395368472,-6.035147622147413,-0.4334723195157757,-12.302204512829627,9.924783260700446,6.671577472931279,2.4728460098693894,11.200113905946148,-0.2237829322534323
3.2374316603041486,1.2711331769259218,-2.74136533336612,-2.364765458448752,-1.2097518614058345,-5.114914897727699,-9.135559838930186,2.1599311414219287,-12.03504144013304,4.699490445392827,6.909664230697587,5.2054466325666535,5.298638712659185,-1.1441209972683546
3.340400202023889,0.479070409890303,-2.3195741443464986,-3.0177509420864377,-3.771183265797682,-6.863089944106105,-9.423175626543369,5.304240747998758,-12.472563257260449,3.676911634790187,5.764907834866044,7.805026113457306,4.488396966901767,-0.6448203569375885
3.4016548030073976,-0.2568717754298069,-2.7117473700871053,-3.340317482634437,-6.453768833511587,-7.915149061468544,-6.560735433594858,8.59125957133281,-10.975455154094526,8.37271390509395,5.97573828963888,10.279698021719806,8.854300698190432,-0.4572501261640809
1.904900176999129,-2.273525903765158,-3.183621796821232,-3.0597757525288447,-7.769557736453043,-9.149544659274826,-5.111749703832191,11.36750475828869,-7.327412547034443,10.41981426571598,9.09223535199687,11.55948781969398,13.805141816438804,0.8700985841003761
-1.7312758389698026,-5.629433608275825,-4.003763016070176,-2.2678155701176763,-7.583417440617139,-11.38317630884838,-4.257688072800011,13.21512355153132,-3.915341354132092,11.553683139090223,14.340082758919612,11.30387962188002,21.551313780610386,0.9838372343310284
-5.122492529561748,-7.1310074016363165,-4.483629276255778,-1.402296435391433,-6.754177286526177,-12.914714600219614,-3.728045521069205,14.343218360136683,-3.051765097892611,12.39937569104828,19.491340081706934,10.41808614039368,22.141188120437995,-0.1216631921460615
-5.467863167962397,-6.856818149234681,-4.515749697945045,-0.8622114968611276,-5.9118015430038255,-13.25891291876694,-4.29376885127534,15.396219994375546,-4.315628457957143,11.731809888597867,22.610365730712857,8.501068277575818,14.526080344278366,-0.4325963545594626
-3.06492089720271,-5.125509948546354,-4.084824950004993,-0.6379596958991138,-4.8248627339376124,-12.324747131940883,-1.851744482294016,16.730586527997065,-4.882294214965933,12.172504248812263,22.967200796043663,7.203028313372286,8.375553398406902,-0.9773263775132895
1.0824186154663955,-1.1208325945596462,-2.947042034043076,-0.3643018994396962,-3.0206757949640872,-9.1030823039473,3.694263601188283,17.826192024866963,-2.635258241016146,13.547897831645374,20.67221750480467,6.703559724463814,1.394713923414652,0.2497470183797255
4.173942914091895,0.351366614849658,-2.025231823803484,0.2460292001878565,-0.8380954171407922,-5.264461592008829,6.473715204098147,17.484321694128127,1.2335760609208997,12.814843331798414,16.049275671614094,5.08958955106117,-1.0184948058572478,2.007953438596131
3.170663507390757,-0.831119873427439,-1.266089343959184,1.0563687421431007,0.4610833411507036,-3.356040667733581,7.053659247534682,14.743815757183835,3.0328506961747443,10.240716812638388,9.725485315028656,2.711452860347637,3.0490416027605547,1.427068950802957
-0.3119837781172163,-1.7854657212631146,-1.1678814400815576,1.6315072631941456,-0.1060283764916283,-2.038792686258354,5.827818457861815,9.731193906522144,0.1395178635163212,7.559587040293052,3.1008302122082974,-0.6182809051271548,3.22359500226701,0.058749221766387
-3.6799207162106335,-3.5962603997184965,-1.9993497844400168,1.7066604883067598,-1.8806813084163412,-0.918939213197862,1.516484174353844,3.6999612677680727,-6.259166229921068,4.240134554370666,-1.9229947062928705,-5.24790267337243,0.9383230341635151,-3.063452899103356
-5.2872563471126615,-2.7362909956691834,-0.9229167206276948,1.4972500518148926,-2.5962440371144746,-1.007020949623148,1.0566362309294748,-1.7193295840478786,-12.020196024619825,2.621499705599187,-4.227161999123646,-5.947762336739194,0.1324650136033718,-5.121334105952014
-3.229911387486662,1.3426165801999654,2.062792469361003,1.5117779200193082,-0.1156548683751497,0.758246078377817,4.569064448814153,-5.351185431698912,-13.59982536780277,3.140538561488068,-4.5540741889426615,-2.4147089938647643,-0.7953999394795443,-2.7011590541521064
0.8277569452628529,5.69076325065813,6.74758379210936,2.0357150192668803,5.555042479688009,4.197642555374667,7.949051045884277,-6.766863029851256,-10.792168878508068,1.2862599942922115,-4.963922963394953,0.3009194908872405,0.3196722183197595,-0.2199093594640473
3.9139885546564135,11.257496318439138,13.894852186370343,2.7691734768619223,11.862439481682372,7.088407603381734,12.731571110524566,-6.090527661914488,-6.227047102569886,-2.524266743046588,-6.85593680028987,3.304308005827849,3.958988734864024,2.8635002656502326
4.630545222900337,12.81261943992316,16.368629605574455,2.942540423079687,15.433845819661869,9.278334735119554,13.76187103048182,-3.827766453095252,-2.630875869216732,-5.417404963136921,-9.455287375005936,3.2339194568898346,3.755621189802161,4.851888834843146
1.6029234437783222,9.556355796730966,13.81084389687372,1.8208823272265309,14.54041009505012,7.772807300344837,10.238027854297542,-0.9562301644527822,-0.8743041899054189,-8.105798285954481,-10.449587329810946,-1.029794634064525,-0.1371714194691763,2.604984139264362
-2.402598747121008,4.944894803982463,10.150221991302736,-0.7662292783619971,10.248272185880964,3.8686099323048015,7.652536417112717,1.078039596162368,-0.4713326684763657,-7.965500011187207,-8.321550140264057,-3.667077364109268,-2.5776419999278604,1.2411137081135526
-5.036674414282341,-2.5467833285613035,3.618730337338672,-4.206796802345366,5.410805889399773,-0.437609467267625,4.7368712441844165,0.922411298461408,-1.258771264464993,-4.30695067393671,-4.0731274212860695,-5.610271909840271,-4.714416501367808,0.017632046619471
-5.460593811421291,-6.214383572796379,0.9810102213481476,-7.323815097890509,2.5101313784516157,-3.697856970007901,2.677675097952803,-1.7201290935627584,-3.843724676607594,-3.839161634890268,-0.5333222903840626,-6.867770033719345,-5.332439250514768,-1.518705922999007
-2.5366455624615067,-5.3041069070937175,3.011449918740583,-8.929396970914816,2.1525166476498905,-2.2556428672759914,2.3786583981635188,-5.5761070928168825,-8.191246580626473,-6.15556974167466,0.1286548818795427,-6.389868888819139,-3.511221451269823,-1.2326090647394934
-0.0788689753490244,-3.600338195013339,3.1914351486539028,-8.445236182383523,3.199054315144049,0.706666895111812,-0.1948128605218595,-8.462051013003153,-12.212159756610122,-9.978027503333744,-1.7807086349240553,-5.028043137097509,-4.08131677938591,-1.3439501958738622
0.3399288446992694,0.7492888088561243,3.109399267167016,-6.242157610759461,4.041846594362594,3.3874515658946933,-4.667833313666879,-8.857229741982305,-12.466025729860494,-16.79483438772252,-4.090953023185741,-2.3164999238249817,-6.72668390254001,-1.3334146483587226
-0.2209163687802278,2.897375760784312,1.5747080384684664,-3.4543907742907054,3.7866700783772487,4.7261741842775695,-8.083299071894995,-7.163539191036941,-6.795424854310953,-18.2202453532338,-5.0472208331978585,-0.8762714982783255,-8.4445512373808,-0.1893408496949143
-1.598111786349507,2.3737021747927245,-2.4236404843677457,-1.336518033235352,2.522487546000878,0.8769551362871767,-11.014104135689664,-5.5023294275657495,3.5620470424975856,-13.86240622360164,-4.844736102642811,-0.9022402610826364,-10.059355292166956,0.9623315202284144
-1.315966306606691,1.4472958861733225,-3.942789099740825,-0.570975047098397,0.7947438384606436,-5.459977450586082,-13.525056089445872,-6.070907749289477,14.54065730221815,-8.465482290484168,-4.948429527177977,-4.039600039916312,-10.346042671663438,1.60093637301889
1.11893542816834,-1.1920984324359658,-3.311755059458156,-0.998462931810975,-1.0422604352090357,-11.334559094040175,-15.102156466644212,-9.342377800903778,22.091809555250503,-0.0085962653180314,-6.179194776346359,-11.28323106735941,-8.79119780024523,2.076255114134383
2.848930328864673,-1.885628458750606,-2.7826547814342413,-1.9237274036662129,-3.046099355957802,-14.159529190745957,-15.738019470769888,-13.590800513631129,24.81743620594185,3.07186928454352,-7.806913684142334,-13.546314426629069,-7.498713045966076,1.463491739809175
2.35177039508314,-0.3885985649931682,-1.4338223345323586,-2.6977568468320463,-5.416052545738406,-11.642790479991184,-15.18328156117441,-16.143657981835286,24.359283471181364,-0.2537120807101672,-8.60245752302741,-10.931772173132082,-6.086335597362185,0.0588434777050765
0.2166221873400081,0.8823285635665008,-2.469754689625912,-3.094769507679919,-8.057178710968,-7.859543857577758,-13.432889605391033,-15.331010316072891,23.776118853817746,-2.032159354193394,-8.466088313128271,-5.6433113928123975,-4.609139410999012,-0.0589840043378593
-2.8389391462300417,2.784857879640896,-6.342022729218417,-3.248129909814484,-10.38502360987987,-5.75371569298706,-10.318385792517551,-11.561083624553817,25.690322733423024,-4.307500738594067,-8.551177920154327,4.5387647562993925,-3.4218019329790894,-0.4296238560699877
-5.013800429899898,1.6957904500201049,-8.395862054445379,-3.325575787304487,-11.582630048290094,-6.150012300112428,-7.7470767267735905,-6.7424685335163375,31.42131703122945,-3.861532112863884,-9.58949499706932,8.369648668203034,-3.0798369316535656,-1.0363124937960075
-5.277385273449691,-2.9358243988361874,-9.266915762896677,-3.3083446775003544,-11.17858027705214,-8.703966925218344,-5.806317925780205,-2.679449595233521,40.77820399707903,0.6566012282686393,-10.391500993438758,5.334468788688783,-3.840586053000191,-1.2618382375343205
-5.3451233523967625,-6.237750392583319,-8.366541929175684,-3.0520189484103355,-9.522530588027111,-9.11959580585125,-3.5048032211941083,0.1510561503432725,51.73838169750908,1.6412467503488102,-8.568485973386053,3.113771591602426,-4.26642764321018,-3.0277420831169213
-6.575348510059458,-9.000412188795233,-4.710693952877263,-2.488702958076217,-7.722791465188521,-5.880616246350755,-1.318017213580417,2.5056330634017385,60.311118519902,-0.11058122105353,-3.1143207608210624,-0.8502308405390205,-4.5284231959212,-4.202156552968995
-7.521827251467829,-9.579965158716924,-3.584628760081827,-1.7152555517143142,-6.964345571911316,-2.217076622685993,1.1783462117858874,5.260702899704523,61.77481315842159,-0.12232546748464,3.830528207873744,-1.4217916286975203,-5.481641884095207,-3.000008588151834
-7.513103024409309,-6.915545564739483,-4.835118466711277,-0.8826960904134538,-7.6329671753679875,-0.4764908038740941,4.0310533785126665,8.424179232816602,53.527701813291415,0.4483194782667458,8.25115607004977,2.6014459493739026,-6.919905650637736,-0.8312095302765757
-7.19703113952516,-6.62085040645271,-5.4123580670819775,-0.0360537298956558,-8.913060446852011,-1.4849206230059806,7.818637731966319,11.150884812540852,37.68669421965519,5.578277544400391,7.76350032040051,3.9652281590272622,-8.4133154840086,1.833164010814054
-5.218645192459071,-8.243534448570164,-6.353528380229955,0.9086143055453276,-9.24831970532358,-4.7133325711625975,12.724566382247794,12.608802651165735,20.787715516331986,16.310019053044382,4.042797174611724,3.9327352449013504,-10.047948161998187,3.814170097346465
-2.119867464311596,-7.7016078872634175,-4.654112856783594,2.032023148399425,-7.417720546829926,-6.622852759367147,15.44367715580726,12.769712228557452,9.949579095806726,20.129130903223288,1.6033523242569352,3.8408751885513737,-9.110651371407188,3.0947115611046945
1.1460668255821664,-5.844081910663619,0.2668462835496124,3.276030920024141,-3.4756830988511247,-4.926954750985679,15.90496823947974,12.3783637691085,8.114153888865289,17.405250593377737,3.7996261651020298,2.5664736675942,-5.241076638947331,1.2935519412642973
5.056732126062412,-1.654836360879559,3.747478118575724,4.439205200150312,1.1544959138827586,-1.1218662646395137,16.31368885043323,12.21810869701973,12.235628084976902,10.45686037352763,9.690990864915562,2.570716928917097,-3.8896037879179466,1.6213084715221329
9.532817841107612,5.653267574711252,6.435032587465875,5.285574661308687,4.558456138809124,2.39913575313873,15.936897236235955,12.437079157524115,16.01223296916265,-3.7318640239630807,14.721799231146186,3.8997790416731495,-4.654011423611235,3.214119808849872
12.119263199614014,8.269465301844853,7.874172219289914,5.646510760261691,5.593430684471588,4.229671301823731,15.977602873462954,12.539302672789375,14.87672521024092,-9.57557302713348,14.636675742947084,4.095937561028784,-4.765393637599015,4.530565967195525
12.044031776521969,6.084920780470871,7.105148160612551,5.4377785542003,4.63782891073468,4.201709705083656,16.757437985340857,11.93526241504476,9.100314074504556,-6.52218397930024,9.075323588533635,3.571826136818168,-5.222881424228332,4.224065022552501
13.133093752981813,4.211932765702093,8.341188685561187,4.629373270757448,3.279755464245192,3.753629385529516,14.945177523762917,10.441345329172036,2.705919495884821,-2.718424999611928,1.6782433950672342,2.925062347893901,-1.2425739740654187,0.0302996031684968
13.806696210694968,0.958095000484117,11.370535415055052,3.2419920853280786,3.1682246614558025,5.562691141907086,10.685383012127236,8.283312133955896,-0.4117850921133907,5.548651803025922,-3.1942333489492043,1.764652654318266,7.893937622403358,-5.803917022677787
13.26848639184072,1.4810372827092144,13.100251787146275,1.3855947860056157,4.878663171972747,9.953395185917197,7.661227881864823,5.721253752608135,0.3588535749086219,5.378093701424505,-4.026719168158941,0.5705877235946072,10.379720890603569,-8.409952080250411
13.522858804779698,6.776603990867522,14.229858416615844,-0.7026468888837343,7.624078574354655,15.08347672702862,5.413877031165731,2.7612906225574747,2.314134860526927,-4.702076372317513,-2.8911608335995,-0.6439691783976321,6.70625339999369,-6.826961918714652
11.487352064313072,11.284478960530468,13.825412717647549,-2.655862828880224,9.979277031322656,19.800401573455197,3.421348507086464,-0.7545691361460491,1.996471360599436,-13.946083927160377,-3.0400402716334085,-2.065856211425196,1.4851692450327756,-3.1015846144133543
8.25462254837245,16.370372099037485,11.311704450435649,-4.014430119850513,10.997030136913448,23.15725436276461,2.4088723042787907,-4.817023282908938,-2.111625378015141,-25.53832618009245,-5.841499360846349,-3.5900328093570315,-7.810120875809753,0.5498980083045206
7.090208727593094,17.51281261769678,10.034103052545976,-4.32625413869831,10.825153423646668,23.588324114393743,0.2865465361836583,-9.030631465628217,-8.771187046316612,-28.025266729485928,-9.839955240403343,-4.4545496808982765,-9.272299016227894,1.876665156820556
6.399007085103587,13.510139333385794,9.778878235417867,-3.347860808651252,10.390411651335956,23.02307877967562,-2.914768215476998,-12.703849665513712,-15.178376691907548,-19.09513414428763,-12.475578731424267,-4.572916736357286,-1.7994672960120386,0.7139372856962131
5.2224449043816685,8.371059585433338,9.114389853481786,-1.287093018042679,10.49173415732087,23.8217236595644,-5.645588068415729,-15.15720121902106,-18.872630204436057,-12.676201691703191,-12.51829420912984,-5.7858483610706575,2.030835071263903,-0.0527568823470057
3.4349921584784227,0.6163342701997926,8.684083665398722,1.1269836649861666,11.093626207366462,24.240010402220054,-8.28217041458545,-16.03774541698459,-19.035552707774013,-5.814716742206932,-10.888667748479994,-8.01474582488476,4.779014785424564,1.3141816657127687
-0.0812359352786661,-2.983907302061658,6.372183245834791,2.9516747687768508,11.377474165046216,23.315039863824385,-10.475917140762624,-15.5141817918662,-16.685439167528827,-3.94620596661504,-9.392433797480578,-10.090132388516247,4.618142045008635,2.698518149551605
-4.360579560191731,-1.506354810687564,1.9161431764076704,3.618058935176254,10.439461177516048,19.691712192727167,-11.96912389248663,-14.320673199602563,-14.003300750056566,-9.749351901853473,-8.971322887358308,-12.359579838112944,-0.6598209846575485,3.23546546932648
-7.825347027800811,0.2901209021801842,-2.885954927642888,3.3354168012420065,8.007408743769304,13.713479151173788,-14.09021595037266,-13.596712370472789,-13.264933063308,-10.807094441439997,-9.311335791585154,-13.046397020116578,-0.8382001824626226,4.069019506365107
-10.76955870043643,4.274846608168892,-8.563145024319455,2.868535539119362,4.59269907747424,7.328581510390745,-16.748396842466498,-14.447483760123164,-15.822587959196545,-8.759140191428685,-9.965395659839748,-11.83400900801366,3.4802001229938684,3.6571609002265766
-12.247268614317129,3.5586458488426613,-12.195621843086943,2.7763415098343778,1.0221322326821929,4.735435281663203,-18.24325099217865,-17.29981012767297,-21.520628521940655,-9.300848185807713,-11.428570865210348,-11.355022281159766,3.725408445781798,2.671270177356518
-13.067971665182409,-2.794967184222002,-13.291862880287566,2.7905514203865183,-2.174319014202849,7.094319687392838,-18.709049507312145,-21.40476292116811,-28.7945545749592,-10.590939752312252,-14.698623795937085,-11.217069977460898,1.43811826103024,2.3296673230838127
-15.350506826835309,-8.46273901064541,-15.013177611111812,2.0032533726272903,-4.971614309851597,7.889070437406309,-17.92476803344044,-24.94060211564096,-35.3975180729862,-14.26887544054872,-19.648375686917465,-11.608854010587915,-3.741493380873407,-0.7862718433388598
-17.2094264497617,-15.175963270876457,-16.60927561782237,-0.2018080348367097,-7.526837672664513,7.405441345263531,-15.462691882515337,-25.8580934223464,-39.369605813441744,-21.127581209326795,-24.066040958959963,-13.050521452409608,-13.405379078296816,-5.035840743251128
-17.318398177023052,-17.5649936882773,-16.971746046187054,-3.334143563397713,-9.719405052334253,6.967430428219806,-13.265466381995202,-23.03939946405775,-39.7672894689541,-19.218772173485124,-24.754299330825177,-11.722314702884653,-13.952643438897132,-6.194316065145565
-15.369735865659878,-14.332455531141282,-16.423464680073486,-5.958595201065096,-11.068401802350676,6.728291920020847,-11.23323822533172,-16.985667400020304,-36.86144326083134,-8.140381121230863,-19.98713817685127,-7.562643865397263,-4.921412159414363,-5.028794380402828
-11.452489109573415,-13.748184027192028,-15.12212647750884,-6.79984237216919,-11.142888313054186,9.969063472038137,-9.5759311419047,-9.494860231458064,-31.801693924735822,1.5332877242138414,-11.049545224663198,-3.1460495000861246,3.717643551505526,-2.517383964340912
-7.7074528690521475,-14.495659672194652,-12.922426279450354,-5.7994176045383,-10.05107910662765,15.890802828878252,-8.783897735175936,-2.521838574335619,-25.956388137172446,12.260950062638194,-1.2642769106607314,2.346008375537595,14.946673229765558,0.1869069917223242
-6.877732414205066,-12.567672035705796,-11.014192794991128,-4.103339798462643,-8.481612025084175,18.135710199776817,-7.019208974497887,2.953025048486097,-20.24632110410497,18.297909592981306,6.713448171274409,5.818384115738521,19.87677376245156,0.5252497049866904
-7.855107053859585,-9.062854983458235,-9.496147418255566,-2.9474044090336813,-7.210063523641384,13.358236920353932,-4.426688122482335,7.230212497388027,-14.82947817152381,17.505056002730495,12.828543242435025,6.699398486184703,16.51594084823504,-1.2703614320388428
-7.502364720687811,-1.5270407313520795,-5.343197150969012,-2.4717208062955898,-6.529959398062317,8.679512809346637,1.2120485893167574,11.222982675569414,-9.35940146969215,23.534903066843537,18.987015203761253,9.618826200689124,16.830324437980934,-0.2495825108831428
-5.543742492899462,10.851320747422612,1.3723882214805083,-1.5804996877555195,-6.139834909171203,3.428150682345144,10.536160765579613,15.433528456552889,-3.679152260361669,35.07308047422761,26.53414662622376,13.895905171341614,18.55726141697082,3.463234611704075
-2.5058044228281715,14.732829035726716,5.300443120366299,1.0271333032174397,-5.532009292731921,-2.579970680937968,15.12692016612094,19.41441810920336,1.5868881343991248,37.76827669648494,34.35131332797698,15.287727571121462,18.310962287977173,5.203120814633055
-0.7364998244149237,9.8457281812325,6.693758834755602,5.619827924454668,-4.422920136278371,-3.551564120931549,15.098425445328708,22.0749691735903,5.107472394248674,33.12800637688029,39.42966736751826,14.242748071427208,17.720141311911547,4.547049207766636
-0.2334617995770109,6.367424918650209,7.768984801761738,11.090211705260636,-2.804252217340064,-8.294585116490593,12.42605262223028,22.47862074698884,5.648759534478721,21.710220273406428,39.345500761172175,11.452160778868258,14.593330084844752,1.73917691042496
0.1528656524325186,1.4829923849440836,7.393153739262484,15.705270227444244,-0.7116889440374266,-16.163916322135208,5.0441703291479545,20.46138153628295,3.020313008797892,0.342751466310835,34.272178112038034,6.020430094977387,8.579273128595315,-2.693028265571294
0.9531223442097032,0.964699992510076,7.285263246874459,18.17428869229833,1.8358800207761237,-19.03951925882797,2.6089266717038213,16.688834886806976,-1.6099727167265314,-7.466721975474823,26.728139946471405,3.767262482103164,5.557183570672954,-3.896097023903007
4.050009770161065,6.645908361460951,7.610004181085458,18.151862727789805,4.549168512329743,-22.55912398139088,5.495952243578907,12.291713973814886,-6.299578459697024,-0.8817288475905242,19.509208877227856,4.995607131287452,5.391583136886572,-1.151054713637859
7.073696827893507,6.614073214379672,4.797941449195136,16.033059908144068,6.637664008765029,-25.1937618662042,7.078702596147331,8.447818066036028,-9.347915019960515,3.369841451321424,13.881832272557602,4.107073447127864,3.1304235641753726,-0.1145155617202128
8.36916664045934,2.1796383775227777,-0.993936635909372,12.572422428210665,7.160324289150175,-25.792607273337254,9.505135931311672,6.08784382743309,-9.999803814085354,10.49674790582944,9.583930615031711,2.2907958169499323,-0.1789388562530045,-0.5185048641827338
8.938476209086145,0.6835149602265252,-3.2159973318314665,8.754845569919937,5.859969672182665,-28.9089323475184,9.571941830284342,5.643276286415805,-8.469018735477825,11.37956675272178,6.190400517266454,2.8413972117842903,-2.2487294490397143,-1.1214142534633669
9.23224248695102,0.3687645727672116,-2.0990327366366603,5.741397045957633,3.668109805120231,-30.01065617859366,6.331423351279401,6.791822712013257,-5.508013254854795,3.392715516077132,4.082972159725287,5.218469662678772,-3.642569803964565,-2.103846757350671
9.768115984845137,3.9453984590001063,0.9024048280562172,4.478896866912386,2.1677701546270924,-28.91069649777656,4.6492748543621065,8.42440326331527,-1.9798816786889333,1.559322181540319,3.9196855438344183,9.34848455123756,-3.755987250069291,-0.255795978597512
11.738809130472388,12.811456663450404,7.352903300570966,5.058464005847014,2.294770843477025,-27.168595928104544,3.685350195147252,9.12039995548382,1.351681099296535,3.607741334246916,5.31721745514988,15.895278712403904,-2.1577765722762496,3.131122047435725
14.221442059744732,13.691062858728802,10.27724469285136,6.488838992815467,3.4538591881351266,-24.679948514625902,3.025566968821401,8.031541627828794,3.92664091902941,4.470890186122316,6.438279130812333,17.162557782344496,-2.5777835594719507,3.7359518795307336
13.830907185564577,6.695036573140627,9.430834702089085,7.351934939215525,3.990602692373941,-24.78258418096581,3.4705187080930022,5.560312007574609,5.532168307796226,6.428359498803908,5.252491152464785,12.69123787630694,-5.010225973025121,1.497764851987618
12.859817768154462,-2.050545358076889,8.224095179382562,6.896276204701309,2.688536773393608,-25.549704179578992,2.9320603924816107,3.182614404525097,6.414633096952784,4.148593128496253,1.382492369204897,9.858661536798929,-6.479458206627885,-1.7703094072221384
10.93413113131642,-15.514611730553009,4.982346015503191,5.527103019238709,-0.0866698988285392,-25.317161043208447,1.4969666337308574,2.4032755046229117,7.170853334509296,-3.144073768178433,-3.3421397645914794,7.032272881333564,-7.703159256087751,-4.70133589825244
7.5058324849578115,-17.780569744319614,3.399078638055636,4.182492835380231,-2.683480205120375,-23.643123328469965,0.3853180342078918,3.6301881686503137,8.39468798033716,-5.534184228859169,-6.327708226999185,5.557773327372469,-7.923382431754261,-3.7217194482687352
7.737257574735947,-7.178474257579739,3.845519237765277,3.267922456985737,-3.6046769590836254,-18.68008139902265,-0.7771992072928826,5.90340420033673,10.3142539669006,-3.83540814322143,-6.373544306595093,6.692541075302223,-6.635791987028641,0.7394371632736971
7.701064563526392,2.686397480892085,3.693015973594934,2.330284263801694,-2.705317182097289,-11.95719828288436,-2.150084891280525,7.694446802603608,12.685846998522806,0.2919028285066293,-4.517707214053409,4.542393250597496,-5.977370890023997,3.598983970723537
6.707359441175536,15.697839537694383,3.842578841151076,0.8333884644496976,-1.069635757301441,-5.312714587808205,-3.61672856686022,8.04115714965102,14.969010993439916,8.960722978441911,-2.8424640086961546,-0.4795545449682544,-5.700673470876582,5.588442801002894
7.301816347029391,18.593504283084847,2.9568962904036287,-0.8943460591202594,0.1592104206656444,-1.522220911374288,-3.858924330572844,7.030465305380616,16.576600727021315,11.348527463296872,-2.536254110469798,-2.8978435434351053,-5.236185141976367,4.592973736963357
4.259492837560013,8.480668528191575,0.6913132756407517,-1.7568433478634908,0.7385324265624007,-0.9739767784329852,-2.736476222696226,5.338556560924012,17.036799367377647,7.042888187274471,-3.156858981957328,-3.510129697057505,-4.960885858018511,0.2295788921066457
0.9705535549325046,1.6051697744108728,-0.543224481566167,-1.1218795169950404,1.1745163244491224,0.0385438735554166,-0.436264184080585,3.475006084578048,16.12800471611583,2.3142130502560216,-3.6579045327501873,-3.204107949252176,-2.880399799504105,-1.1308047024276875
-0.8442224399416938,-5.555155317472519,-1.0291070942534672,0.0769247006679165,1.8014620818579203,1.922539324215637,3.477865541963605,1.5795194609984478,14.108492606282583,-5.368366151404285,-3.8251213766973455,-0.9699208627567832,1.1668184542754756,-3.2220523221722592
-3.4023911239125657,-9.446538596020426,-1.191997410480259,-0.2960996615989444,2.2070282932974834,4.693483169935919,5.953964881232611,-0.1132554380218096,11.913761466557007,-7.726050632057684,-4.403300145295418,-0.2247725011899369,2.988675788310374,-4.450518480845304
-2.521232389949608,-7.284274516228678,-0.5757821883653776,-3.808927716998248,1.6505521949827011,7.585017856376444,6.8806303589791,-0.873057826005283,10.943749093464778,-3.6087749315966615,-5.775656836919978,-1.0303454413510682,2.7883593708246903,-1.7082877465320188
-2.163845515358889,-8.211265521582781,-1.5813922170829722,-9.824112092309509,-0.0087875200304097,7.710021866594661,8.319119530585812,0.14378016460169,12.253840062872223,0.5964791767282707,-6.836532426685388,-0.8054666392380796,0.4183700850493896,-1.9252638438602052
-3.908051582156836,-10.744745930898864,-4.328311067492503,-15.582699968031378,-1.9095599355889696,5.595983490982377,9.581336750176057,2.932548634977937,15.591052098211954,7.095942470628894,-5.647168197173137,-0.2325084755356453,-5.19002803434643,-0.4695420865897477
-5.162867794862342,-10.777631956922011,-6.912761748533395,-18.119770219889773,-2.7771973170399,4.301067551490513,9.723511165522943,6.1259512054419005,19.154704883380965,8.697910346162482,-1.5262525826947917,-0.9790862977682376,-7.533687486336815,1.6801360143169537
-8.618970110494304,-9.480145223531832,-9.85997619693356,-16.485537458471978,-1.953085504626003,5.508808045721997,8.829598881241266,7.687861357190105,20.574283393234083,4.180267105959203,3.5453941188291296,-2.8842403537341195,-6.584826599890414,-0.0677535530934695
-9.506069608858995,-7.910230033601016,-11.406154904248648,-12.45200830221224,0.0770508193908163,7.663335256395953,7.399051738154015,6.379725815755746,18.537468250076103,-1.1298725245833592,5.935057440598703,-4.089055000819636,-4.963936320440975,1.2138770419905582
-7.278681335792816,-5.622986803829696,-11.140343042607888,-9.1579544683864,2.0464291567763557,10.052299853481122,5.234559598376377,2.6863128311136717,13.757128121541507,-9.298673128017182,3.202788685156465,-4.809936561233039,-1.148400847919061,2.4294494256449206
-6.151421548269642,-5.528667083151778,-10.672672550010908,-8.82692986432253,2.742871557199216,11.103831684117957,3.7085115276290894,-1.6693400000832916,8.409275252479109,-12.066486719252213,-3.7169814148651614,-4.4902750944218885,-0.1781719734783291,2.64692974367462
-4.839102025016803,-8.023919253053565,-9.463495296436395,-11.354323154015802,1.6505729218999772,8.268321130240366,2.9937129152142856,-5.123255097375429,4.521745710698452,-8.322244793007945,-11.034649405040147,-2.666933906960017,-2.438008144601098,4.235534801535989
-7.388783198783828,-9.64855642112405,-9.25974277667827,-14.737386690528773,-0.8926177957289045,4.384664392571073,0.5837268243318868,-7.22662320349089,2.7322129676837648,-5.957782510476535,-14.925939706228013,-3.7235449337716497,-4.608052022977045,1.0769031819048973
-12.395156907225392,-11.069183389178498,-10.36656725887037,-16.813349530407585,-3.892441053020896,0.4005030919462875,-3.304679446987008,-8.386132815321126,2.373895152941742,-2.92800703516782,-14.215150578840449,-7.700874369278495,-7.910878804607863,-4.157015111065645
-13.999672838113009,-10.4605219244272,-10.257690143295116,-16.850649775348337,-6.083849034376199,-2.3505772124378024,-5.4827779247920905,-8.964655371174345,2.468196179899937,-3.822131868174309,-10.763694459233154,-9.550517005999804,-8.064882188782335,-7.169796601429713
-12.910992554996952,-7.061728897561658,-9.312717938535542,-15.854446237553269,-6.483997125016886,-1.3428778455847863,-6.194415176793167,-8.921024117321046,2.408383354078937,-10.110556255611218,-7.593255707500267,-9.985419811518062,-4.412322339115114,-6.944787108361563
-7.291785633330889,-1.8536291621516447,-7.197937656748557,-15.570452487909344,-4.994896025323778,1.0636356769646986,-6.276128315737759,-8.356305907475583,1.763396934076353,-11.806037877197337,-6.660159608107605,-7.804071308863219,-0.8116837886574608,-0.4391900691509525
-0.2355922331140972,5.978509852574362,-3.400322931134766,-17.098005310556708,-2.6436294177477406,3.5012645090046832,-5.0479368174072,-8.100825455545227,-0.1176549990468101,-9.913472626656947,-8.082787889031891,-1.8740242887383156,3.860764690277653,7.447318768214467
2.592774209719604,10.169790147977697,-1.7387747669349116,-20.097332922502886,-1.057720530595737,4.909132035214291,-5.797498617119146,-9.322910647518508,-3.731575769896439,-7.469334716277458,-10.92038075475973,-0.6100836787255287,5.772838168850571,9.997338336153758
2.633736874849236,10.299671876238357,-2.2375593377406164,-22.970827409674424,-1.3489744294734258,4.747670466805003,-8.72146449611642,-12.312506434939516,-8.422006532737598,-2.6231638447725176,-14.195043553935257,-3.928014641278871,4.118027872970278,5.805677084258228
0.2687899354661763,8.869863185671441,-1.9412074581231815,-23.750368006357828,-3.235621994593778,2.96275886957716,-10.685962820063628,-15.742953257711443,-12.058876256313846,-2.410613863386033,-17.066985746516025,-7.389346132818211,3.641873416360154,-3.3551812738203197
-1.3975247942831963,4.176719744891612,-1.6078496877517747,-21.151648484098008,-5.203524011074828,1.9632738352257528,-12.372258880809294,-17.429335800887355,-12.32511644990642,-7.399167782012235,-18.40231554867449,-12.799419119326508,3.348723312715454,-10.99683187171342
-0.139042332702975,3.007012832126553,0.6501927522929954,-15.29719510449686,-5.6614597542059055,3.138145380395498,-12.882704467705832,-16.07595342818882,-8.78584032208497,-9.8831900185884,-16.802833769578665,-12.458749415699488,3.3006108604405484,-11.167888587011458
1.938693753251516,5.770643623918898,5.423423284052087,-7.749815840979231,-4.145612122598843,4.390891218056747,-11.642708497691306,-12.395328054628964,-3.715438597571559,-11.28321836054204,-11.590799014075657,-5.35455222390115,4.231210038277393,-5.26139479842325
5.963320382292382,7.579683439559602,9.133194170993503,-0.7431408796189203,-1.575103955877836,6.859363753708842,-11.184214144629864,-8.531225824705693,-0.5656575434626454,-10.19571731415668,-3.953871711433431,0.1862679600987084,3.313598021566261,2.5759293959191485
9.232030041642943,9.991710098457029,12.242997713527982,4.064550575157618,0.5818735010613842,8.46051505269623,-11.21946644232496,-6.365610999222827,-1.2464350872245564,-5.149257699556017,3.0778617824278154,5.9627072807298696,0.6468487876925886,7.70221710219382
9.01139141124156,9.843343330050253,14.132097697177771,6.542759825369814,1.4458584452084189,7.4658938281584435,-10.905851536330117,-6.28458222964904,-4.684190689452722,-3.514850800061649,6.264332330258419,7.028523218950804,-0.7446426271776965,6.890172820287738
6.465251869879862,6.343950376024981,14.023455728302322,8.00547564306747,1.2308148772318752,6.539078098029189,-10.676896722336258,-7.348983486815701,-7.966520598416928,-4.883323896313264,4.34580760307518,1.609549500916543,-1.2529339435228657,3.4136862292257444
0.5769172588139736,4.619282366579908,14.615693777148673,10.060754826270848,0.8421711959529077,6.678647157605487,-9.5479195687234,-8.375887150470671,-8.917361166629558,-6.4952770336340935,-0.9475684105542824,-1.1079260147695922,-1.430631546885765,1.746409477128529
-6.152655950960602,3.929592323110717,15.590472429172513,13.257436598518767,1.0549008090244136,7.987412578326652,-7.415031834041629,-8.74981658195543,-7.69590229039752,-9.834934598213888,-6.006501062031763,-2.4960421781468893,-0.7046071932062816,2.651045013874769
-8.418789830964538,3.4141308849940804,14.96791174275593,16.632441612886137,1.958567633235333,9.600537535481395,-5.483134736238364,-8.414857034528591,-6.17008094076359,-10.096273797673804,-7.866912516510219,-4.04517693039346,-1.5209763762101496,3.9795426264482554
-6.487106708995208,3.9650085662645114,13.084515255471825,18.532045458116656,2.983299809157586,9.919599643301792,-3.5605066990261065,-7.505403851687918,-6.035555345797933,-6.837622328257493,-6.275526659932627,-4.194008368818919,-3.977818351673954,3.737946685820102
-3.463388882434098,1.8915839814270816,9.682722280383985,17.992019349155576,3.342544666410454,9.033867751968804,-1.4938205639898443,-6.256583539564598,-7.608410682040269,-4.543164346068142,-3.6839264461660086,-7.841065426521318,-6.403132553187384,-0.0891451929032212
-1.6886363777235935,-2.952897310801714,4.357474664748153,15.51403758029126,2.5364355024917167,7.656976547176847,0.508571392658558,-5.156486691974589,-10.127512592346791,-2.1416168472987582,-3.0980651161813384,-15.081608026635502,-9.341102669022929,-6.617385813998752
-3.5717062332571263,-5.749003163172246,0.6166324818879841,12.650641468229416,0.6551089965864527,6.900636179740218,2.554594814820851,-4.790052846984025,-12.719814658919558,-1.7083236196767873,-5.4215967147783,-16.791012296094515,-10.03424138881917,-9.110023674300384
-7.452636287908051,-7.079417827899704,-1.46658025811462,10.837647856228864,-1.6114614539262746,8.016638097316411,4.588392054195791,-5.220011710814347,-14.786982121129466,-4.08446730699558,-8.478212942941685,-13.387766738725324,-8.044204187883313,-6.679456904587029
-9.75634641095293,-7.066562689369001,-3.709166858908928,10.464104897513067,-3.241327865228694,7.4902363509001075,7.169638799466308,-5.552375952362588,-15.68684438417658,-4.557337592193565,-8.691329365461577,-8.298253804921627,-5.5908959051275735,-3.598834984280068
-9.000564720483828,-4.709128115416831,-5.290244172329077,10.844185203542857,-3.330914757423216,5.2770678043220265,10.344800170361273,-4.420571830506653,-14.648668793207086,-3.6549458319849633,-4.204041209764071,0.4433894163480898,-1.9037203930368751,1.064596671599074
-5.684336782657122,-3.713831286292632,-5.704093636708002,10.949968616823943,-1.5548139603696605,3.702383745789464,11.479849860325078,-1.1937513806892568,-11.5070617161752,-1.6331570883174455,3.191530969429344,4.317548463533275,0.2806852535242691,3.7558070956789606
-3.43248443554255,-3.952301759999096,-4.937213072438406,10.21106901806003,1.5819529594329005,1.117536599264335,10.484715561972347,3.2459054629328605,-7.50601899412826,2.464880105346244,9.183932698724046,2.587325705763336,0.5170892330471284,2.17033146152418
-3.5014923268394766,-3.6346328362340232,-4.579619638240311,8.774444574603095,4.853536443436344,1.1608195537582144,8.851797185572826,7.090263022475664,-4.862943503599752,4.871641019793822,10.42809171541705,2.1299254421108555,1.0676866487957462,2.013220650448359
-4.526583032957514,-3.4979194046581243,-4.607541596498373,7.1554999416439244,6.782104004872945,3.1093282399749964,5.94601132738723,9.14245050124956,-4.937200189148161,5.648933716577552,7.45903835722612,0.9316236721719928,1.178574701473722,1.5298060555215804
-4.146738524833663,-1.7200839242045558,-3.916008394044648,5.702667209791684,6.293374082636738,2.687921708560797,4.424397496587736,9.808413640405211,-6.5992376489086375,7.032306295004474,4.366118920278517,1.952199153528301,1.395686691910665,-0.3558302913864971
1.0495266436115511,1.9744285313956296,-2.8234790309037328,4.3656223094875415,3.2772492864190035,1.2729216638818923,4.613065922193222,10.50197331126896,-6.683510609287168,8.273455762218012,5.327550504211384,6.244590728724869,1.959838352662178,0.0056736079953062
8.630662957509381,4.748203078973657,-0.0590947125948887,2.9165028704302784,-1.2287520241487826,-2.622089511946291,2.4830472147540488,12.058586090570628,-2.571633592878076,10.23304426951409,10.974828512291875,9.617264407859077,1.9655004584736977,1.2557625681567837
15.5769501996576,6.943953755416493,4.637626173455327,1.3442047593495126,-5.391649095938337,-7.939773592554763,-1.4776637537348465,13.85267834656959,5.312996489522581,13.203319936465933,17.823869682856696,12.97758840836004,1.575393918147724,2.9309205963296057
18.10945117778487,6.671352533121231,6.172936105230593,-0.0004084089755131,-7.391316685581339,-10.457144669856593,-3.618343333035285,14.600559491829696,13.565651240332985,13.644658275367451,21.29602135689901,14.182256215414927,1.5731386634550335,4.4241616802394095
14.68982148795464,3.147398890850432,4.513215294368679,-0.6764017657549779,-6.33339594073232,-10.42489030809905,-4.400970942067064,13.972152380127577,18.586346052488206,11.566595576470045,19.601150667461525,12.39987926644196,1.889062359147992,2.678621874971112
13.675433163150837,3.063348602162206,5.059743442713596,-0.596111279657201,-2.768455791468151,-8.351461869169635,-2.9186621973278686,13.143750752977718,19.5747388182566,11.541595667100832,15.00596877224307,11.482390930257,3.548599596979593,-0.8122266558612592
15.414937714155784,6.146454354854446,6.931294543812892,-0.2083703785727237,1.5497481198530745,-5.427009225643638,1.7057830869156951,13.497865180221408,18.89436843301528,13.065493303967193,11.467929054400622,10.792145045125787,6.845038517542632,-4.027312004455139
16.819569211623058,8.010578450447728,7.60282486626366,-0.2109266002710512,4.614785479320661,-4.4851969531521485,3.2078830242037357,14.782399256220554,19.476354284153693,13.83766941766042,10.969312589298324,9.767449871777684,8.912438150829015,-5.175077672076651
17.86550469910656,9.89114697290578,7.826619781869263,-1.0123965621294069,5.299008537841708,-6.001184063528775,1.676464867736342,14.871280292533038,21.82511931693824,14.617867124841272,11.988503684406254,9.029949270318395,9.907745730724605,-3.0476903931571977
12.336120908615277,6.785947624371114,3.6221309535993074,-2.4000524043217446,3.9503414792024314,-9.12299149206704,-0.230400871111206,11.734776861667369,23.547691355919817,10.135018628301292,11.407425869480887,5.810425395036749,8.678214184589583,-1.1253027994922504
2.8260110280621173,-2.359191208318895,-5.740717965796184,-3.697577229634671,2.048305132015704,-11.849057613764616,-3.906764724959751,5.798640909309023,21.77824144906731,-0.3891853187341781,7.855603475550875,-0.0086360322592665,4.403621807209442,-0.806524005891885
-1.4696787980325487,-4.635488643079044,-9.39238414330614,-4.274194191425112,1.1540761796994603,-11.837712295843817,-4.878875815670364,0.1465056127498236,16.004701783494053,-5.351107748032436,3.170562790599673,-2.538472287806917,2.668833454749161,-1.2475870344372804
-0.5422689354448231,-0.6629220725486119,-7.713311793452799,-3.975793163093459,1.8927982587801169,-8.983528879628619,-2.731016647560732,-2.018372567499509,8.509928430880999,-5.445091779985682,0.5524924451125588,-1.9887884580345332,3.2645107090472694,-1.5042482226599796
2.862221997078709,5.536375394198647,-5.577272415080405,-3.141509319536105,3.6649592936145625,-4.578311813115925,-1.013609230776725,-0.4233434604342343,2.137556561013469,-3.2996577932354927,1.251018077567731,-1.484383485617477,4.795279613046831,-0.4001722010342328
