AF3,F7,F3,FC5,T7,P7,O1,O2,P8,T8,FC6,F4,F8,AF4
5.157047682386643,7.5631755298085395,3.0731999353506083,6.7767056506963055,4.9724171405699416,2.446943682593581,7.500884296939312,10.68891739528674,4.82556022643065,3.564372515309942,12.79148443121466,3.564672767125419,-0.1308086709799957,0.4273832836490143
3.7237588950295466,7.296679874361136,2.255568314968855,4.889104656931385,4.11993854149193,3.0332872195347846,4.506163488319244,9.202027128931228,4.137573986857404,0.1624640981784052,15.497014720593672,3.241510545676089,2.976511967965457,3.757722349569228
0.1986999077800833,6.631892294895156,0.1988447655277774,1.1756524929465058,2.1287144559122666,1.9084649960290108,-1.1286560804206391,5.458567142713008,2.5995921340782537,-5.696499839060955,12.640189189882086,2.4574001892601487,4.588110815170449,4.4285685170014055
-1.1439505908584735,6.05572995649716,-2.3919353062686355,-0.4745215927536843,0.4347332019140317,-0.4572476484643104,-3.23222741242781,1.45779715181499,0.4333376867329583,-8.406914159792354,5.51576879931406,1.123089495301965,4.374992098490729,2.7815455979474883
-0.1148652574839646,5.503414694345235,-4.186182420021829,0.4487569091921198,-0.0985017403863146,-2.7003092961437893,-1.3280698860547528,-1.1603761986756496,-2.011830590131673,-7.834274524678242,-2.1107897096562347,-0.5196090227958052,2.889510210640204,0.775167886562258
0.3482998035741449,4.775112831916335,-3.794356650689693,0.2008347676282678,0.4281190025973558,-3.5693595577584283,0.1297029662826971,-1.9743898689014792,-4.091329118372784,-7.48257522121917,-6.773324350441854,-1.9416806103426796,-0.7288585672518052,0.0008822573521598
1.20687617965757,3.9664876215320746,-0.8982386923228347,-0.2790263153057435,1.2910345458843722,-2.795411637655516,2.625638132260832,-1.6523602573304077,-5.116816218736819,-6.084343371398435,-7.654629976260615,-2.653945007455704,-4.384875620790412,0.2354784650456238
1.172314053374412,3.4287165130369885,3.0507750531182936,-0.6895088624849899,1.7835602264016863,-1.163521605675168,3.360520969692827,-1.1611749203394304,-4.860612540912587,-5.1388684176090615,-6.622186881996978,-2.6653436651607763,-5.080796934044648,-0.1399295581719251
-0.1557349232382059,3.3450474185133494,5.529264408879566,-1.4916946957969015,1.606971941178621,0.1636780219757128,1.6644008857984995,-1.0527899820619275,-3.732970106730402,-5.055101040276566,-6.129939068070723,-2.641224096550168,-4.373990782013486,-2.331587378094415
-1.033651554739991,3.433462992826467,4.797626758401403,-2.152504010676135,0.8587057279995101,0.4684267629790035,0.7290032017652802,-1.3056516175248305,-2.353072773625655,-3.8056850388070105,-7.012822785948721,-3.4282327592120936,-2.917356130550508,-5.737069956961516
-1.827814646258365,3.1375522715779667,1.4084872277528255,-2.7522396540991023,-0.1271759670973651,-0.1319132777903284,-0.2167874196077038,-1.612001191565987,-0.9473178060600348,-1.777779493141472,-8.10573107616116,-5.194130545104343,-0.9424640242055254,-8.335939882987915
-2.214771654302722,2.1460641602881587,-2.080477770053093,-2.8209747633555544,-0.8481491232073815,-0.8759796459810829,-0.5280948027564548,-1.67374079391848,0.7313188261935828,-0.1654134344072174,-7.743805297435447,-6.971869041347542,0.2288771152266868,-8.478479333686181
-1.8991074013289195,0.740072606851033,-3.097807106484641,-2.2276938444818195,-0.7104021199807633,-0.8943447691387831,0.2868792334700967,-1.249620091836665,2.842945602935753,1.2380393309159454,-5.444840061056056,-7.21246447271281,0.4214379159089507,-6.330129565971024
-1.4774383389947026,-0.3773402963218473,-1.0770524265585308,-0.607772004778007,0.6447890165110586,0.2446770843223049,0.7680873941103913,-0.1122845812379189,4.915765819177917,3.9197666601113226,-2.15461763291459,-5.046726995936421,1.0515451372326603,-3.621887843101945
-0.768738935935319,-0.6430796753261134,2.229975891358972,2.2792757806043467,2.8596844515185467,2.23559186311714,1.1913017791305645,1.7854235337488866,6.026374038582087,7.797677118985572,0.8866801568613134,-1.1839125442373906,2.349742427081896,-2.062636442895272
-0.57624526999764,-0.1166333905121419,4.324449797739298,3.4788881802465697,4.760516376504796,4.148458016115178,1.076692716537462,3.965482548786202,5.617059398727232,9.5520714036293,3.1971706468663648,2.4179720616633418,2.207066831231033,-2.026574342825757
-1.0332930499306257,0.5270634377971213,3.951718249672421,2.932494201748375,5.056490745486052,4.975975208619261,0.1448882905489162,5.351449505801874,4.104529940712929,9.22143964418373,4.903724704622263,3.9083879233077887,1.569690082563806,-2.689327898472349
-1.8319821612621463,0.5133582698007508,1.845940684973229,1.790240273233492,3.47403813373937,4.341765815000272,-0.8314522809488583,4.844208371424955,2.5922457312948453,7.696507017761157,5.8169784862593055,2.8069006182764724,2.137750863996541,-3.2185268300503047
-3.233835381844216,-0.4003789315308133,-0.1685319837236463,-0.6812800368529782,1.2764129451106,2.8345889046745576,-2.054152703970385,2.2647232631650667,1.936022341856841,4.155175918674526,5.084215942896247,0.1581438536569237,1.562452756334284,-3.627475669582108
-3.608167226586851,-1.6819169489226518,-0.7215598562532612,-1.891107203940724,0.4218195140463159,1.5764690975440343,-2.8629918365595377,-1.2165692909112558,2.0918428161722358,2.2384808650623,2.0302305385797723,-2.4324903312939234,0.6979928161225546,-4.456878559693912
-2.855978860902111,-2.396347438182616,0.2090959937691074,-1.6706431937805817,1.857667380899532,1.2646833698292532,-3.10105715944267,-3.7945281710953367,2.35325481464324,2.1041582509530152,-2.7027222344405253,-3.961932551053515,0.5750915903332647,-5.813054153121811
-1.4438297940335036,-1.9338684742639884,1.553333294014923,-1.829524402949196,4.472593445376358,1.52432662466944,-3.2737111276773163,-4.457217000338112,2.13749192300222,0.7536170628676575,-7.102860268506809,-4.434497609652254,-1.8775488314576507,-6.930155071512148
1.082479746112497,-0.5204216844221285,2.10479088136883,-1.7642249781951092,5.8588643684468575,1.2691219980469892,-3.1674155021660417,-3.8460684377398415,1.460324293405522,-1.0474789990289988,-9.113280776523975,-4.347900049409853,-3.607272542480771,-6.736032196193731
2.5018125511739067,0.9188402276516712,1.401028007506195,-1.459495739280622,4.411804477290799,-0.1577907430558554,-2.921458348599164,-3.6247514202185975,0.6836714394064014,-1.7214304212223115,-8.141714963192179,-3.926111235004301,-2.393411500422126,-4.772602056516838
2.718162942203196,1.4551814486335657,0.019135678179408,-1.0698299153735211,0.918449158983659,-2.143040447923555,-2.5630440557102623,-4.826630281287594,-0.0267500116879801,-1.5037138730248332,-5.321790924840997,-2.883032613690196,-0.9709649565946638,-1.506343662329401
2.7837953842430303,0.8580408024288495,-0.7945340144370316,0.7270774997159112,-1.9130214497969409,-3.1791675314248757,-1.90457562138138,-6.729244259593664,-0.825043106218855,0.0539269831110604,-2.329128848365528,-0.8790340124954739,0.7621497187014472,2.1985377712227354
2.1496071174314144,-0.2585104548359895,0.0809101689981037,4.011263975027647,-1.7021630037469828,-2.222359204014386,-0.9715392842500438,-7.40221157259964,-1.7690218053929208,3.3414685017461725,0.0455307178461357,1.8833845220093188,1.874715277805045,5.789814501067989
2.092165243634332,-0.9493865887593004,2.8693526781433176,6.134064681351434,1.5290454472849309,0.2305175994245587,-0.2284863815296406,-5.495561525913895,-2.464118436256025,4.991759058266381,2.2200165166472523,4.593305719730906,0.7624865191103972,9.179554798461613
2.720688958346806,-0.6877514368513289,6.644324686186989,7.232607795801172,5.304151444300999,2.4227335151357723,0.3136442076673151,-1.6145541001747317,-2.3398006490939487,4.99563859876989,4.872320194959809,6.393526673943041,-1.0085548482389508,12.289135637972306
3.0876118774273733,0.2327526276234217,9.828714428220472,6.90274339258422,6.707205066001885,2.773268081212267,0.5034057953554445,2.020503919372869,-1.3471989930983934,4.0130778967504,7.811829714614452,7.014109593122762,-0.798956844980383,14.59430256372423
3.49080974190337,0.9312149562889056,11.154717796540565,4.441188083079053,4.6846771121418325,1.1527065577181048,0.1873825514530288,3.3451878819198457,-0.2452962023315055,1.1794445975671042,9.874018825215314,6.857571859309461,-0.1147065525034355,15.238160756410885
2.537662730704751,0.6104975388348639,10.394447593075688,2.2052941348220303,0.6898309605798083,-1.140146344180799,-0.4027096917486959,2.0742203671396418,0.0165375193127443,-0.6582390645707666,9.961838439240177,6.496165566809311,-0.0016928156219786,13.668019561266243
-0.0062765988358167,-0.8377642814134032,8.310193334111215,-0.0705496868822165,-2.718762866402757,-2.585979978804155,-1.373537828527177,-0.2117743800822951,-0.7125551159492867,-1.5151973821047218,8.186707927870224,6.134705442157093,0.4644277750340714,10.218980022407909
-2.528880646466804,-2.743162707879972,5.916991690663851,-1.7905741596597151,-3.944422126322056,-2.6569030502939466,-1.5915067790835458,-1.4990011405617634,-1.5231579003699145,-0.5370227391055741,5.929959519999221,5.560338824287205,0.025036787603398,6.09774970401152
-5.375179257280928,-4.158502068905088,3.7216597089595433,-2.4155014938825223,-3.3155431481168685,-1.988087269015746,-0.9427758614925285,-0.987149120106027,-1.3603004553227354,3.115034264075921,4.678777832347191,4.527710074771151,0.3158728544147605,2.731938298261119
-5.549435510902879,-4.586825495197777,1.5760550091754608,-2.939031900549312,-2.3603328908282357,-1.5493431680865084,-0.4666305075893976,0.4183188068062897,-0.2735983246325304,4.017766162934627,4.6965687927489,3.091989401993968,1.5607812454975658,0.9742344830299414
-2.498278905614686,-4.356764348674406,-0.8199600019827669,-3.0008451193803243,-2.326361094910788,-1.7356065433377328,0.1082148110185411,1.0489862239423495,0.3693904674163684,2.330482776371225,4.803644141213471,1.5662848811634635,1.7212766845106278,0.7464655205645805
-0.2791299846378802,-4.29685064281926,-3.3245598427366208,-3.5052334663313145,-3.331050476095957,-2.1741488878965622,-0.6196740960281671,-0.067698140351128,-0.8671344542054973,-1.8230207221058743,3.5359093754299566,0.2676978475283853,0.4427336535776649,1.332230984498577
1.831118491127509,-4.920167313784196,-5.266582054951363,-4.593934603028742,-4.677593573494801,-2.2290864373107357,-2.9263534211099187,-2.462283894092294,-3.9019942388918336,-9.82304625371496,0.6543771163338947,-0.6028313210917235,-2.48266192631453,2.012967089891477
3.2021228709338025,-5.795050597110842,-5.938520985561247,-3.961961135830458,-5.70816021548702,-1.5889047277982478,-3.506462891744365,-4.690392898008057,-6.853401266051489,-11.447257952373551,-2.368771184672549,-0.8884461674736093,-3.893530376263657,2.5249337394262974
3.0678062010757228,-5.7099185982711695,-5.191477054614173,-1.6901870850316845,-6.238264428098598,-0.4529854045106107,-2.558173898481056,-5.474570782159645,-7.499642937912423,-6.3886053415035775,-3.3504124774005524,-0.4559923653382238,-1.988727694471505,3.0486197643520683
5.154403606405219,-3.604602234100346,-3.5854368982929943,0.46226678615215,-6.297009802110011,0.6573046866887768,-0.8293562032486309,-4.529341467561113,-5.179141010069475,0.2831925346865392,-1.0631757202957166,0.6415955278354337,1.109823035512264,3.879153168016304
9.264846256433618,0.4457470509482304,-1.993845847599622,2.908778149446044,-5.730546386946803,1.1723340156885325,2.405220331403958,-2.507497528882463,-1.3345527236959045,11.027700919599685,3.746872873815661,2.0279779477812614,5.193396519440904,5.132132688616882
9.69255403609001,5.028976155876331,-1.0547531549580196,3.322332142358808,-4.297612487336617,0.689811689111135,2.793634463188532,-0.327042842663114,1.7737036513543831,14.124356420625585,8.698634082885185,3.1507340265703023,6.248645781941948,6.66670633002656
6.748591969423479,8.207622160340472,-0.9252168772521968,1.2016008292153448,-2.184546461960016,-0.8203602971361761,0.0824896843619746,1.423422002858917,2.8890041276475644,8.360389737984677,11.155246880876144,3.631912040926857,2.427556995785649,8.11366845018473
2.3222238081235287,8.744989993326513,-1.4262007985576082,0.7997942052589327,-0.2492156301025891,-2.855700767007871,-2.120357793504758,2.5680382805200983,2.4069119599840514,2.957557077089258,9.728939082273772,3.4634484137319816,-0.4422473984348404,8.860418762314026
-4.825779552519128,6.810055112716649,-2.293376408702241,1.6345175106746548,0.4842933495020256,-4.486922155155908,-4.776444226784618,3.076312798798778,1.44524898832863,-5.003852110906709,5.052139999220101,2.8634932752287146,-3.281359297758822,8.089737314163148
-7.432004347299559,3.671002565976737,-3.259437164657085,1.881397062144765,-0.2872872309060135,-4.854628540881864,-4.857159599954312,2.8950499006810952,0.511601494459077,-8.661579221479501,-0.6042984204039108,2.0136290150428264,-4.697534338920339,5.122377885009313
-4.910897514573643,0.7128755428780122,-4.010855527904441,2.248487376817459,-1.775645911610944,-3.782058517017642,-1.59796357801972,2.081402401147185,-0.8199344722342303,-6.441402696977328,-4.692644679824149,0.9935116034785434,-2.4236868891831715,0.0624736293494141
-3.555740402508728,-1.3925149636145946,-4.249029565650519,0.9405760746264104,-2.721610403212848,-1.969382635805136,0.2579632398544457,1.0137422691929423,-3.029511224435474,-5.852056527980903,-5.945867844745688,-0.0804162672053205,-2.371329132319841,-5.733380124397383
-1.6982565831765728,-2.7755693588351957,-3.9085072888032215,-2.357650438516511,-2.4874853308148346,-0.5090866670790923,1.4644481988208953,0.3427939778070161,-5.649608339235993,-4.9764231679501085,-5.05330562285925,-0.9804174603704698,-2.7649247793776817,-9.982621548141722
-1.2117612836454907,-3.833728089284415,-3.2852638964548984,-3.5762209371355693,-1.5792561947300214,-0.0687843575606841,2.6804236924453195,0.6348946771745929,-7.250857696884379,-4.121821057320904,-3.861830620073471,-1.4908508219763874,-1.648610503304897,-10.70464086176601
-3.077416180770308,-4.693814559067459,-2.829006176460016,-2.947450138908803,-1.0829126408201724,-0.4131298184381773,3.1072372365123884,1.9951874081058625,-6.444183396081805,-4.262040987943816,-3.684944712222208,-1.5447873089750193,-0.6677522416325384,-7.626439925381982
-3.281303502841201,-5.160684814148082,-2.723808064161064,-2.4974509516847547,-1.5588295886529853,-0.635401244106867,5.188826383338707,3.9850965394120834,-2.9579426815781997,-3.1460611682945423,-4.190233663261585,-1.1666646174255604,1.6116142761919223,-2.658973797447084
-2.4190186874976702,-5.068135077998493,-2.6837726196121032,-1.4391902208354344,-2.460154127524671,0.1458461886744029,8.940913215523938,5.879179833943709,2.0970568793116917,-1.095653165672884,-3.913783522234948,-0.3284674986056224,4.16535655112602,1.1312829614187123
-1.8844503528630068,-4.550867982032142,-2.2318492205205205,-1.1042308441007327,-2.616261650821558,2.1980367156798346,9.922349908561564,7.044152406914856,6.851047719195593,0.5353483109084545,-1.9148063483662237,0.9874495567693105,4.532488473203432,1.4980800747728686
-1.0790458004736851,-3.927696573883268,-1.2248597052639534,-1.7602498080384623,-1.2998382833993745,5.055251211344443,8.33433113499926,7.1982624098963806,9.617932425250398,2.0112212321136997,1.0803580546598155,2.4979742865394945,2.896665315428056,-1.4546614907649085
-0.2098123382461079,-3.3772387545718727,-0.099157096852624,-1.4405290426191129,1.1160917494327274,7.804648218428745,6.835997515855406,6.459148935302831,9.600550973615452,2.9748423266004846,3.2169576571204086,3.4922586717157067,1.3348343176629398,-5.382429823004978
0.6246054219398284,-2.811039833307724,0.4332665233712696,-0.4329096428506299,3.4657495630820296,9.512047625868425,4.569741926786285,5.22508592291897,7.169984437887938,3.14530789947629,3.21572771108149,3.2164955083079736,-0.2257845365517107,-7.446190602716131
1.4393608941343323,-2.066567704270624,-0.0315113500808665,0.1982152515598354,4.719800083464375,9.60441652049058,3.6001244827143606,3.9671559022935474,3.7302470421733656,2.450653795064526,1.5621994387400182,1.5621827180500256,-1.0487402103819363,-6.395977856329803
2.149172761071638,-1.1304959760581834,-1.2515450861195454,0.7189351022838814,4.698655875115667,8.12817330326282,4.406301789834212,3.0044016929209025,1.1486064485513534,0.635163648843599,0.0505561021673077,-0.6218253285170006,-0.7047539589138725,-3.370615164865057
2.489875070242169,-0.0998715800576461,-2.5191888387893115,1.3514365480626906,4.020674708091796,5.761496127890384,2.7424641474593274,2.3596400475935297,0.8137718096610866,-0.0117943675904595,0.1666144628297114,-2.0466578847824684,-0.5215525403455711,-0.8054644026958124
2.385354518822698,1.0141155593525246,-3.1651208610503145,1.958295588493224,3.4407680712106528,3.453991827070535,-1.0149919488757904,1.802097703910392,2.727606917029552,0.5664598518538055,1.809451449456668,-2.004797066126719,-0.3350963315724397,-0.4075199574757704
2.30221538561082,2.281121829287128,-2.9667332024145194,1.9655507162526635,3.2073731203855544,1.8039729605765995,-2.715224959713228,1.083169267195803,5.296865358238125,0.9101934467464472,3.389481976450319,-1.0074134905236356,-0.4684482369507947,-1.9277046292220603
2.1669923217451053,3.5606979086500257,-2.1880583790475816,1.3103615865503309,2.9614357230815376,0.6263767500128381,-2.886219272906255,0.1944428740432631,6.2030406140023935,1.532424284161282,3.0703509535536435,-0.4059326108565413,-1.2457616385225814,-3.702828564321616
1.9628955912883723,4.326204279124113,-1.2828685403025442,-0.5936353266049395,2.2036694491060858,-0.8217209541888311,-1.7389048756872798,-0.595084521523848,3.939054462542358,0.8215960585306484,0.1141085983774621,-1.246896827206946,-2.463625263603548,-4.310441406426663
1.7737884293945383,4.013888631256878,-0.5003740911158565,-4.010088067294338,0.8933094132919273,-3.003564924409482,1.5864825932909856,-0.9928307154154346,-1.0419959036640458,-1.5027715662621934,-4.552046335065992,-3.311394247983465,-4.1211179031254925,-3.708894533361332
1.9593277174033297,2.699430090691571,0.3346057721852271,-4.561996916841712,-0.3474769270956948,-5.3460856051506,2.773102936231797,-0.9935000196463428,-6.459896951859183,-1.4483752122342637,-8.77265418787468,-5.171042252323708,-4.485847125777046,-2.8602184451841186
2.5962705538797213,1.3583068530016562,1.708180863567116,-2.116701649364117,-0.6288129040410972,-6.361468295701509,1.7834664882673998,-0.8997506707567946,-9.588932678188392,0.8069295559038248,-10.30165362168634,-5.241031530829617,-2.802573456767972,-2.4135711515120453
3.347465517731122,1.227211954172997,4.02464152987787,1.8199327066833488,0.4966945905281954,-4.750079041327023,1.93421791681879,-0.9717636269582628,-8.90712109619501,2.618722004859225,-8.081652487503069,-2.976235044977005,-0.2556160529701513,-1.945103568597216
4.32681236685321,2.7128917758336746,7.202593686008006,8.385216838656065,2.589263078981745,-0.6443062780416109,2.373022000686183,-1.0584679432550717,-4.872263232692017,4.721250012700341,-2.9950017138131177,0.7374696253686608,3.4119303605171454,-0.5699138979052307
4.76873800093223,4.898734159007704,10.57053434465932,10.666235653306885,4.562687741921007,4.134518195560621,2.143028039680614,-0.6765910380444224,0.5900411987821774,4.609190673074112,2.459824096341123,4.233978882181416,5.642268978808659,1.7961609755665215
4.568282112225654,6.242963750107537,13.154940525824282,8.183431018041315,5.482530544753774,7.178623545106073,1.5890062614460254,0.4181824376424802,5.337836644230068,1.6928691601159416,5.561619482348687,6.140738304391807,4.85801377948086,3.984426837623067
4.281480091662368,5.915799239598538,14.146619755016394,5.1340773761381095,5.278938519711189,7.139304120395304,-0.4144983086707995,1.7115164240637402,8.046160412805435,0.5948059481452785,5.032829906827916,6.028444702104321,4.0775388800020265,4.532938329203327
3.696019061494719,4.545041238701293,13.229972783134814,-0.2116852598774647,4.733805547891912,4.56982300633287,-4.094525999730852,2.0987877953579464,8.445361415068332,0.7849354822070477,1.8068661322205588,4.31609800327226,3.056573634591528,3.125084280243377
2.81542837811234,3.6431082778805313,10.64341834449221,-2.5269561793910293,4.698653656392871,1.2959146127791143,-5.889398997239252,0.7595005001065185,6.912276290553206,0.3931356950212232,-1.732583829668683,1.7951424414604218,1.5014772385721062,1.013329627813803
1.6702529443471024,4.209169758482487,7.072338618621142,-1.0937618008844627,5.21880243614447,-1.0696845897434386,-5.862092732964742,-2.0099080411679378,3.982703139213439,0.1951785028293699,-3.5022094515496875,-0.7104134408074989,0.7055450915439799,-0.051521167108854
0.2141994309356003,5.771282746769774,3.485396484457861,-0.4074978407826314,5.399647878903217,-2.1548830896977087,-5.8755243443809295,-4.840919246103235,0.2119831262803329,-1.6663279264563753,-3.105727639352612,-2.437766244706283,-1.4441605590264717,0.6559018216032981
-1.548852035524978,6.748875158137414,0.883286773720465,0.8944780427688835,4.219933201961841,-2.6189338592543048,-5.16791831098163,-6.274358224837664,-3.6492009743572247,-5.489511998508831,-1.7902782094334588,-2.805963469069593,-5.788679937773333,2.3367064589236253
-2.19163269188458,5.849387487060611,-0.0808694248524131,1.433149000287982,1.6042560432717197,-3.132594613200962,-4.399635243734366,-5.83706690105477,-6.52764303960055,-5.63200945248397,-1.0996042235483383,-1.716122298988651,-7.383895511779568,3.609820768481012
-1.5766097892341857,3.30103881384892,0.5522324452002056,0.6147405959991955,-1.250974209071904,-3.6528705343428527,-3.730065081995952,-4.260085381298206,-7.268122624335734,-2.168825943919088,-1.435475967823594,0.2354981528855364,-4.969605778689182,3.8723751108015656
-1.100258722420394,0.8315886239361938,2.0344348891222,0.5710122151855801,-2.685471683567989,-3.637237473140877,-1.8996165362810125,-2.700164386570501,-5.224113459549269,2.244625774153719,-1.77438225653664,2.0162593114396112,-1.5708014413336553,3.7120087735193192
-0.4270179048863582,0.3295419833412016,3.3217303368486446,0.8582826543950447,-1.8831715483416096,-2.812518380390493,0.9801117784790732,-1.7484901467188791,-0.8363824307004517,8.862539606419768,-0.7442593019223271,2.8483349663206616,4.947254358839694,4.041722140929455
-0.6119671684217864,2.237550122595951,3.629275549832933,0.9048128957683652,0.4353167116925416,-1.6052290394610322,2.300020558729998,-1.14062261887895,4.269573853753158,11.201353334283253,1.943309999377067,2.7712806637070577,8.765443261696372,4.930601972733887
-1.958039225529808,5.025442640960214,2.724765841965997,0.9698537009985552,2.534056471656337,-0.8031841921924086,2.074182929781504,-0.3281676676211695,7.902469573665022,8.560093669517519,5.027777351647659,2.517584165935035,5.191051846093647,5.364870063009652
-2.7300870360262817,6.28230031131422,0.8384450990332755,0.7810500071258695,2.95386562644118,-0.8521535380936167,1.3401562356798635,0.766514841164343,8.417824917724959,6.0220301127054805,6.6613351871090085,2.7404049338278487,1.8690272654627096,4.193916551296602
-3.203044288716233,4.632476860233495,-1.5820341985441195,0.2773103775232365,1.5122526571310138,-1.4962047071477025,-0.5248360278691145,1.5966744630678429,5.688607018571704,1.948130307379009,5.963854956350766,3.266396416121154,-3.1546563980313325,1.3198877676210587
-4.072362529377183,0.9018799913537116,-4.038004758909398,-0.3406707525164649,-0.7327483609978493,-2.038139448899654,-1.5444008152032098,1.5534329801741142,1.2530946798377895,-0.6025105683589196,3.7652496772970334,3.0838649512087937,-7.119446065332645,-2.042149014782745
-5.093247032507223,-2.516938140920495,-6.0906344098491525,-1.1516122259332846,-2.402921266709598,-1.8948044823394457,-1.578368546940211,0.6260988081728049,-2.586304712271607,-0.8550004384297366,1.8196518488113504,1.1563384330076554,-4.222378312246288,-4.302957909482938
-6.250479117062643,-3.649066420407196,-7.537711012990377,-2.188056496817521,-2.7949453152405237,-0.9716470834494332,-1.4894176841954043,-0.5348914179276878,-4.204261155545941,-2.529867123987426,1.1584091358120716,-2.5861704395577423,-1.71568548379287,-4.778703610786099
-7.610762670081125,-2.589121110882041,-8.547888426986894,-3.444717331498879,-2.216985577728442,0.325230525431915,-0.7602058757685964,-1.224776353571002,-3.639970389795317,-4.784722791487345,1.0902594343579732,-6.933093129885825,0.7957417056020764,-4.162886478528112
-7.674835997828288,-1.3338238071200514,-9.46869821663197,-3.641576465563992,-1.5465256584501463,1.3316300664768232,-0.0464024512855308,-1.3457628689200258,-2.3659592561462666,-5.590557081926663,-0.1452613073477149,-10.089115395387092,3.252499386366189,-3.80738047973081
-6.310888288645785,-1.8870124791360667,-10.299357240761042,-2.656621698406739,-1.4644280521565882,1.4729531709836323,0.6438243697462188,-1.4372146177184906,-1.9703242913171888,-5.266918292184295,-3.54080987334018,-10.866227558791358,2.0490889879530725,-4.495081204580225
-5.632780509616422,-4.3299064857349725,-10.3363549133037,-0.7982278106485828,-1.9608945230209112,0.6102446037576368,0.9168738005925632,-2.013776122707073,-2.797835115126658,-3.165256351456252,-7.945537825643097,-9.421188057103626,0.6973160172370474,-5.793271309540449
-5.365091950911167,-6.67135697104897,-8.581247734291193,2.331040964076849,-2.4320425250526214,-0.7913892027862213,0.5673015024863303,-2.8702769723559878,-3.707936728735597,1.2073010716701276,-10.555548993486,-6.972398403929936,0.1093419984863296,-6.516038081956137
-5.286528329785225,-6.70779343365189,-4.825224189222675,2.9773220881980498,-2.256679309497509,-1.8899173589737008,0.2112898077436845,-3.109180085516288,-3.1983280343767517,2.70774375828854,-9.113435392431686,-4.830766203214191,-0.375781116708232,-5.850622348539763
-5.804602364539776,-4.2232008321623145,-0.4726708995795832,0.8999364795696733,-1.4227668886831557,-2.063915767072927,-0.3157818311079939,-1.972390589738196,-0.916406192130686,1.25516710596956,-4.059715334961759,-3.6486020558969794,-0.1674847438764228,-4.156366920865657
-5.412498515583604,-1.4322198457154038,1.905987268320076,-2.6117082623744854,-0.7130727933675343,-1.4450592717077757,-0.7957485907399577,0.2683735968668581,1.848799130749208,-2.0233496031104936,1.3036793386791077,-3.454523722026796,-0.1215198949110469,-2.7485834844303025
-4.112741434490346,-1.1195684356000086,0.3001940904190392,-8.597718885961926,-1.2281915109284474,-0.8525567748531571,-1.1365092092056304,2.2656831253927203,3.237235418304546,-8.47909005336763,3.04081004176292,-4.151763786903432,-1.1992684155868911,-2.831677433387973
-3.942006815001003,-4.096349217276959,-4.984955274479317,-11.279618476646544,-3.511361738043272,-1.084248683408871,-2.160302863833885,2.5698733752440366,2.5362497266557824,-11.341251678366994,-0.4341182014112146,-5.699183413624516,-2.1274616988220028,-4.450230519229073
-4.70710170403586,-8.336841249647732,-11.0996663749704,-10.304915847000728,-6.927049949334394,-2.180258180584134,-3.8455614313099753,0.8306418099127679,0.9371104409298228,-10.37089787508866,-7.020200413408558,-7.706752016609526,-2.0275289238217384,-6.338078710227711
-4.672723294158542,-10.69314091934375,-14.417950752615983,-8.305334663542299,-9.8703944861524,-3.3818229473861514,-5.158043097356963,-1.8414027437571368,0.520301767162481,-8.04679283675921,-12.38561092884066,-9.077810872423145,-1.0893059836070045,-6.857928335356863
-4.121953160485078,-9.69671921345033,-13.111820764136109,-3.7763465519739343,-10.790559175034211,-3.85205025695708,-6.205585814449202,-3.712430438311218,2.298937530678162,-2.6491609570449213,-13.090501855789793,-8.48579444550819,1.1054901591993749,-5.341252012494612
-2.7109683465392,-6.881476085320642,-8.51830563896139,-2.017608653881682,-9.30881299428346,-3.4437782704579067,-6.192715261460026,-3.770958261608573,5.109146672338324,-0.8636773557522768,-8.912498715539277,-5.553660947554305,2.8496902353662907,-2.739818699973545
-0.0697815081788426,-5.373629864864097,-4.113535840457594,-3.4391438833347405,-6.533888851220761,-2.735446115655233,-4.807715157312997,-2.4522286121840207,6.458535598406964,-3.082549619123733,-2.647317418860616,-1.5845398326678244,3.02189580995865,-0.9594928046010156
0.612462692148701,-7.015484938122362,-2.814392173183166,-4.782639997710176,-4.257634061742981,-2.3217093422353674,-4.602685190989756,-1.1676780129861934,4.683837891732174,-5.0603937789755165,2.2198540673322174,1.157928528577436,2.5948603979428104,-1.2961005958402776
-0.6979816517374356,-10.652739120584306,-4.753889981518717,-7.365156799003378,-3.630037406863648,-2.14306538472505,-5.4441774231205695,-1.08556729553567,0.5259834840916042,-8.381711183841398,3.946586236087771,1.2501721972802675,1.5669416123699589,-3.2270066981102645
-0.5874079739070535,-13.122945539928622,-7.345481344494159,-7.429279228976148,-4.367652405025128,-1.6010057536163569,-5.160822649599004,-2.2066136119896265,-3.3244720542145263,-9.154287635944293,3.232940287607846,-0.6087369625192962,0.1734774957014272,-4.657957875652882
0.3980287320094434,-11.98322424538406,-7.552287753801544,-4.443550978712811,-5.12198062433929,-0.3461530159489756,-4.155134704083983,-3.476398876215111,-4.377633348466288,-6.70739696078749,2.006598396230709,-2.1314240550374315,-0.5147223006930335,-3.5722858561911592
3.035186353237918,-7.488777737710384,-4.408738577841406,-2.1292704884931912,-4.662795142599511,1.1392101501583909,-1.0963212285604975,-3.7745764920447664,-2.3408499859565333,-5.530238308462346,1.63946556343477,-1.4212881278364164,-0.7745494838084381,0.2126667035636631
8.04933392686065,-2.168578991013563,0.3278559282166018,0.427885216999163,-2.867401904566805,1.866282625700837,4.538750208387807,-2.8859152836765998,0.7553399072244922,-4.682559109000015,2.0926651627633883,1.386544302437671,-1.3786570313609168,4.680259678833177
9.518042647547384,1.381798975070627,3.828875414454825,2.2384459267621555,-0.7199662932707622,1.3117082343370337,7.246115769372886,-1.5938483540515378,2.352590905449528,-3.391454922988733,2.403981376413261,4.327015642837162,-1.053881785131351,7.033338060254984
7.438321325821389,2.3856166874236218,4.580373607034975,2.701779228353462,0.596867755851858,0.0407326300051902,7.1126888592276245,-0.8230666463086851,1.4516080696000937,-2.270536335720784,1.7910583463059162,5.430697894373061,-0.3225086807036065,5.789892175541893
5.394204734847025,1.9444125674567148,3.438936299968228,4.536179743681154,0.6889649497655492,-0.7058255603259391,6.292318578023562,-0.6343578614989012,-0.7948338828518859,-0.0429075840009252,0.3964163065803445,4.467294890516039,-1.1730849522079172,1.8897479587057529
2.1236237086219587,1.6336516985754916,2.6462127740320853,7.443164695404363,0.21100490422073,-0.0977147695569438,3.53517982208365,-0.0633122576994229,-2.3148168910591087,3.333135137294329,-0.7481898185023943,3.055074041470064,-1.698447266342246,-1.994110075797328
2.065913842086629,2.206000597208356,3.9012125716982418,9.297954327467936,0.2868363311174258,1.5854152032701598,2.537975267531788,1.9453517749883436,-1.8771147505199584,5.4218787936162185,-0.3499452046942242,3.152496271007948,-1.7453906865665376,-3.291426061298891
5.96425086842093,3.49228078067356,7.177869556452951,10.447099822045168,1.6633129021379052,3.297656751342966,3.5770553446753435,5.308687986842447,0.1885491847401305,6.326640627262698,2.3140219726182023,5.374801352475416,-1.6977247981362458,-1.102167058090905
8.266796144372181,5.181927573291049,11.031946368396124,12.331140530589408,4.262945708199674,4.202617996395192,4.525186863656414,8.470596699283028,2.659546761106228,8.56772514328157,6.728566304957129,8.58088813350562,0.9712715089741032,3.4864486947930637
10.014171828828896,7.373796779208384,13.794425145756222,14.685771657372356,7.337507154113839,4.272881352809892,6.301325694862109,9.424271662788083,4.495779190175268,11.78160366551378,11.046992300995424,10.909925817353212,3.8324774337073286,8.282880845338555
10.060827641100952,10.287868730710256,14.559560981154906,14.989580714626738,9.9399431133429,3.996069225982513,6.447030790998493,7.323087002060334,5.242127020927327,12.767692138714974,12.927189941098677,11.214509882248636,3.7674487414063353,11.3206495794586
7.357939807379156,13.580818377209358,13.407748576516722,13.25264506605085,11.343853260760769,3.666130341916832,4.648884397548209,3.308018828321796,4.726076148942161,11.701508698734315,11.09991635523319,9.706646881530856,1.495482694016149,11.854943010087366
5.887218949756693,16.14134437200599,11.048544861847708,8.263298988569307,11.266531932682046,3.1243217494664326,1.7898323401394851,-0.2010157765385489,2.85294312297226,8.581116671993952,6.604563508177384,7.509138443959779,-2.3405372539573746,10.592102230891944
5.186601831565029,16.689605286524525,8.319116596717834,-0.817436511230419,9.926008746450492,2.19455729593786,-2.865894408531969,-1.2122737661136318,-0.046354424364472,2.5911807638711206,2.4042969433297965,5.718759348324714,-5.890078952347039,9.081863953535736
3.901016015542842,14.662455978886138,5.784050224251327,-5.8704601601846775,7.923310542395725,1.183370757103401,-4.153271449381239,0.4768006831830085,-2.85667189919712,0.9748666058004034,1.2190668143663728,4.766264765801151,-5.470752715822433,8.57744056171281
2.697013273516835,10.599604532720353,3.5121352500012,-6.878252138214604,5.9013234378335895,0.723195249617056,-1.7268315470573743,3.2717691962412454,-4.126045660374851,4.020241551680144,3.1973195687610527,4.388250356642384,-1.8351088742438904,9.066074078329088
0.4419442979058638,5.743673120768525,1.1346111985305023,-8.109237372409275,4.0992747350067615,1.049284245222276,0.6987200984410159,5.038157980979172,-3.218810811111267,6.289721672723179,5.654850767023879,4.015159656906771,1.0252108611529245,9.258655701515083
-3.0022915437982345,1.2551650074059193,-1.7342157419466022,-7.752052690053607,2.164843834349412,1.5681860519485182,4.354214673797283,4.6294806779338025,-1.0230059079046003,9.383810482296909,5.4908551364461005,3.232803892555207,2.6553395019957637,7.728891140741279
-4.375646237692951,-2.320509184641902,-4.9046354044888805,-8.619792287441324,-0.4844043358038044,1.3601418836522583,5.785551605567664,2.613040500025712,0.7357371528119644,10.075684057255254,2.266401728535088,2.086202213630989,2.256744216502118,4.361833148806168
-3.708634899216208,-5.030602919804077,-7.335371697498865,-11.166424221985377,-3.9350717887516966,0.2239542463752919,4.312220926979732,0.7656174194986984,1.0969171877266648,7.432749152485229,-1.0573371632733624,1.0993475722246149,1.083866074472584,0.7778291554296157
-3.099771591655518,-7.135291259492002,-7.58368198855414,-10.753485410416856,-7.338314677753882,-0.8537387395769006,5.439473215055645,0.7389781714225061,0.7863568442480852,6.806479058737391,-0.7386607419248015,0.9543116245337552,3.4535976320254256,-0.8603778574128751
-1.8736048877374452,-8.771975311489303,-4.836806216407886,-7.868857266805793,-9.299995349195816,-0.4699278653942709,8.432784723270862,2.805044289786551,1.393615898550894,7.383559672165384,4.024993340572781,1.951098326593208,7.964688728778732,0.2483204929656728
-1.3364228682327357,-9.87972385063174,0.2136985405423495,-4.9119576428032765,-8.925643191990623,1.771856272555673,9.033598712855785,5.549614220933972,3.507245680960583,6.02505338008609,9.83257493598196,3.61541723205048,9.646859439549448,2.6554231495447063
-1.8279824528695063,-10.301692232825092,5.458074782347461,-1.1267186372022682,-6.651682570898215,4.5572702151227045,7.898867921022454,6.801087534001301,5.688076685989143,3.4034536513841456,11.658879944093233,4.845466885645157,6.921116022143369,3.7295600889785168
-1.0266233730744296,-9.880580075186815,8.565602092983397,0.8328771825318458,-4.038899917000173,5.6924292671163705,4.113317826476391,5.227315011758807,5.45853679967787,-0.948874645784058,7.045327544885638,4.614080229510217,-0.5669058976219288,1.840205612526828
0.7772012078218316,-8.4882864910862,8.524421144178657,0.4288176823190749,-2.5572969987141,3.8710324616030007,-3.271896295346554,1.4459388870065242,1.5337066010169806,-7.615144251710171,-1.8484890687597977,2.726094692029571,-10.477396184976222,-2.25247583903674
1.6205601485842034,-6.076314032412336,6.343535140253555,0.8325881577133557,-2.330151712177903,-0.1508274809885739,-6.531981783167979,-2.295249504349633,-4.758505089155143,-10.309443475415105,-10.03512453226427,-0.0026236041845111,-14.091681381227325,-6.0218532049044775
1.7718944813333946,-2.7997978553547043,4.282044220448526,1.3535004712305057,-1.9633292145214092,-4.033574710315299,-5.639701792866763,-3.780761802400224,-10.259028816953943,-8.817726534677437,-13.525670478500984,-2.33374769978979,-10.009329014658396,-7.227303079215302
1.9014227486426167,0.8777698811334069,4.126681985236427,4.133965543908705,0.2587869859304792,-5.6145799144385125,-5.101766901982897,-2.607316864816183,-12.359516740381112,-7.0685200353528685,-11.839009585636962,-3.491503058581279,-5.1991717003431,-5.595351777057783
1.6668071003073257,4.24457812291758,5.855854942868622,9.866182406891951,4.71280572321482,-4.488616564149201,-3.2415493309748595,-0.6016102915248265,-10.935033824999838,-3.6062653419933737,-7.481699829201713,-3.6189734018295727,-0.7145531230313803,-2.7925870163565287
1.6275742834874054,6.585843295957682,7.7485966289299615,11.319319194785026,9.72638381895866,-2.156671811878141,-3.340278268414029,-0.4011025478581995,-8.187099184247959,-1.6523518460402942,-3.5362441663340363,-3.4704944594918548,0.8723076981040174,-0.934648814423042
1.846573064395904,7.468917977346319,7.805190654972863,8.713558526709216,12.555373907923345,-0.7362412358901089,-6.043399882922896,-3.252423412258368,-6.611972109780693,-1.8012393781649407,-1.7147832940719177,-3.680126262458483,-1.4186870769601996,-1.046532859998507
1.0674256244635458,6.909959546929427,5.279304520712184,4.613316432607743,11.397716712198855,-1.360903394265076,-7.206371226896302,-7.835655951341826,-6.907973609585049,-1.8035165569924512,-2.064578123384507,-4.279741955686415,-0.0166797554011969,-2.6694952223280257
-0.6620127342900708,5.373140454779339,1.1203966534072798,-2.5899800769055363,6.837299543207278,-3.4940757220183656,-7.614739853548051,-11.160140776184136,-7.58605126234778,-2.604090504091059,-3.6905732346526903,-4.843739337232284,4.711638287842453,-4.624302113646557
-1.8301450283641216,3.633906323711464,-2.8687528710131964,-5.113903135425312,1.4814159377702385,-5.517163400883556,-7.2453421431439375,-10.864458066413498,-6.477874686125189,-2.6043244893173045,-5.363847330860672,-5.0218433495465895,7.3511589025924495,-6.007338680682569
-2.603905609093839,2.514698758024707,-5.314856958691966,-2.344767212486592,-1.965169495975946,-5.965376898853293,-5.4099879979115935,-7.04598723096484,-2.7122815609741764,-1.5744358631894226,-5.786893475661856,-4.880861143471016,8.140059731575342,-6.576862552316978
-3.6589045610552353,2.5100850264135026,-5.977718578367885,-0.6250403394099281,-2.60864819276976,-4.460101753992749,-3.8574241910479024,-2.1181867250241275,2.5299038193901104,1.9732347098273024,-4.05869489128418,-4.730031509908287,7.447995831837711,-6.472603752541165
-4.733331405135771,3.458249222258612,-5.533006982104917,1.8532517260547112,-1.697243054060085,-1.796331702015575,-2.4047867344562883,1.1334148840328773,6.970388497494792,8.728195005990601,-0.4694248048904086,-4.676103863216149,5.514139943588449,-5.819660425944681
-5.31562868688577,4.531453680359324,-4.861525392919491,1.923795404379311,-1.2266432545785122,0.6964675837766272,-1.3268276048898886,1.6156904386253874,8.922402653747715,10.797326054348932,3.1665393975324285,-4.450280104296475,3.8454559782674655,-4.680283100238915
-5.401168579152055,4.677580093038195,-4.476331906695833,-1.4605013015887645,-2.1838635108393447,1.995508329020618,-1.00681245429865,0.4082068528454847,8.302123950456217,8.189635137265297,4.430978892804651,-3.744897950376462,2.0469635545764056,-3.297613922520137
-3.959305661404968,3.2722924146750785,-4.390403891803928,-4.076669358586616,-3.986020677152823,1.9042290314807813,-0.3523499553711778,-0.57628289398329,6.341889712291412,3.200168445107012,2.066823887776401,-2.7007635627906232,-1.6838538735928177,-2.2319173136154795
-0.7256590516622257,0.5026860396646118,-4.33243887967296,-6.892952832772854,-5.403973621140903,1.0045793891160528,0.4616914582787988,-0.3866857560037946,4.4981641912102415,-6.113865168265695,-2.9119925383181027,-1.9528587850019117,-7.865315343034615,-2.120737294202496
0.9833822523054933,-2.799124000896516,-4.069214209372355,-7.242778157570328,-5.834784606343376,0.153243365769141,0.8315570840583065,0.3536878665834155,3.50593406829738,-9.101014843002266,-7.866709607713586,-2.071864801666953,-10.864212288629776,-3.1894155433732294
1.2667941157656777,-5.67913865660202,-3.627932747126136,-4.266521733029975,-5.615152750761652,-0.1045386661826546,0.884411023032644,0.4099783154925203,3.1557420014273623,-5.12823363173684,-10.416637681703635,-2.919903956951247,-8.79207183178335,-4.900845758448647
0.2401579542043953,-7.48135372023741,-3.286917591539229,-1.6984811132682898,-5.226149649745857,0.1978164108677242,0.6218031498689321,-0.6434613097452693,2.726972431679504,-2.5490077383807472,-9.890872793432202,-3.622927950159826,-6.922509645860114,-6.07767053128335
-2.9470464474147438,-7.909955943870269,-3.322785330920599,1.271300977131303,-4.4447739519636364,0.64282764259986,-0.0611204319587573,-1.9809936731033224,1.6441761001506985,1.0387448130140966,-7.226067232418936,-3.2926919633749723,-3.650920901533304,-5.531860995341448
-3.712833347475189,-6.88950223875535,-3.692056839794221,2.696853449487985,-2.4793039547553697,0.8566966777388814,-0.1519310593996313,-2.404403789643005,-0.0746055111363013,1.352031661437226,-3.779757639005007,-1.84799003011322,-1.0023812512884671,-2.868099442098467
-2.033651171888263,-4.526635762570173,-3.954276734009456,1.831013049903907,1.021476938256395,0.7807123713291233,0.4000650850240722,-1.5463312213235394,-1.828180229693137,-2.996014811133085,-0.4192750133240857,-0.1183128746798338,-1.2094720113011797,1.0952696827427353
0.5186062996487045,-1.2353681104018968,-3.593713262249034,3.184270232224793,5.1913749399672575,0.5983197830345901,0.9435844288740086,-0.1709809761592406,-2.885898532934508,-4.53050248814205,2.428845246280547,0.9113696681561194,1.8722248039017315,4.715025808543004
5.042775719627094,2.2087423689494123,-2.5197325505060157,6.285719700034147,8.302542020772899,0.4827110649851711,1.7199030599374945,0.6412770229559452,-2.9639491977928216,-4.364897698770204,4.349337089503665,0.994742678821078,6.660464108003674,6.600190726907702
6.509546786629903,4.910537718265776,-1.2786517921816944,7.76808169753933,9.003316245832025,0.4587313729851452,1.8356518838285905,0.5094516646239633,-2.4487466704832066,-4.545055579587286,5.010541179064294,0.7732864800537911,8.349379683600125,6.611798033815148
4.587744978020081,6.304752986780997,-0.7069433642704546,8.24806924170618,7.313005899229786,0.4685441683413458,1.1559763410445978,-0.0413929928720833,-2.032935181701255,-3.881934514966853,4.691749982256866,1.0250695516240853,7.728972373009437,5.897397879393793
3.000863136054909,6.461507310582183,-1.2707145430729003,7.364327138113458,4.501151890576079,0.4738216724823463,0.1668624330054524,-0.2649616818718971,-2.076663350518704,-4.836308341354064,4.360603658875608,1.7677504127796109,5.93244840660964,5.793931974085385
0.5819271075831596,5.958603526116338,-2.666396128246948,4.464415873338766,2.034294851501704,0.4426696948790045,-1.3982802245650163,0.0312598785155628,-2.3343721314620893,-7.608882126081425,4.81035750113673,2.1376834898223915,3.61490141760012,6.492804486152856
-1.1366047835098343,5.373139909151119,-4.056738814633887,2.712679936904397,0.5593898227025349,0.2956257057582281,-1.7692249041146118,0.3798666738374248,-2.3633369790346883,-8.938150824145689,5.624501231065967,1.1990209327709724,2.502049323395183,6.727253096696593
-1.632475821660337,4.773231661431062,-4.751259257992436,1.9896458882253407,-0.2756925387314091,-0.0171718247353638,-0.7855746539565868,0.1947245613291244,-2.2014546038199363,-9.23900199202822,5.242580070165777,-1.1123158507182307,2.082455467392892,4.888207388584176
-4.102079937090017,3.633177912267941,-4.740703618715251,-0.3257722677379217,-1.1947971105405877,-0.3446257720757515,0.2778305752763846,-0.6731550589000541,-2.5335411200786933,-9.564615702154294,2.361132107491402,-3.869748537833198,-0.6842457038977573,0.6013361447575463
-8.200032040459936,1.2967103986347492,-4.628397827337064,-3.7131750850202634,-2.538921456684374,-0.3406289135922584,1.8659514815820168,-1.8604502613411604,-4.034749989438557,-9.35363379439891,-2.623683674284951,-5.998900446812431,-6.247977989195159,-4.730880814449044
-9.598166797088489,-2.3313958247802624,-5.03817145755302,-5.930528694595115,-4.011203562962802,0.2071178316137079,2.3495533191879496,-2.821886361671652,-6.463590133371167,-9.14191447896756,-7.660483786236188,-7.220386205112202,-9.59562555371618,-8.973761678827668
-8.527312412341201,-6.430239190260915,-6.020835818543162,-7.191583776956891,-4.991482616740044,1.0058386011388407,1.464197813625137,-3.1643790961248754,-8.45138877526072,-8.97920320755137,-10.646048406750952,-8.09543009893613,-8.627545808213458,-10.908292409503346
-6.541159046926253,-9.6016008035016,-6.9569298626598695,-7.557027737454416,-5.024691656347924,1.3389519571340855,0.8249482048348935,-2.7535317671468995,-8.354627990378345,-7.806431711089808,-11.030295386738306,-9.100323148591794,-6.417471811020835,-10.920820730871949
-2.700322123202293,-10.706655466436068,-7.014846609454665,-6.501659490555191,-4.076540022650788,0.7175197496229764,0.0103117841893341,-1.6706905940782306,-5.529238345981927,-5.667571851648207,-9.850571147099306,-9.718018671926917,-2.310425772887147,-10.158834845616877
-0.3751166133906645,-9.56001487317365,-5.766108361530641,-5.247091580537816,-2.4638088573268977,-0.4476468856882682,-0.2073359444826165,-0.1621514783227944,-0.9311349295557568,-2.892958551573627,-8.277556413950549,-8.608137672631013,1.1193651059027312,-9.119957466549897
0.1765139441545804,-6.939914622549591,-3.4688177193700263,-3.646396561134717,-0.634487431703171,-0.917604111211471,0.4523568908059741,1.4237509219461906,3.4985893311803338,0.7533574237854206,-6.303168680643054,-4.848024225109498,1.548255257892251,-7.161578492571088
1.8654948906296256,-3.958664772318027,-0.83379350211953,-1.0963335390395992,1.018180191769698,0.4007720352680906,1.0745872555623368,2.7650652609416007,6.168470402354036,4.380701563095961,-2.989545984488185,0.9207894534611611,2.939861425510961,-3.4112339464519827
3.941383312340505,-1.368158736786743,1.500236383823751,2.230196899455964,2.2593350657308413,3.342923416322641,1.922531503865816,3.6926982426076513,6.811971603443162,7.937205614668856,2.0294361083164176,6.638280257097108,5.591002319087687,1.915297735349398
4.760743129802494,0.6560606504392084,3.3711093297043853,3.5245790033982125,3.052459326827531,6.303574333300386,2.224209644382535,4.1799550717222935,6.388406791208521,9.299647055476044,7.487371397783949,10.266691670288186,5.817467256186619,7.208232495550607
4.531745166823147,2.22627920419999,5.100581564560436,2.5752166495030053,3.5115408589481376,7.3193717189911425,1.8063373628120687,4.210873805683068,6.119042949408165,7.980707048083933,11.130085825119078,11.275397530021994,3.797665345421777,10.570985032689876
4.516606883671664,3.372721682728608,7.126836781973626,1.7117703983388477,3.7373339186091847,5.600994031568252,1.5993097980241138,3.726086702241659,6.521866324917191,7.274476694243277,11.561608361857775,10.852055423109183,2.106057610491418,11.31779627219122
4.468085684957121,3.9670134473088,9.52713754402984,0.2569240008969108,3.6334245116012314,2.2133836496661985,1.3954481399123586,2.774897436075893,7.1759141066339005,6.643637926673845,9.522651200738082,10.705848622776196,-1.215106323665959,10.4454130232098
4.847778952846097,3.9197679958936487,11.770299386267244,0.1907570282557073,2.9099819163390865,-0.7155822756995214,1.5572611031262105,1.715740505563975,7.249359702878372,6.663666048214905,7.353313332624278,11.58502156181337,-2.769998867402548,9.64855580631399
5.926114040001921,3.3678515195042777,12.926712149124189,1.975071063412912,1.3710700027112814,-1.6101917613631134,2.2568399688186656,1.15986322560612,6.2333895092138345,7.989696778845842,7.118114808764073,12.7792491853854,-1.131924251865259,9.823694038624616
5.2877821276019565,2.662557714471392,12.285211844201337,2.8951299432611477,-0.7260231609158616,-0.535683671933981,2.041993562118427,1.5846958666519804,4.305596979319569,8.210152235029744,9.054199653927116,12.887177315809748,-1.239380640628626,10.428826528658352
2.956619088290574,2.2068145168263165,9.98812638901537,3.459604410484394,-2.629605179415446,1.094821480550845,0.953610818664774,2.9212623049638538,2.1791934548392256,7.587290256564128,11.569263229703676,11.034526317756535,-0.4504611872792216,10.174961116987166
1.3006297010756294,2.2673799053740424,7.137831062244702,2.914766396857633,-3.531208008284551,1.827943247885658,0.3526464069743987,4.512886347508692,0.6877975345209748,6.922789724727293,12.55479497869967,7.510809854594477,0.214464757509957,8.25735875195079
-0.0884725014884421,2.801268206094445,5.108465480460207,0.7322655145437497,-3.1670180835797392,1.2971346678265725,0.0027404072878171,5.5185135972915695,0.3939502600896123,5.80186385822289,10.789275190545425,3.4620859512246707,-1.2021982542860454,4.935665869052054
-1.0422485835255664,3.3199749485371868,4.44617233500246,-1.0208314530025095,-2.036680347765257,0.2573202795449045,0.643060018515293,5.437741030764629,1.329623643475088,3.556293040328756,6.466002915395128,0.0670142874423795,-1.178833545101261,1.063743820891192
-1.1103407926998483,2.9379604241473487,4.25513258320173,-2.62129317761596,-1.0095506779467112,-0.3301246258267145,2.598834066361281,4.362178942365123,2.899928944651544,0.1178534140376563,0.8318451280502703,-2.13479627589952,-2.422241448048475,-2.742491068944675
-1.8655034002056805,0.7888274313404153,2.7608907706920114,-3.6462919567547,-0.6718563088964871,-0.2095097324611554,3.138802443702067,2.840033424056882,4.06870431160209,-1.516081573017966,-4.50207180646947,-3.384840454472487,-3.5859773372590427,-6.359877511455043
-3.184262901059104,-3.2728718191192883,-1.1931596342282766,-3.654161071090333,-1.0122274118666752,0.0651063046482978,2.363959063892711,1.5389759341960758,3.9160851210270646,-1.2825712947125327,-8.162974779043557,-4.344245303889059,-1.0320726848326514,-9.665187336192378
-4.7498836219319545,-8.167486888970377,-6.880461756576166,-4.842140242055628,-1.6791435878052408,-0.2091510257634645,1.3464032189052928,0.9450300447865754,2.340458053237543,-0.3626455186722107,-9.45091763155536,-5.491420506721754,-0.0313574673935755,-12.00447083496567
-6.880153841402211,-11.844022240146742,-11.816451580928325,-7.078526188686499,-2.450639750651142,-1.1847835915445977,-0.4977131121812836,1.1957242032331603,0.3370899520864387,1.9963583736184112,-8.531825073751097,-6.630497090144986,2.2367185991200724,-12.362560426869296
-6.521802193995471,-12.366354260379762,-13.353531013672342,-6.859983770920419,-3.3742467438099077,-2.3578964845344434,-0.9591952265984426,2.0489144199035536,-0.5770990630124424,3.738414488974985,-6.18911949196079,-6.858317923149118,4.999422329193564,-10.161441896900383
-3.4471973339277824,-9.185689158319931,-10.561159843644075,-4.347321123501419,-4.446032461399833,-3.041994332735797,0.1619867869563919,2.9966791878525227,0.4770536022493767,4.752499700703793,-3.162910389778637,-5.138278386921803,3.128842585598417,-5.893506850608668
0.1797631524865052,-3.65370659162861,-4.897798098385175,-0.2337774622931955,-5.247056163374086,-2.9072000906406217,0.8887323770087994,3.523607536578049,2.928118386337717,7.61028424673982,0.3890125625505076,-1.1928524446534323,2.556672565297431,-0.9311368546683952
5.10871492606698,1.6955465030042438,0.84414114558456,6.30714558744646,-5.043406678951101,-2.145530344096642,1.724961484301601,3.393190512434177,5.096446642932486,11.970577033143796,4.681572604621861,3.951677630860047,1.360574429903083,3.334697833486917
6.605368519740839,4.655345495542349,4.430000216848217,8.462052586868676,-3.3816921758481837,-1.2545709008164874,1.4992398854465747,2.7523748275163307,5.524076356685173,13.182879411598371,9.421852576832226,8.312374634686721,-0.9650154332229868,6.253905766986206
4.012946742465233,4.600597803242692,5.414242642264401,5.798995890835439,-0.6613133353019158,-0.7234419910715388,-0.1674485251651029,1.946084930903151,4.167315645784713,11.290768018192074,13.203509963508903,10.064014704479789,-1.041974010432516,7.95754904686121
2.474002627932281,2.646946346996881,4.892006181822794,3.2915113128191487,1.898566517009515,-0.8426281373325573,-1.8778893796508236,1.1916294528757805,2.359333352478462,7.924185512765471,14.08898343108782,8.627657092458168,-1.3032303829036291,8.765866065010865
0.8486855826155782,0.6997936699953478,4.231608246815782,-0.6695642699229868,2.986767557853799,-1.6456631750732136,-4.010113447700931,0.4129413997677424,1.5463760479881865,1.9545028951738277,11.149452875057545,4.931382359548641,-1.4396159326357916,8.603042428221912
0.2185722005167205,0.1486727766071371,3.986811436840595,-2.0655030517855453,2.1042606504151866,-2.916437628989037,-5.480968909058304,-0.6167300648340799,1.95021929983991,-2.538582334462511,5.5728286622857,0.717826390097871,-1.6548656731749658,6.999736234832273
1.4583814656091318,1.0977560421226735,3.8156778956864006,-0.0240320648659014,-0.056247053795106,-4.2643514444537,-6.019755937281081,-1.9982978414554695,2.3893986471504896,-5.319247986252128,0.0842097134662758,-2.501633990038272,-2.157296739035832,3.703303344709111
1.4230247751442262,2.528222855624806,3.221078033433701,0.5375270028164696,-2.066538654675993,-5.292223011525794,-6.146256082967903,-3.610009931295117,1.4005381667217724,-9.404175721541929,-3.0893498819632814,-4.121460469463432,-1.8056794462989905,-0.6690150989143948
0.5388582116156949,3.1338358514921936,2.2455405950564327,0.6646906242572995,-2.721468661121357,-5.787348106042829,-5.472892543962714,-5.285278977270975,-1.4033908833498092,-13.875981261296356,-4.005282654760407,-4.469970438025853,-1.004257626290859,-4.629554664098189
0.2744027683909691,2.2278870795280765,1.4538809437439797,-0.277759251840991,-1.7893715811193314,-5.7929950905707,-4.568959325712755,-7.007211078055283,-4.967947005590227,-15.348160117098969,-4.874585431048169,-4.392858340952092,0.4770119045905232,-6.68098663664277
0.1812797489157182,0.1920056602174427,1.3162596479324429,-3.099255873317919,-0.0214049168820638,-5.503584476806694,-3.405475759599512,-8.80050129815795,-7.669964681313012,-13.784961457160934,-7.977145943328127,-4.709371006777236,2.2509495383409406,-6.444715514494251
-0.4899342212339083,-1.761240867163523,1.6706083083284144,-5.094773886487541,1.520523955783843,-5.0974025769607785,-2.5509932490496943,-10.36892712116726,-8.544337764760703,-11.68407199603736,-13.376219307393082,-5.744060230285266,1.1071759964431411,-5.038611516909653
-1.6402252499670882,-2.3919729202394957,1.8041903736043992,-6.577761846110804,2.235299304526696,-4.6639707305479385,-2.1894974369634164,-10.939203333084963,-7.777318558613947,-8.289280863084882,-18.47934807042262,-7.10282698725487,-0.5725438823210379,-4.177537542750846
-2.3034913258661254,-1.3472807181921191,1.0585862992213322,-6.471638879681745,2.248340590698287,-4.248880641876631,-1.3143775722031643,-9.695410004826387,-6.196061968837441,-5.698263682812424,-19.95337805455209,-7.881760508930677,-0.7203150416237871,-4.630003457978593
-2.5548344108077763,0.4608844418846489,-0.6186339029865513,-4.122198487797297,2.051091221154308,-3.890493316816837,-0.0852342091800012,-6.573886216315004,-4.417598548904572,-4.395189967304805,-16.43421751489433,-7.303349161494839,-0.5977378295950464,-5.432144078051264
-2.2706202653797987,1.4564368623871484,-2.6402959743469934,-2.860975410812176,1.9469847363939363,-3.55387811775892,1.6891063258446928,-2.6516623394363883,-2.47576646483337,-1.2320181075387808,-9.71305990281738,-5.368438572046754,1.9692269921584,-4.735163781822516
-1.2051824361386327,0.7210323520024584,-4.211685251275416,-2.369958187819453,1.8483168603463245,-3.0371764405019928,4.211424319709432,0.4219692237076469,-0.117824150462459,3.2850405399384104,-3.363023085217364,-2.938676368628471,3.861870933506984,-1.650728240918836
-0.719303697553261,-0.9891691137969936,-4.797107053764206,-1.4883890072623536,1.5619098291182103,-2.014962311015488,4.769648242925244,1.599648559028214,2.698949106117418,5.129046351736319,0.0005894269393564,-1.0798337983080586,2.5744329521928586,2.607734738859003
-0.7816859478014829,-1.5928957405010935,-4.291175888998163,-0.8206032321228199,1.19101711458352,-0.2635020677900375,3.2466004123637497,1.1769318496872554,5.621410049834244,4.45828642449593,0.4626751567828329,-0.2160915566573038,0.148586731326978,5.458559975952111
0.5482076952523269,0.5816202569151017,-2.942672097671297,2.348835093345987,1.1804807666686925,2.0938523766675363,2.421816094868516,0.3872529390626162,8.076150027099281,4.406525998291012,0.1668260987450285,0.1022537041869871,-2.0746518160891814,5.014888704050298
3.117250644134855,5.047307644568278,-1.2635355357870566,8.295251854895,1.9231224673039105,4.547567530819425,1.7625200045904272,0.2396631112993805,9.497126801882375,4.232814093697421,1.106311211269757,0.5906514264572404,-2.782962738889705,1.6736784264192457
4.434718768893424,9.11315750228488,0.0340711185554116,10.284223788027676,3.3158110352883075,6.438600904585954,1.6279108078406508,0.7366037461136301,9.408973748864806,4.860878281274193,3.4856648509105064,1.420394096536958,-1.929988385965536,-2.153044384587849
4.703122184854405,9.919273592065222,0.2625057455938115,8.514113756947719,4.720866584027519,7.311672245094892,2.526025916901612,1.1843927637809273,7.500777393767528,6.850250623739163,6.003384899137613,2.070761479315109,-0.5748500383425613,-3.889661773290383
3.2793646714024147,6.926850926915321,-0.7895353283177169,5.890531791926403,5.398366128988336,7.139029889868992,1.3694711298387112,1.145927360270104,3.883352448151852,6.9398715579250485,7.416706813042627,2.0011387393322764,-0.1847145232922974,-2.642040994274595
-0.4935287992254464,2.5366904794384397,-2.5236522403292803,0.9477632655600178,5.023046001696253,6.28239246637752,-1.7934610555017505,0.9428972148911896,-0.6059134430738329,5.3384342140269,7.6207792278484305,1.394617195609058,-0.2740560057730754,0.3944864305477935
-2.623279543168604,0.0588117951140745,-3.812556947567733,-1.3553180368690965,3.833758421711313,5.247818206498694,-3.0524876137147365,1.1855510896737993,-4.483575233032532,3.719480134973864,7.267094375075032,1.099052760807421,0.1784374884416786,3.084179122511077
-3.2448753225549565,0.7654171955013069,-3.902493775087734,-0.5194008297355177,2.326702058936068,4.409522961550309,-2.8209457015633164,1.9261857247536265,-6.327874370465683,1.4845375469418032,6.635415376736255,1.731080553075607,0.8397796698759478,3.970647233571921
-3.792163896175793,2.778194918306877,-3.199048264679412,-2.0571100246706298,0.827043748990306,3.863349461431616,-1.7355149360509503,2.441983406916256,-5.750209250078456,-1.606677569295072,5.184988877515119,2.851286869477036,1.1409919203678882,3.115645768548712
-3.399168114462298,2.9047641008686598,-3.0488457762836703,-4.926385999251869,-0.6465110041450792,3.4737072467873347,1.002506982394268,1.920316373406472,-3.832628284913044,-5.44080386530436,2.280434072718423,3.1551284103918213,0.7451720178982226,1.7015228570185776
-3.074273094745431,-0.276679320865977,-4.462872995206414,-6.260478722580135,-2.1356599776357825,3.058348563950698,2.0686060084943336,0.3096611153541193,-2.501942634049847,-7.120823292204363,-1.8034227663653688,1.6424243189046803,-0.4954306039088474,0.9211152648602834
-2.836119423651388,-5.016790991860018,-6.855745827203784,-6.69460920696906,-3.4298502263420296,2.570852886160708,1.378359148956865,-1.564222431918342,-3.1659881657634603,-6.3788737623531455,-5.781853626008372,-1.3090579394906712,-1.6823306125471902,1.101660251393712
-1.7853699051332783,-7.986205840011019,-8.114323428446568,-5.544264038492389,-4.07868901534758,2.1357238190377927,1.1985901308455986,-2.708650349683488,-5.646041201869373,-4.772238851916686,-8.308262171742964,-4.054352034637452,-1.2466151974945188,1.6711194754868064
-0.0833401742453798,-7.284801607483317,-6.2207551152807365,-2.248539546704669,-3.7888903726383454,1.900979993666006,0.8179087381368932,-2.75342665226996,-8.305494101727621,-1.489931218986144,-8.98535209108859,-4.973338197316792,-0.142629430652682,1.8345089597970752
1.120048067624321,-4.000822410469235,-1.1472379762913043,0.0952328911620779,-2.8374715052485904,1.8371302572388029,0.1864299783427301,-2.0867973525431243,-9.3244163906934,-0.7825337824633201,-8.443061024828125,-3.7875595974094143,1.1237081916874545,1.2893406416135988
1.8660464005119943,-0.9692208412423112,4.713794637648363,1.6510891608634914,-2.037062712109224,1.6880094676989137,-0.4742158910995157,-1.348671558261291,-8.098914444396849,-3.049895543117407,-7.506101022646185,-1.6949037491860055,2.15529934604754,0.3847163982684733
2.305521363340264,-0.1007953010503648,8.158036323188714,4.516667556488977,-2.1575030593736706,1.1656535499589715,-1.5286349593599715,-0.8932219824435634,-5.6282282714071545,-4.8344030236216495,-6.37891400200693,-0.2451682015193448,0.6637934520773707,-0.3073804513278091
2.1472846986663785,-0.872006014489692,7.586487713752664,8.157707112400502,-3.2286330088987434,0.2430014792744295,-2.9346821330270068,-0.7073145675889112,-3.621626548077764,-7.16418977577232,-4.668205849629258,-0.0685750170849459,-1.0516002600972,-0.5361107165366352
1.3235787777673045,-1.2237467830775817,4.215075305152158,9.397785193346785,-4.334192900590228,-0.739243525644234,-3.6459124703290766,-0.6991103193516448,-3.1419941269969787,-7.340839581611068,-2.147975853968997,-0.6275357966686457,-1.454101407694431,-0.5489717765276563
-0.294393897181363,0.2632502354622161,1.0395968287850756,8.201668329628944,-4.156052443456046,-1.2983565150856542,-3.6227399398983406,-0.9273766033883516,-3.931428316043624,-4.720697367194245,0.5928628950453056,-1.0659853470363618,-1.03992196227259,-0.832923909836536
-1.8774157438511532,3.0891972944937613,0.4183261230221831,6.038431406460978,-1.9245736038347,-1.1990736661117811,-3.86210423035684,-1.5173994308560914,-4.87344887793647,-1.8604872859218808,2.370513317923143,-1.1533523866353104,1.726366910488339,-1.7219020799743705
-3.4460082805589014,5.492882674269994,2.278532109318986,2.122883209246156,1.9153083113780625,-0.6566809482829905,-4.148331745430032,-2.4057308808233344,-5.032344955668153,2.0539677838908896,2.382787074103504,-1.3638707659750366,3.876140134043205,-3.18669997533096
-4.16064868056667,6.140359808570024,4.368312976905894,-0.0625500260666302,5.825524170467482,-0.1566039867563464,-3.5364528230605097,-3.221461842838707,-4.318438914922569,3.376382434498078,1.036428457007517,-2.156786803060447,3.3302893998370964,-4.8894801902577205
-3.7197616442697896,5.129284313691129,4.2249115713566,-0.1964367921150731,8.02769800707107,-0.0519958498645483,-2.08424990972928,-3.449995886783197,-3.329472875660638,1.50763626506441,-0.2509194740974703,-3.3575266690766608,1.2838641347464068,-6.389886023046323
-3.982893638380369,3.513001164714553,1.1435173500372162,-1.1220087794769389,7.526534722369,-0.308705935062231,-0.5135308914565663,-2.7664232509395967,-2.714889387157569,-1.373923565070741,-0.2523307816007225,-4.3124524998480265,-0.9900929875290518,-7.351333722292021
-4.734712386386311,2.060015617886089,-3.4377860259788227,-2.007079469371324,4.636504937515911,-0.6110577215093116,1.3436597201100366,-1.303835107663911,-2.7167285745312477,-6.371963982738655,0.8712794959686576,-4.571884883647841,-1.2754284505474809,-7.642577289350754
-5.456220720956058,0.5512904568571635,-7.28294719062288,-3.504911452928229,0.6817280319486558,-0.6910392444398603,1.5320286721197558,0.3304268698220012,-3.1878349732792577,-9.621093981188077,1.510225510789985,-4.328709977799374,-0.4731509598811467,-7.306574105058766
-6.479354498789762,-1.8055733411611683,-9.144351487333472,-5.991532627464528,-2.900136665797773,-0.549061852812331,-0.2591897750331245,1.3352906383743832,-3.8773007927129264,-10.768921109837716,-0.1447642187998461,-4.215166817040409,-0.7051750947307742,-6.480164597578184
-6.863131077425034,-5.397498075254124,-9.475600372065136,-8.868923903021818,-5.401508243266461,-0.3818160158710828,-0.8812955028235868,1.1727262829329854,-4.629737169871444,-10.962677477997849,-4.567077287440486,-4.767488523222961,-2.8207752833769595,-5.403464726108329
-6.544401476041356,-9.629679212482142,-9.625171444838395,-12.435104696809006,-7.01940340683149,-0.334668629561266,-0.7286222236359344,-0.0541841283018751,-5.377483970703894,-9.085084892995535,-10.377455489208163,-6.068684922816707,-7.7705818988882625,-4.519992276432477
-5.010056439557785,-13.187605641112942,-10.385657019273587,-12.729583750870791,-8.261827882766777,-0.3398389305404101,-0.2837797748697324,-1.5631340982826942,-6.0349273097506,-6.631962872133517,-15.220854217557006,-7.698122485748399,-9.838854846583631,-4.420077000813847
-1.9223668283043724,-14.785424955021425,-11.195090899644589,-9.364084283371064,-9.141827258128776,-0.1802104545894256,1.0483110383366208,-2.27185283729836,-6.40516358021822,-3.425916369400904,-17.19404462202875,-8.803040038650146,-5.143324854808095,-5.397215464929657
1.6377813250266824,-13.779027843601911,-10.583293589705669,-4.811727836589452,-8.943595526772466,0.3064686894895176,1.158504818061399,-1.4010042459812857,-6.123032329299583,-1.244207743040792,-15.662679813160125,-8.262067809405178,0.4918286423648744,-6.851761091904501
5.898701692667319,-10.359118505868656,-7.381297701991317,1.9925119048477289,-6.866973658738457,1.0649932379937068,0.0154723082314502,1.0568228630553804,-4.686255349821002,-0.5371336502938748,-11.096953343337296,-5.159920334567342,8.25523867434199,-7.237364530700149
8.423231242709132,-5.450364924630771,-1.7015700364860358,5.661829591723693,-3.0120603747762065,1.8107844482618063,0.6677952629231315,4.281049153624982,-1.6976799565986136,0.944217774251544,-4.503488854358334,0.4455107359339609,12.33672606328517,-4.993694556704358
8.802816535354467,-0.4804697728714302,4.982025205235013,5.57274087634747,1.262551812908001,2.1568434798335545,2.84666246118432,7.013941141927026,2.6884741322336674,2.6837309951658286,2.864082715545833,7.053782516117094,7.358176852356626,0.0653123743713606
9.322404841024309,3.0382097734073703,10.621978057683291,6.341941825065845,4.101039886992858,1.8095443736647447,4.6830559012725965,8.19447963383949,7.440667194045571,6.136306743966357,9.518186797836831,12.25073979273577,3.786819796480415,6.173268687157144
9.310482090598104,4.183505978570034,13.700856990257488,6.625766278586175,4.505351985590232,0.7531273755346279,6.685686674004787,7.519777286126155,10.898042720744115,11.767977979791436,13.995797044286414,14.163910890780835,-0.4724984026924274,10.62047793595921
8.827224148011155,3.2732631546968705,13.99667269474006,6.921516783779054,3.1311286653589403,-0.6667826157737555,6.575805868975034,5.638703875732773,11.679646958693782,13.341007823804269,15.568721705526976,12.783569791247698,-4.393635568366283,11.68906776330547
8.118510568640636,1.9019800087583043,12.571426860911412,7.781434177012732,1.7821057938659637,-1.850360279630737,3.871928250090036,3.8185008999313066,9.68921579940455,10.863831549121729,14.85088347208908,9.977334414106762,-3.438702188018738,9.882522349320666
7.281817375982097,2.0413937961287463,10.974214040378374,8.611871770740873,1.977860729702459,-2.2495601714756903,3.134028787688822,3.184705742451989,6.352926121401504,8.806488322645995,13.530851153226312,8.071075729581464,-3.529831060247578,7.381314407574345
6.453414925837969,4.655465477639532,10.154411938144218,9.74448746505029,3.783682074314096,-1.7240920406510507,3.9405407524303926,3.9470496527648296,3.715035577514783,5.904180579654838,13.178971768477233,8.127036859577814,-3.456792282911332,6.261030806829613
6.601589368609623,8.86041817931717,9.869668942334789,9.797442881586766,5.8524792540047725,-0.6956479819950143,4.144319092426295,5.169826101561534,2.980676579029436,6.259041033586811,14.053349693920628,9.3148964545675,-1.462672200614489,7.0589546458333405
7.942402771907335,12.387800509429567,9.099315780484575,8.6764042475296,6.574786999651652,0.0684945357806459,4.541919786603306,5.385289372506644,3.6905852602367775,10.827238980857596,15.005684167013156,9.815218052983026,0.434497852358521,8.797533301062659
8.146085092209413,13.104881865491668,7.165256647918378,5.330769784764057,5.328591767976612,-0.0489324060139226,2.5919632069611818,3.733260324021595,4.297372453421814,12.15082882046634,14.6567505705351,8.423662135818457,2.174072719956706,10.154786336151751
7.374157648394159,10.474187819202324,4.570817176807294,-0.7740768811027271,2.836276377785939,-1.076306328831082,-2.135008309214404,0.783483308236109,3.720278630476267,11.100921236524238,12.804132935582365,5.535966017965372,4.48822321603155,10.541579180577632
6.362493422550004,5.871944260347597,2.7165893819084523,-3.2732609931477854,0.4750107270095682,-2.411196775727033,-3.155873966851153,-1.7085082423089162,2.4964304858339545,9.13093194957782,10.713887641536544,2.790979045615126,4.628413657184431,10.190110467267898
4.634847704026978,1.5889140823739147,2.656139170206357,-2.1158263995919784,-0.7621575073173847,-3.2344027860542437,-0.725064054845398,-2.0659610401139883,2.36877910405918,4.8375605812323865,9.930566719555593,1.7366553950300825,2.4993579108820843,9.45143620426413
2.7881935599849204,-0.6801107329331693,4.012598661499888,-0.2306350202645577,-0.8094700010015359,-3.075063873204046,2.4039356772110945,-0.0307231485968237,4.527654155572543,2.834609411134416,10.667250886152434,2.607109328070244,0.5966738076159902,8.221383971811598
0.8263758746049708,-0.7666905689091656,5.123761180666264,3.872156526151013,-0.2905663076646636,-2.09387210305694,7.602881547486412,2.9475932546632637,8.09089050599331,3.244731961551907,11.360869265561176,4.176303226647234,-3.2640097091874787,6.148153792009803
-0.7825957623589653,0.179097116905762,4.386903303238957,5.038417652310177,0.1205345753267517,-0.8846939390445163,8.28670618165001,4.789042871141084,10.415666181677082,2.9298758339951654,9.987477010136898,4.808075506949476,-5.3968818126157,3.3726992052547637
-1.842671369862665,0.739574524346386,1.6522992945967347,2.7674414933374982,0.1611576334476181,-0.0031274086782584,3.77525181962566,4.37918579343027,9.248784704227816,2.8676958449514167,6.047339512349724,3.8530219130881127,-3.80690001097376,0.9164465406010552
-1.9534936972274004,0.283416438497893,-1.5610136361911326,1.307301705452518,0.0002447720790881,0.3630150527066575,0.2109521499310103,2.356789933057735,4.884763206526273,1.7499837903022677,1.3432622112131023,2.194569081426275,-3.009149619112968,0.0940008591570675
-0.8304758650083721,-0.727341758160474,-3.2152756161071085,-0.5687249976796384,-0.0293443351684867,0.3454804971078236,-3.947420270406589,0.4489411142231194,0.2388831415417378,-0.8756478132813319,-1.3406163177327128,1.4082188302706946,-0.3372301206472319,1.308008504292899
-0.21491103513023,-1.3196403438617643,-2.2799381739010256,-1.050522839474307,0.311818502897859,0.1172195107098543,-5.632252812754583,-0.02346546481676,-1.468161005195448,-1.7311247151192914,-0.6042801087539926,2.2366765342872013,2.4194510023904883,3.375194541105757
-0.0023110306187053,-0.9344861246600242,0.6072726060060898,0.5181376108017449,1.069272252720177,-0.2797440177037771,-3.7136928780755984,0.8494390781232664,0.5618758935832444,-1.0593295522483457,2.288623933744047,3.813406767120931,1.8601341086033965,4.257512588854322
-0.0946664934421344,0.1032320679629466,3.761224312982722,1.445739099553749,2.1092840570055857,-0.8437559827809293,-3.367204512948026,1.8624369545546744,4.065133128720159,-0.7135799423600727,4.437302117811598,4.468336117030069,2.0049386412628367,2.796437918290322
-0.8980478014977888,0.9463713252933994,5.684914595483047,2.281243301465276,3.163146879370206,-1.434389685451951,-3.690822754116789,1.890603593477433,5.782109985551472,-0.123702846448414,3.748765625317514,3.422310161563253,1.4687485814570942,-0.0827588415026188
-1.4319820466369748,1.0277384271921877,5.869022859696253,1.8215979613798443,3.888556443123716,-1.7794799943540287,-3.814627699030116,0.8196370804796187,4.30012791611575,-0.9050301875522206,0.6031968940159276,1.6786116734602858,-0.3760461487905663,-1.975999183104971
-1.7948218560710831,0.5006941786808605,4.6647766624499,-0.4693555968860629,3.9812894186839545,-1.7098799548992163,-4.535619690153076,-0.576195524265871,1.0408399578823673,-3.4301065580877936,-2.70803049662538,1.0815428844711814,-0.7442337484899815,-1.0906784993178382
-2.452263978975959,-0.0877726269469301,2.6181408651878337,-2.34881177765917,3.3354406004942145,-1.3677390122989197,-4.444015640195588,-1.5221140272271736,-1.389232864216586,-4.8501449971294175,-4.139902386039085,2.339563207868049,-0.9941351561049354,1.9988345589582897
-3.251762802802588,-0.4670568381332964,0.0230450427537531,-4.204191357042361,2.18384339220046,-1.1205831378347837,-3.5635522350946984,-1.9326413915736165,-1.721043721130953,-5.511643000724489,-3.60387886734756,4.004035659408036,-1.613696251449344,4.605307803184153
-3.923960529377789,-0.8552649796853338,-2.94867332062159,-5.695639119898495,1.1043588877499833,-1.2123626443473583,-3.5308454848229283,-2.2756914651061093,-0.9411733466053498,-5.148411109652266,-2.7320267246917758,3.615367436597252,-1.3146579708736674,4.092932588547936
-4.489391779798175,-1.462730638133535,-5.86756673834283,-6.404160441310364,0.7860097603246254,-1.481382288407521,-4.168778538142414,-2.896452343194052,-0.8774162520215718,-3.1480506190332065,-3.0812996086424977,0.0995189019632301,-1.0140800595289992,0.0976055785965432
-4.1398636643279,-1.934294338508045,-7.996646205241124,-7.533399000704878,1.555555009111937,-1.4532570003598426,-4.244184400805884,-3.592045183054685,-2.079848902505516,-0.8472094748208783,-4.571993218845854,-4.888272419656063,-0.8017732031626658,-5.128949377155788
-2.7212638662948785,-1.5580870939791156,-8.747307061392132,-8.890693168664358,2.898019724576729,-0.7825939311640688,-3.989663788156812,-3.858046548084904,-3.2150393702751883,2.0245902365090926,-5.622989167856956,-8.129394966588025,0.4793194402046121,-8.52328985097966
-1.8759498100844965,-0.2026806709157913,-8.213705554353556,-9.62595945522656,3.4175486473216363,0.334689702329479,-3.0663543861578955,-3.465017378473039,-2.532540556324771,3.6403406383243153,-4.804274913831583,-7.601716808095974,1.7476590429568115,-8.59276538881591
-1.4591326566727172,1.052805181673282,-7.204025518817856,-9.860447868964304,1.5748070404451635,1.19126983669155,-1.217695379194395,-2.715941441394121,0.16103232955997,3.61917351792157,-2.425344404496718,-4.311555989473753,2.533208280024267,-6.401404017144605
-1.826802705165255,0.5468291957041789,-6.653976281337688,-11.090771865294911,-3.047717511219296,1.1071610010799429,-0.1465772631841664,-2.156087467945934,3.047252654825589,3.286900222209462,-0.5463934343248678,-1.4574540619611058,3.3880419408467937,-4.457503380813118
-3.3870034708592165,-2.3991002478883177,-6.914551017388374,-13.292621952003469,-8.884575866595917,0.0757211946789166,0.2024750121077323,-2.108220326047828,3.827121897720272,2.0623029301133267,-1.3244811215468113,-1.6596249178162044,3.505364344039174,-4.5600639254895246
-4.741728401877597,-6.461006693410344,-7.536456798944993,-13.702909830491569,-12.904516912129774,-1.0635107325668622,0.4141454342225385,-2.516258275735339,1.753974060168117,0.2620783999378137,-5.1163263582739535,-4.78599615947563,2.2228520513859844,-6.432884809132973
-6.073078072028538,-9.036459422562634,-7.718003698566632,-12.449092162286226,-12.521736029564751,-1.1757219745293872,0.1139957532767272,-3.1528258105421103,-1.7602415975774557,-2.057980731620728,-10.0316848748972,-8.302615065947332,0.5208530623395534,-8.21162768051303
-7.283587579018838,-8.292533798842854,-6.998811682124023,-8.546904921396743,-7.600253196137171,0.2693805554929289,1.0359122246034254,-3.853121443937823,-4.484643512881165,-5.431714779838776,-13.410647319428987,-9.687465016206902,-0.8144230717866464,-8.255020880683153
-8.093382733266319,-4.755742411838438,-5.622754450989335,-1.190914035155943,-0.8372933207960149,2.69609726345362,3.3115052301316728,-4.524914912301236,-5.346711237326405,-9.820080413135573,-13.99598882803734,-8.589657458719081,-2.157781444853073,-6.659715815191726
-8.889984897828116,-0.9720625182903406,-4.334184668598086,2.3928897221247505,4.041422999106688,4.78631539294073,4.052356581613916,-5.057044275280636,-5.210602100774381,-11.692862530451604,-12.895610284240965,-6.825854814476729,-2.0967762359120976,-5.16070696790492
-9.534675534686311,0.4997932753308252,-3.834662480138265,2.190544771724037,4.965255844471913,5.43294682256579,3.5057579707601145,-5.362884070080605,-5.812664978487825,-10.811724576280458,-12.45035114586579,-6.463903187886638,-1.3787943288359463,-5.532165644769902
-10.437680812925844,-0.9782453901370198,-4.313878086432101,1.0872008167635556,2.88981620154743,4.489332834560931,1.641376955354867,-5.507292019949269,-7.917865432026112,-9.9350028706226,-14.00096948377386,-7.965835735093414,-2.9515019144632504,-7.92497122495995
-11.658026905903744,-3.831202020010358,-5.326612070104351,-2.6196738070350363,0.731762942551903,2.7391377690359877,-2.2076972850657026,-5.616433867995179,-10.413239939558633,-8.217833381956744,-16.569885687199587,-10.045005694879595,-4.924934127094751,-10.612907350070364
-11.376998148638704,-5.650687919278404,-6.034526660212105,-2.9607462481601146,0.8663527660773465,1.2403887606517623,-2.7035433054488505,-5.493309846237261,-11.132289099738196,-6.794328477405111,-17.65032551754743,-11.057678681353636,-5.161121868952125,-11.354000504596296
-9.549839966824178,-4.923975528784284,-5.669755849348165,0.5167273826962889,3.380743809159754,0.6882334077498431,0.3257778971005031,-4.370147414295413,-8.65144036949011,-6.062769469173638,-15.36809523154098,-10.3677195694896,-3.1231789677495136,-9.173926282543045
-7.099473080741557,-1.8015851332037196,-4.009191794456922,3.864572427760775,6.425987611485438,1.2347578462930917,3.736413380358144,-1.3365215811353115,-3.5243785000097505,-3.048300462395023,-10.076743477583708,-8.496287482093893,1.861234533313708,-5.095477883108074
-3.5875073472734087,2.318328724561611,-1.618331572377186,8.53209884176859,8.010638459869025,2.6328380671643323,8.770689941501907,3.640013528337012,1.9959763637376504,2.048610206173167,-4.082674433231972,-6.330413956671383,7.900420392114769,-1.3303609658166948
-2.289961288514712,5.682707352770487,0.333696889779917,9.347066590709524,7.417109026760338,4.329113320644349,9.323848697052489,8.992192639940443,5.41996402862951,4.025440399702891,0.0498227516064426,-4.503617032323631,9.333180867077704,0.2876727834390662
-3.5510498442431437,6.870045805624791,0.6937302887572727,5.516112291558853,5.132118407769166,5.453650207080276,4.601375952504163,12.07738899011051,5.513840871124769,3.0491795840798046,1.0512569266091916,-3.4725849174326955,4.900503749654424,-0.5948052457327382
-4.524051393110747,5.1931445478872575,-0.921511632365954,0.9982220991674304,1.841939022521568,5.030086735523163,0.2134623503207452,10.908547505115465,2.8503920713776694,0.2058435741285784,-0.7201423850175832,-3.724697390465432,-0.6938825341192489,-2.867789509132149
-6.0117942953394925,1.0357047051453012,-3.736942649977486,-5.636943646856364,-2.156537109787042,2.5848190627750647,-5.372239234960187,5.827339829286879,-0.736473698812615,-5.767296719145459,-3.91932841808329,-5.397646774657359,-7.167087963389943,-4.853820676918044
-4.5177649604526,-3.977648667611258,-6.153231385796129,-7.5026397491201,-6.556911511921808,-1.2400595695600565,-7.084189770501065,-0.3850283469210218,-3.2560137434007475,-6.772225002984194,-6.916731905448393,-7.562379655074479,-9.465373541719554,-5.351620043132018
0.6434001919100063,-7.426992270976727,-6.686954168860288,-3.630840235628831,-10.404345774188258,-4.7493754478253045,-3.735884667428109,-4.3070267862034575,-3.537541393048839,-2.3830118069557806,-8.153209435400072,-8.236850391603086,-5.23092055312927,-4.190445040233612
5.469376840048503,-7.313058742227087,-4.912396356843499,0.4501245037564297,-12.28108984212908,-6.146048826394134,-1.828949782080432,-4.293986357427944,-1.6561621183493127,2.282040852208527,-6.506546897361224,-5.670540807566469,-1.1150698721155774,-2.080524663510092
10.883750347547345,-3.4038044461056813,-1.7157518515544794,6.590870028273893,-11.38099568059618,-4.739697088405638,-0.0026318004338276,-1.5707224732320846,1.2755549382651346,9.154334680116618,-1.969688539046861,0.0077021969208459,3.8417478588993794,0.0150292308945694
12.278410756592256,2.366710898949595,1.3601247652005668,9.081162353797533,-8.409708917128109,-1.4328078507720914,0.6792469303268692,0.9172980730766902,3.768808365728793,10.318522599562664,3.848292472059352,6.407987708387028,6.929264927029737,1.5004721190963437
8.613722159055424,6.966637100692026,3.1936285774688784,6.881236709868503,-5.281177729319799,1.9255873668191192,-0.8873893932821756,0.9319055079481124,4.717070113708031,4.644112280721341,8.253550588812168,10.398754921935604,5.102076390973188,2.331858564867767
6.209189920432584,8.14304964120481,3.728998584532123,5.413127233718961,-3.7485393546126033,3.762259558189737,-0.5279975103627984,-1.3931279632063074,3.849380255497017,0.6033324898662082,9.095878566655092,10.338139298401783,3.853301000987006,2.717700920445868
3.8711767113479993,5.728869434869846,3.676981862178316,3.1239832589557457,-4.15934200359429,3.5879560518688365,1.321365829611487,-3.985478487126832,1.6598147060737194,-3.709788519219871,6.3192844160794746,7.072765853759018,2.2611185686758657,2.710372961689055
2.702291647215766,1.446346402249242,3.592509780260748,1.4445604173310669,-5.391897573617557,1.8881735603136764,1.10548334937862,-4.8334960401755565,-1.0476746816537066,-5.440872170398531,2.00015790787232,2.904791328821064,-0.2265295441693776,2.1331022509167887
3.861542965331013,-2.499011246470401,3.2395297804479206,1.110814434351046,-5.92154321274171,-0.5318010804112365,-0.6691316422513699,-3.6939911031036825,-3.597709312728121,-3.0566994517302697,-1.317319465534144,-0.3694841987564938,-0.5308420518390615,0.8993739733811559
2.0378567180406035,-4.839250304289848,1.9059707542157105,-0.8142896979347919,-5.027125410469946,-3.0037381895736086,-3.246179491619415,-2.060717056480086,-5.559121168443866,-4.543409590693505,-2.5673722248930666,-2.506761024960369,-1.3980278038925975,-0.677402204446615
-2.3997891869973422,-5.6640866652350965,-0.5959939866472217,-3.883093005852569,-3.2054551835484943,-4.964244212855544,-7.2770660519311425,-1.6298279373718518,-6.6027988261635935,-9.13493205902888,-2.640794851018492,-4.195980234733373,-3.279574960316132,-1.995426444581435
-2.880501088579326,-5.797733203128753,-3.2512824471006345,-5.135058857714288,-1.6662197140694277,-5.829992213867605,-8.07445098421164,-2.81438779171659,-6.434599998593001,-9.878525970458288,-3.0226792058750496,-5.705989113624515,-2.8599972229685595,-2.6343665307370783
0.0448209336892131,-5.896610066387376,-4.2772126492494085,-4.800815927887481,-1.4657423635494895,-5.27135213529027,-5.291757843426082,-4.606125760915704,-4.994967908496946,-7.793084185416318,-3.986772114107796,-6.298626794680155,-1.814466719326224,-2.6776565054874624
4.153601029627542,-6.018052715321043,-2.4274877388131504,-3.081512752258968,-2.8801992606682543,-3.742181986415334,-3.744028538250162,-5.66527027580571,-2.718638853516051,-3.209993722581488,-4.148631216809871,-4.918185278779687,-2.1864602378528906,-2.4889272411930783
10.76452543221412,-5.778501400421973,1.9587891118448104,0.722330926526327,-5.244829742643046,-2.5330591345750744,-2.443280686563418,-5.428331813569295,-0.4591536067409638,5.242647160233586,-1.820455491866086,-1.3141790452119717,-1.5125974043306396,-2.127556506997286
12.677045942968808,-4.715396804301606,7.11896153619959,3.595589435595191,-7.204603706446657,-2.8962573620748158,-1.6800288541540127,-4.257792218777228,1.0248282929216683,8.143435481421603,3.1678765961100828,3.5656137002843518,-1.075255816521198,-1.0361042120641653
9.252792412054086,-2.5138950793351675,11.107180026644096,5.559769601972219,-7.286582846244782,-4.813623154511364,-2.256507568341183,-2.7779701669944568,1.6217581935773753,5.16515178555268,8.967176776020544,8.202399604404595,-1.6325102181684443,1.559124501585904
8.029061417267245,0.877905424308902,13.031655142943604,7.61806242933864,-4.666677294137553,-6.643535932577292,0.0171671923730189,-1.2752847395838138,1.9094226078394123,4.05447646391657,13.03093930300087,11.44376481576322,1.0044396256339017,5.7866274911574775
7.456805167783536,5.086575108597136,13.298272296819391,9.07171743517869,0.2102405062837864,-6.280419805795562,5.078615161111902,0.2741777791039115,2.574559566955291,2.840348685848721,14.045058751965025,12.922395768355663,3.653985901524325,10.593180364381464
7.9511024421586365,9.18836465316988,12.853284854871532,9.847759170322822,5.6562116472588215,-3.0012212807298244,7.048093084012796,1.8097419355435869,3.7197412140573634,3.1637574776638493,12.748630919151054,12.824219783731367,3.5061293935963134,14.15051125750029
10.757826069285349,11.93948166581291,12.281868780378367,9.822776306148429,9.625930712484688,1.67613504713301,6.424158800863709,3.033279609739833,4.721690588010256,6.229166898000834,11.04436140397739,11.50698328375498,2.5975460673820816,15.047513382958282
10.97806458670119,12.473536764360604,11.553709638250364,9.603204187675724,10.993577127668477,5.040972559014112,4.307459751298183,3.684729104067752,4.794747941022047,6.592210978674028,10.35873436544824,9.416915299181746,-0.0066010606681931,13.37172824287914
8.863399092026679,11.034161868592754,10.41875745567993,9.128449170737872,10.265688384310788,5.318963013226023,-0.5578906256906401,3.859952450271459,3.733339945629319,4.749453400652542,10.7304383289933,7.222673144311144,-2.2944968909564896,10.75909128572536
8.19123547609162,9.030058452487172,8.842385794700686,8.768142762590294,9.088479388642323,3.024653157252052,-1.7011338691609654,3.9483689596199127,2.13577623526934,4.272764553313426,11.233781062783086,5.76650950007817,-1.959618084847156,9.269033458519736
8.17588493709611,8.13373445840472,7.02333404733374,8.690344091015366,8.894152587138157,0.3965848848641435,1.1594257372550314,4.247541988954664,0.9225045949385784,4.339987987460466,11.075265601223062,5.653935777107563,-0.6781471686166066,9.912465201193426
8.363604815384281,9.01667901698311,5.152232009916412,8.602435408154859,9.818717021238273,-0.4774032876853908,3.3706503546727573,4.693153130114444,0.6259084469970304,4.942470058092142,10.266408047600065,6.774119644518135,0.0272736638224685,11.994507738956536
9.331610935872332,10.794196553450773,3.364761933411412,8.671128147629016,10.809370213872926,0.8429189274065383,6.373046274354198,4.989025360873297,1.1009245066093456,6.636009684839658,9.41377621230793,8.233004915136814,-0.5032102010358253,13.790190000977027
8.897891227826534,11.765345049923258,1.999206375138492,9.262867735605557,10.759962132891228,3.185645302886546,7.47292015199789,4.962872451837026,1.8539782833741247,7.054977775933234,9.06684523570264,8.891886390812394,-0.9580268200378184,13.974017354157196
7.003529759086804,10.90617089886201,1.737864549442392,10.436036536051898,9.585076217535931,5.012846369704689,5.921231696338626,4.752888236777491,2.591948081134345,6.232618404588775,9.32301538422818,8.186019005313785,-0.1221026724164402,12.60902213402656
6.731509583680617,8.820135144298359,3.20159520508434,11.096130721850749,8.253654614336009,5.606984769605811,4.961269043914862,4.661344263372065,3.42724602874607,5.619487636638475,9.923016757098727,6.601794755109433,1.5159707255653565,10.908117892108562
7.7795488922225955,7.240658206756999,6.178895183667299,11.274331735683097,7.8226627490165725,5.2547167212896415,3.809714523400764,4.874834043439529,4.556526633491068,4.745304432325834,10.531570237374671,5.372577662673526,4.436197768720814,10.044296984529453
7.0556293927046285,7.455117994417547,9.259991901244868,10.122294030451393,8.423947101696609,4.557133222966758,2.389803388078049,5.333203444189694,5.764508085041115,3.895153778299589,10.84985451762643,5.522784441912732,5.331655292266691,10.077565934784134
4.93187623291963,9.04405710508295,10.477898724728446,7.265899523297266,9.119394840841297,3.713695119833311,1.122932229092467,5.800761371191207,6.295941643273567,3.238914838321165,10.56963537669671,6.946917607932424,2.7268568825488355,9.921208362718987
0.0274434006872399,10.11573259305068,8.652006435188346,4.133477358850403,8.690146584120221,2.4444808677905634,0.0510197852451301,5.979187146043197,5.319165356262927,2.33225370325579,9.422691801840358,8.289883101040576,0.3256275921472276,8.345749530524984
-8.469510504190877,8.886386961169407,4.342733247426477,0.4219493867232408,6.626158618571221,0.4937167430569342,-0.6388660874556161,5.562872347426833,2.651887065495835,1.2847225986222175,7.418188560542212,7.845923836016368,-3.221733454494549,5.123366440055094
-12.211375355110595,5.207233915287894,-0.4855638016002181,-2.1734494305447414,3.511831081503884,-1.8642067091512613,-0.998388480135911,4.325489105754276,-0.879134438055102,0.6221806769316045,5.028163875287845,4.868448768719777,-5.395051828453889,1.3069107689075778
-11.172473781729698,0.6657983708415571,-3.889697203468948,-3.2673083587020098,0.5831675289559151,-3.816944097970119,-0.8950218247506135,2.332546734090066,-3.8275520265812695,0.3443108309865739,3.0238582579710176,0.2587467955250773,-3.933406852634828,-1.6019674102688164
-8.75817559476716,-2.787671968471358,-5.253768268901226,-4.405678840338218,-1.1287982564245702,-4.513419012627672,-1.68418693557441,0.129954940907286,-5.031262274319953,-0.0585469097218368,1.9883213787269012,-3.9837330603898913,-3.802902119509827,-2.8636315074126486
-2.998230690435199,-4.364071855421948,-5.385806110949787,-5.065914886048154,-1.424565029277229,-3.655753439121167,-3.43571411045169,-1.4074885664457495,-4.331532197880918,-0.4863667458067953,1.9002477024332047,-6.175765381325537,-3.087355443833937,-3.0114446036342457
-1.2879699817684922,-4.700625154504994,-5.473090330668867,-6.216943318900199,-0.9264917585371676,-1.7283922629197086,-4.089481484172164,-1.6475792829458378,-2.5410535304542705,-0.2805193588071653,2.1805196631894432,-6.102924770908988,-1.1237670119062375,-3.205362566350125
-4.219734096780577,-4.765918379082468,-6.01735568067118,-8.076717476288026,-0.5067767109200858,0.2781418597558129,-3.847682644817119,-0.7757414503061248,-0.7355794083774185,0.5407427539251616,2.1841386643459693,-4.963294365147394,-0.3867352944278036,-4.042612562647136
-6.342629895501549,-4.691115142603206,-6.7434418122787925,-9.907889457477642,-0.6344709312530235,1.4267360371865685,-3.609467339900279,0.2320649294263965,0.4854964329076914,1.9697532574880083,1.699562822763312,-4.173190549287028,1.6830705569637292,-4.982623924315327
-9.41892003042799,-3.836282010687391,-7.335692562759796,-12.006839255751965,-1.1800003331747568,1.3071931381973876,-3.0075670398248664,0.3752952156645257,1.1726679683849106,4.184814832181485,1.011733522016517,-4.105876095948478,4.433711075491539,-4.98107920889089
-9.840739582420856,-2.005887754113619,-7.9644132897827475,-13.164254829466826,-1.8068893875070984,0.178292167259304,-3.0298632632441023,-0.484040878648333,1.625693924601098,4.728130046628232,0.5101178436196037,-3.900967548737519,4.669852256528506,-3.7303287712653943
-6.738790994594085,-0.3726592887507642,-8.912045425469993,-13.227721363531328,-2.503575110211244,-1.2372213636122495,-3.8302988948156105,-1.4731913485594,1.9306586310499332,3.445414229075543,0.2601363109721397,-2.5061713953631983,3.165553537868193,-2.2328231848166062
-4.399313998487068,-0.8484198632369022,-9.790108364380384,-13.136338538109449,-3.62568946175967,-2.1563254557733917,-3.0320517540226795,-1.521949646979099,1.8904061855605927,1.5396777978274767,-0.0369002766557393,0.0552210955576217,1.3536464044995586,-2.0281154418596827
-1.835917259533342,-4.274000242513061,-9.466519443147812,-12.573978842664989,-5.335902043080026,-2.1384839645437133,-0.7387096716086955,-0.4082951030755808,1.3101784567128192,-1.635034138530063,-0.6975400586207314,2.452753734308331,-2.007892665974574,-3.740416778848619
-1.2109498285305649,-9.207130380182846,-7.09323367181403,-11.46780267329824,-7.06990330513235,-1.2981898009969086,0.7686266423427531,0.9738615547197468,0.2464846347969,-3.255287574657779,-1.7403041199095384,3.152224299921869,-4.241230865968773,-6.365087010883244
-3.347725630131981,-12.718241837963554,-3.2773202104961143,-9.886642064047107,-7.7717218644735055,-0.2067624037412123,1.8562573820716093,1.3996942785733246,-1.037610409673423,-3.068241078384114,-2.9653125379599103,1.838408437864352,-3.385214225705061,-8.05714245205095
-4.441273529276241,-12.693394935717322,-0.0244601909005268,-7.421980319576196,-6.849827548530321,0.4818186651086513,2.0671944307733443,0.3968447100632382,-2.2944824860634867,-2.270823869368676,-4.328496109661458,-0.2442536794373992,-2.229163691656418,-7.73596381893298
-5.1311791915911495,-9.585741928703602,0.7870529952329406,-4.036034833757078,-4.903498307869786,0.450316315708875,0.918161538333164,-1.4024118256497964,-3.4249535261842645,-0.0791098411877451,-6.137760166339657,-1.4349910480814607,0.2404932317124077,-6.024716323942982
-5.559561281028714,-5.976306297687124,-0.9319478458980122,-3.350084784859678,-3.343381218355816,-0.1144525088648862,0.4295697081680735,-2.912262565111533,-4.443553326354511,0.086917116189509,-8.758898964343498,-1.2309640513416653,3.103285538530419,-4.690601754420428
-5.075507349729709,-4.354673031633418,-3.340149051278239,-5.603806318732824,-3.14916818106461,-0.7235112472872771,0.422311548868283,-3.541964252676607,-5.403386610019361,-2.002057833208656,-12.0728727639274,-0.7764733709148146,3.4446209687497817,-5.1677171809337175
-5.623562126734017,-5.198015840960849,-4.316044796128388,-7.201966082295119,-3.998854953669163,-0.968393039961633,0.177282715228189,-3.535169423431292,-6.3736079124957925,-4.749639189061328,-15.282722912924417,-1.7930291273236705,2.789167710388388,-7.519963514607451
-7.101962405277569,-7.059844192368875,-3.4113208391247483,-8.926079977794384,-4.69782735418768,-0.7594638770147739,0.0632840966190727,-3.5043392739463,-7.4023673758546735,-9.046343412024957,-17.395976484159743,-4.995403429787231,2.373911721165832,-10.65292690572263
-7.8100866665616335,-8.373623459481156,-2.2675550645307325,-9.598573259511596,-4.4696699677843945,-0.2616584883872264,0.1216374147668742,-3.764967437260186,-8.397320706430499,-10.477233884070072,-18.034900237548044,-9.49356935773083,1.3964422771581544,-13.37330491855181
-8.030809084546737,-9.055815443376826,-3.0872661976945217,-8.545676404549468,-3.727873926233301,0.3332131966885576,0.3568182517888437,-4.138365854110223,-9.031634115703234,-8.658149232353503,-17.82384280323511,-13.630657137025407,0.764294494490518,-15.238012632479364
-8.607902689784849,-10.33757095121079,-6.568325214137204,-9.725062173019571,-3.5119660227792124,0.94683471150935,0.6974316049462064,-4.271040589297748,-8.86598449426836,-7.410611119972451,-17.913344446160608,-16.289346835515424,0.724506105986416,-16.55020420350019
-9.307444913997276,-13.135987445684687,-11.166883697185988,-12.86518956721652,-4.249690122303445,1.5671610369566409,1.1672466010940437,-3.988985401421978,-7.686763045593938,-5.710409215896442,-18.97813643461799,-17.383498662334954,-1.4580349274138789,-17.754318652250994
-9.941331814613823,-16.750414628873166,-14.281401443191715,-13.657605710346145,-5.2527968413980375,2.130412555393775,1.190715465531682,-3.3212027859674933,-5.792399200549804,-5.659448751642013,-20.549364408010653,-17.283223803441352,-3.6265905021457576,-18.93273524938231
-10.60667705214028,-19.27596378983101,-14.242929260322304,-12.584031905099492,-5.515124964426747,2.4903344436515127,0.7023152971307576,-2.3323057125366304,-3.937357085173124,-7.945106138612877,-21.307449333027797,-16.079458719721703,-3.851230667987732,-19.805226199742272
-10.488118060754866,-19.335488996157466,-11.429309838722004,-11.12981945278345,-4.894741933094714,2.5013057929561526,0.409361318682776,-1.1152579775661913,-2.913530493358582,-8.42536339377745,-20.15247213748424,-13.614659805087538,-4.584021674134985,-20.05112667873293
-9.49354757894218,-17.390864362466445,-7.764618488167274,-8.500572983226512,-4.297999866981822,2.123906316546053,0.1868053896024661,0.0252811651314459,-3.044414889521975,-7.608875403648624,-17.180723770110617,-10.16675705085221,-3.75543800511276,-19.54277018019996
-8.761718494799238,-15.31523228268708,-5.263104909159965,-7.415644530468301,-4.5909619250068925,1.4716483697306677,-0.1409882294506035,0.554328051531817,-3.932429286721228,-7.0700468158953305,-13.733843186365748,-6.824052442962223,-1.5653842541217182,-18.317496868297493
-8.13287859481901,-14.624924294894722,-4.85188350509067,-8.141021143612555,-5.43252715351968,0.7831841049179076,-0.4678626730581851,0.0922050602476698,-4.640149626454599,-6.129844231867333,-11.435877682170505,-4.909543137352585,-0.3406745953863411,-16.445870585605306
-7.238197419626005,-15.061349112721883,-6.162027612136793,-6.189213743357933,-5.410854496819468,0.3236825885759442,-1.0949022982461902,-1.0947101454826431,-4.245866288525384,-5.604148080029546,-10.978924315972623,-4.911480514534722,1.7826414797880663,-13.999530951305214
-6.264050097946551,-14.861736136235216,-8.075852397675636,-1.9768958248340431,-3.505349455445561,0.2250592969901892,-2.0476128076183158,-2.090374588963604,-2.4913482867259606,-5.655052363363666,-11.632897418107529,-5.993813584739455,4.60971665910194,-11.109346710925058
-4.50925138996295,-12.45625107230964,-9.419404792228152,1.3174121761882327,-0.4039949120875685,0.3497760220882959,-2.245899993445017,-2.001206214560588,-0.093553004284526,-4.778689218839556,-11.860151242178327,-6.618051885026655,5.145663084694403,-7.959792731037322
-1.8970307399103423,-8.014895476344702,-9.41270760376518,4.376459589694686,1.801746721732932,0.3442561676748497,-1.672776720997086,-0.7582451220103215,1.6206071993950002,-3.110521797568971,-10.50422254604976,-5.713990871182396,3.5307941280814146,-4.680503111896515
0.1788905966412815,-3.427056772286712,-7.8424209467719646,4.763044852623618,1.4476463276209302,-0.041789405372314,-1.205508480959642,0.7436037186342297,1.6586114209875866,-2.7278275905275797,-7.579577950700141,-3.353222622062127,1.7382528926347307,-1.3021144555779518
1.807113873084354,-0.7111053272719721,-5.012685060620756,1.7042072864837374,-1.038732765803105,-0.5870381424413278,-0.6226577316913998,1.3816152654513283,0.2311365783089405,-3.50695029056396,-4.076711928486736,-0.4405679153281596,-1.12580367324894,2.0745875487532537
3.220568963423231,-0.2305635510895141,-1.4893338887634542,2.087474882440702,-3.30477022126774,-0.6023326474767194,-0.1905140681404411,0.7775818529458576,-1.2381073778603566,-3.2976437155310974,-1.0453087586274945,2.125843563496958,-2.6275526694532574,5.042810829154677
4.106028403880271,-0.2530794268428167,2.251126456269997,5.528143846011915,-3.0406184523854574,0.4992883397180705,-0.0556920464250777,-0.3813689749706306,-1.1370387880248294,-2.397451292008036,1.2238291802067334,4.017140070657652,-1.63852117059514,6.95881394006258
6.557143108558027,1.750885562004779,5.987669187660007,10.928350041464054,0.022376362399644,2.45941018856351,0.5343883895471566,-0.9474921312044272,1.023106711835199,0.2665511759086516,3.271386406743739,5.404612846033459,-1.1347434261996576,7.477294951805469
10.680239062432204,7.106632293037126,9.556842348069855,19.85369636397883,3.919949144225356,4.0242167482118205,1.509001528577511,-0.2723907302032344,4.123439652077956,5.244441054307134,5.831363608021082,6.557371298422122,-0.6658715061984808,7.161584515097218
13.32530723047278,14.813784767539849,12.531923060690008,23.32708850164589,6.220041465370436,3.781250904415881,1.5592800224288546,1.3070224085377191,6.256536793911184,6.806613448688334,9.078207644347067,7.584139338886857,-0.6130202776037089,7.470187257540594
14.802107236740095,22.151728946369587,14.27697592726926,20.991509972750904,6.079181996395931,1.4407742143900748,0.7146946149780447,2.7825973619917086,6.201107168867424,4.964559696095202,12.37628808905092,8.45514658072539,-1.2467758054329736,9.835806431266576
15.353813160797577,26.49041529176225,14.519580090065284,18.36852239450102,4.727247717429137,-1.601693334664958,0.0364227767617196,3.2127478345202007,4.329513944333513,2.812540009208961,14.70592928523746,9.091244494254417,-0.7679147870959768,14.434359203806054
14.302693230160695,26.909733306246032,13.8843846015667,13.374679390177045,4.076203053450186,-3.1410540875707014,-0.7201976232237232,2.271441894143201,2.230468520113334,-0.90759446698629,15.425911280049569,9.351034699854658,0.4947115352850415,19.73626511628074
14.327908249145803,24.50193202266772,13.623681779688397,11.41252422556223,4.896507876550615,-1.9255531861875,-1.0346550040395444,0.3088921273263167,1.4320440231517253,-1.387437491241425,14.802350207950326,9.01955270997216,1.3472670741251986,23.416918752140383
15.401211996630323,21.32938080811748,14.51364582563545,13.383565776769172,6.263235842146344,1.178083679443354,-0.6936454342854071,-1.941581820225764,2.322156574833116,2.019580662641566,13.895426376840597,7.9806887743740305,1.3225552328907957,24.02826324637894
15.352627698259663,18.98776143270708,15.899660855104251,13.012053811127752,6.620746999381225,3.727067762699164,-1.12640035891715,-3.7228282900834486,4.0980903571150975,4.22878076962658,13.838843362894508,6.488708781735681,0.1295429503310984,22.082093566143627
14.66364633170823,17.833633764635167,15.996009668710514,11.587022903445328,5.28094017029715,3.601789324258476,-2.223506861717037,-4.517288643897146,5.643458542427126,6.377564355522195,15.005848969483289,5.197663597310559,-1.4020233992166808,19.62475091876304
12.927152393123745,17.23608266693968,13.422975078458684,10.050637779226555,2.936799012696298,0.683116939175747,-2.524296464318932,-4.18348954602763,6.470910190641888,7.722542509877825,16.706670132152006,4.753561906014788,-1.516933840918444,18.64024883022526
9.765362345336907,16.406550951699444,8.636923541854742,7.514699765325293,0.89196000049931,-3.10307488399215,-2.207442514286681,-2.944135974841366,6.908507281701425,7.438187310220272,17.718909704530063,5.2330869623596215,0.0246475794283359,19.570641246973587
6.8721593364695925,15.07384514658829,3.816814989975967,6.112950831235327,-0.0769160652149878,-5.363797264077235,-1.6915662880546936,-1.2127739435158702,7.46581669909839,8.043947120859954,17.285954787328016,5.989673015259278,2.189565468423714,21.072829814035487
4.114291747941977,13.57736819079554,1.1659219446848397,5.882245961053474,-0.1540077878089718,-5.066266630935019,-0.7065659834199304,0.6439835029579015,8.092940590424213,9.171951675603658,15.765673512241229,6.149923403504559,4.380121986182099,21.09060913090086
3.144547119534804,12.4552961866711,1.1447375177708636,5.872929358068428,0.0006238285846507,-3.139779259734084,-0.1522001435719285,2.40335573422216,8.119431625834345,8.968277503824408,14.327101489972982,5.35062612838744,4.737296334423071,18.357845622772665
4.515206489532551,11.916860966301805,2.275541341473712,6.566430920481206,0.0042668636221563,-1.5207439484906686,-0.0927751075711194,3.844835175770058,6.954744441362365,7.701613047459662,13.890090373807418,4.014391834563327,3.069657740795084,13.278342598284468
5.852369343436999,11.594604642382038,2.666998839131658,6.711026658742807,0.0438367887385453,-1.5801630047848363,0.5662890215730894,4.55961966061458,4.82332494680319,6.061763613359066,14.214034661089215,2.8955715940144984,0.6341807177046406,7.692948804182805
7.6845371137555505,10.7649610955105,1.762556835144558,6.187543403283852,0.5578471400758005,-3.19921914568242,1.6608135509759665,4.049790463071389,2.7353919197112404,3.735589674278279,13.986065571558347,2.371365280630272,-2.7734488804147834,3.7805961397808048
7.307433626801692,8.908411944585971,0.650938207185007,5.017404123105003,1.7088417069977453,-5.055719407647601,2.0304939814126954,2.19781959049466,1.666859840280594,2.049365179941118,11.913234702052684,2.197199107397566,-5.054067622764844,2.7817405992567217
4.103092486263319,6.198200008225633,0.7273379224948044,2.805588063593786,3.120777698556872,-5.71998601821916,1.7665911965280114,-0.2962955965891751,1.7517955455390393,1.1670241715887693,7.906006999420853,1.9179421088167103,-5.207852747508646,4.259178613663572
0.7228803454163722,3.474743809861536,2.101969876140565,2.067744042788593,4.057120224187521,-4.704580307809088,1.389424773463034,-2.081518546319195,2.277917071925586,0.4072521044736128,3.301660255198634,1.41311689189331,-4.9935372639169175,6.315677741674918
-3.64761534758944,1.6235347663711082,3.3450677752279034,2.8380503780630364,3.888272421013035,-2.8011672210211245,0.6713102396315224,-2.02696483437623,2.429818195257411,0.1513449033353432,-0.1040059256599903,0.9595002898213992,-4.270766115812088,6.687228133711656
-6.085957103957229,0.823796977014517,2.805434233568718,1.7329858321091411,2.532735786375113,-1.5378248681201183,0.418616477421423,-0.1537689408117657,1.982122766510706,0.8313687181334097,-1.3851076427134783,0.8074346773037817,-2.413388338148224,4.113679438872516
-6.039914352642905,0.3622809292581692,0.2146350892593105,-0.8881666545775663,0.571029686853592,-2.077485343999683,0.7347584266525735,2.257862043200205,1.3037086139898406,2.525534241784199,-1.0179331952134163,0.8466663888069945,-0.3776241061006435,-0.8502098854253219
-5.775145247921935,-0.7236792160273993,-2.9511540307761024,-4.600218120715666,-1.0823567664450238,-4.22594994563498,0.4584032817336113,3.623820769121856,0.8449904128269949,3.4387584786070926,-0.209807450103824,0.7925361888679205,1.4269190878497815,-6.142192935128314
-4.426933324144502,-2.7025424964690714,-4.675973348861561,-10.102794446933814,-1.756690498851711,-6.289498628192362,-0.2551029021878742,3.309208389892035,0.767486635477951,3.56971293664501,0.247706189651673,0.6338838635720805,4.984211260130002,-9.47202483047642
-3.832718867454388,-4.812184208775896,-4.060256674029112,-11.349368390126,-1.431528418368636,-6.102846539683412,0.0327800568819697,2.0625438573759425,1.0344088842279575,3.8637866942618873,0.4675859078439828,0.7160467006954221,6.719930198694404,-9.752556265541555
-4.299103902613111,-5.930844939394717,-1.9687531435888277,-7.98068896693236,-0.6492220031166269,-2.681556763946752,1.2374520351670817,1.2389131741360586,1.6500976986908782,3.9171866542071263,0.9028749706353594,1.2763177780892292,4.84492998000763,-7.718313964749534
-4.174408444520134,-5.668313640882058,-0.1917050021856035,-5.959837307223744,-0.0147136012311648,2.7513973717522475,2.4772506136582555,1.5587563923050212,2.637450452112297,4.555126294421318,1.474200587542235,1.9836559534628435,3.6635672665672248,-5.306583024092063
-3.9395454311270366,-4.806853419158315,0.0418621359140232,-4.030417895521105,0.2748452913752643,7.373470793279839,4.024169875250525,2.561284153781365,3.828050899645035,5.897592654558709,1.4584168937840225,2.136523542240571,-0.619706037669346,-4.2545413548716375
-3.573764838761042,-4.598764244303389,-1.0978173154940478,-3.629488225837581,0.4779469352551047,8.745165589157892,4.500754171519311,3.1897439156299576,4.866308055642985,5.530103744289896,0.3311141435264133,1.4313552393263542,-5.026972884777578,-4.947859242229157
-2.8996299576290183,-5.556006647791563,-2.438368523175818,-5.8459255985938015,0.9508574541498972,6.620180149001026,3.668941638719738,2.847177612592848,5.520224553349138,3.48565805823424,-1.3938566430801025,0.4568093464859295,-4.475475569450602,-6.373995095474893
-2.5146267964362545,-6.9200296524941685,-2.9093791104689366,-4.349555983275384,1.7554395250786392,3.028057207230674,4.289305076221025,1.8869405282173128,5.891720696537863,3.3758729537004726,-2.4004150642929183,0.2426532745745184,-3.801487264121132,-7.158490779629382
-2.3953542458704584,-7.371718308525001,-2.32553231498782,0.5445335537262938,2.577613781633445,0.547579834571291,6.13603094804845,1.1599996768852634,6.176541433075631,4.919006450237507,-1.8166494300372624,1.203686876998514,-0.8517927600415647,-6.7634418306406
-2.6757537401942493,-6.313417159866237,-1.286291429826333,2.264293033815803,2.9791214464348528,0.3301185681121268,6.8796954030691735,1.1690129682848145,6.236220785905376,6.024364701906603,-0.2200821331811973,2.5796149165795725,3.2334113886445275,-5.793161393808656
-3.5158390382133304,-4.460775746220463,-0.4962556681121457,1.6805627801312468,2.734449454327697,1.609317170368227,6.915778230623912,1.6516524097148526,5.593054222881518,7.331489668127677,0.7391045206615843,3.067057565197942,3.3210714718655447,-5.183560368915556
-4.006928255633608,-3.144949742792928,-0.2303967110532205,-0.7356658863986163,1.9982416103809248,2.927181263867152,5.034632672489988,1.8815561844883344,3.9933926943661975,5.601459733722029,-0.1514726205897183,2.105528276338359,2.247668145634033,-5.141068216724458
-4.183276193541389,-3.0117310583641377,-0.3333177734979329,-6.29874556100132,1.219128753712385,3.641977367713547,0.6729638789568363,1.3008584764071554,1.9076983335444373,0.2657477360090436,-2.4880755841277398,0.5089085942558289,1.289858839372899,-4.966421496859312
-4.216870063636891,-3.418927827314145,-0.5220753303883137,-7.63854198954377,0.875339693225716,4.176475157987438,-1.477793540905206,-0.0810618891515888,0.2563804879944005,-2.5174260987680364,-4.597383952567554,-0.2900872809645922,-0.1081226412209079,-3.985403192984339
-3.897210846715186,-3.1473904250311886,-0.5468991093535114,-4.57377223403085,1.1841295580700306,4.974900431146228,-1.5774074875661617,-1.7571297900636076,-0.5150172317489337,-3.3182978971437604,-5.092165919171878,0.2834332480034274,-0.3034260969092419,-2.5853748162104755
-4.04159218207586,-1.735154812652759,-0.1191405820744622,-2.7264438627498486,1.9497173115809596,5.567612936627304,-1.246497856957589,-3.1027320335657844,-1.0647615139863489,-3.753876714063641,-4.13650242758167,1.2226179082128148,0.4032939169141306,-2.1377729837062533
-4.6639434162016,-0.1189162623438031,1.0591630431397103,-0.5632492872843756,2.65527845676477,4.925253290938796,0.5481419811530975,-3.7740559744934377,-2.718110241264683,-2.613149794779779,-3.24263183506768,0.7756043278171223,-0.8001479380471841,-3.7209480914140993
-4.775985125000521,0.0711820230000199,2.9183327779539825,-0.5141054160614046,2.765748345978808,2.7164959837360847,0.0680110525374128,-3.900158290470542,-6.257039527982586,-3.684337646101592,-3.865100947392316,-1.8730861076040155,-2.2834739639943646,-6.908824454482877
-4.503696919520407,-2.065661948602698,4.605333253620019,-3.524589068227248,2.057949874474403,-0.0256180901074039,-2.944743070745338,-3.957924708941187,-11.040464587845731,-7.146869592406517,-6.143465203518559,-5.671813353429531,-2.263596689610395,-9.957915873771004
-4.62487981553102,-5.843923914551606,4.671683435226141,-4.808182094497748,0.7702243056697817,-1.6988999121686297,-5.818747039387939,-4.368075854319184,-15.27360257418621,-9.852499391264518,-8.879277824453553,-8.444028064926492,-2.730717493898564,-11.31797984070505
-5.014640045064391,-9.431029775915464,2.0776849237669044,-5.023126208114574,-0.5160416968455586,-1.6188083473361328,-9.428096282392708,-5.064095886150948,-17.184149151365496,-12.58728889010355,-10.610189569668934,-8.643263080354894,-1.9007710975012675,-10.956126405516432
-5.419725418715751,-11.152691377900632,-2.6740306903336446,-4.9699874487110405,-1.192705619217474,-0.6352226351362678,-10.620354614552443,-5.40539706424164,-16.117831521882536,-13.428799066500932,-10.708964339347151,-6.51136705452619,-0.4483796720555307,-10.111084952568849
-5.966988663503112,-10.562692999055034,-7.38719577924309,-3.806337565398017,-0.9958231141339766,-0.2596587114893687,-8.831474604055655,-4.6164066972962825,-12.776712322008658,-11.751896877263372,-9.594663948607124,-3.641115863028915,-0.2919519891564303,-9.742524816705576
-5.211024729692377,-8.512768847721889,-9.452367779209125,-3.2553321839471367,-0.2613803904257175,-1.2654532872197244,-7.681307879177122,-2.4835079682408825,-8.631201345184646,-9.511417624459346,-8.085754630840729,-1.4838417864229712,0.6455501359112179,-9.366773123334552
-2.9985622306663187,-6.356463501691239,-7.731996742308956,-3.2689001047565798,0.1227617190210281,-3.1796443481689067,-6.375964207951369,0.2714214287562164,-5.104315350679727,-6.04850357585776,-6.675926446027809,-0.285138962381211,2.045442036825113,-7.602701772190276
-1.2487552070229715,-5.024887644596539,-3.5292590545835445,-2.909440243715128,-0.8087758559933143,-4.984624524830807,-5.547628457194698,2.334039637973582,-3.0477554721823346,-3.793955670651134,-5.413562247998708,0.6245082809716784,3.08517866731774,-3.908402007411059
0.3282118767087963,-4.61367737385206,0.2466374108020907,-2.498026410995644,-3.3500618851478734,-6.037190840361305,-5.798864982606418,2.665720915233898,-2.605961801607581,-3.142246940030528,-4.32284136702371,1.681401976772371,3.7004891107085465,0.3767956382042818
0.9993905125957684,-4.590338862359726,1.1330892101710788,-2.508169239319303,-6.6133598403030085,-6.188078592178503,-4.107690499798798,1.2461918383199055,-3.3049806233218177,-3.047513029421657,-3.7212308667537,2.3980118808996416,3.01612332519857,2.9507804717173443
0.3229045212071946,-4.30846577800056,-1.207229153412161,-2.906297729644056,-8.817131466746236,-5.254360352993988,-0.6476677710185016,-0.8790953205768623,-4.265916806596717,-4.27918699871967,-3.956631657796653,1.867745165758372,1.6213724091958976,2.6593132194401896
-0.0729900381862804,-3.459197182024276,-4.933556879006137,-3.152882822310515,-8.41311031867632,-2.8556767153464904,1.070843309506459,-2.276480450963497,-4.575281474973728,-4.734068977888014,-4.814962926314312,-0.1098310640711162,0.220438615701782,0.6948603491708845
-0.4651439863906555,-2.260378143708444,-7.510799980602457,-3.320943984523945,-5.320200812319509,0.9155153116065832,1.4081874065831874,-2.0349192346781813,-3.770928412534317,-4.359041133118552,-5.346605980219668,-2.526176251147607,-0.8170787649924728,-0.4248158391863015
-0.6462301368881477,-1.3483650181780042,-7.494321939830375,-2.75339761151622,-1.2381365194601948,4.795131125119344,0.7697575297013007,-0.3060318078742945,-2.1823564517434058,-3.679430799076237,-4.533636216680076,-3.8920903472419255,-0.0857003940499961,0.7861336254014937
-0.3160223111257751,-1.4288724439663305,-5.325486197000398,-1.271245323846577,1.3813922865978014,6.798012990560142,-1.590668508239634,1.8290724538360728,-0.8046759965032706,-2.1639670990246533,-2.32672120806334,-3.549672997517291,-0.0212586587526495,3.3481846324697
-0.5869513666487047,-2.8315864753501216,-2.7649799400443023,-0.8625814792263354,1.0348166535319834,5.826677639231495,-1.2362391230025662,3.0356766528692063,-0.6705892972962495,-2.3464650434004204,-0.0389955704899698,-2.3127353725620097,-1.6924549304542218,4.716505880202714
-1.356823650110801,-5.213594879659933,-1.587358942701563,-1.4488471524212927,-1.7593471713540758,2.9617328385125603,1.9945263655226808,2.5312053210115693,-2.1193548182093664,-4.32976725130738,0.458733237097757,-1.791960946278664,-3.4692302760647684,3.1634437054073032
-2.0872818477781734,-7.641533160953323,-2.4849698938404323,-2.3730976344671206,-4.867691105785699,0.9259556941875502,5.052659408978003,0.5773424399234983,-4.522384025530965,-5.7475536203457605,-1.797843711203008,-2.976572006859019,-6.124288739286567,-0.6356645513105832
-2.9631159650317658,-9.06495231216173,-4.751093289615415,-4.07280248821704,-6.112748496576359,1.899498062673171,8.92767809448613,-1.6111788174940358,-6.687324927997015,-7.101803005953471,-5.959538380984547,-5.309234576777627,-7.090553293986836,-4.273904229982801
-2.025489812550666,-8.894534230603941,-6.7326359459198,-3.5629831532606437,-4.780761337774376,5.5960579222512905,10.58856416031814,-2.519938991961624,-7.593429069699528,-5.597839564061493,-9.7999941675481,-7.047904156300813,-4.0162672238759525,-5.774680128285787
0.9776675913003076,-7.279148013440384,-6.708476497652899,-0.5978532881160562,-1.9406704250788849,9.427019944585606,9.43915978554514,-1.227532668155586,-6.852884615368762,-0.5747191050593251,-11.143657750155956,-6.600291310996706,0.5738573268615996,-5.082652808759985
3.675035503068381,-4.884929614890051,-3.791478088070953,2.4117180098300173,0.5576995390235311,10.65155724767038,9.62185332907532,1.9692499838624544,-4.617584171122108,2.868608018538848,-9.15269080373767,-3.725574141565147,3.0795081502729693,-3.527741692897088
6.507709131691557,-2.3755665129852908,1.5143089426683929,6.175622088082948,1.508503798400735,8.550620717400154,10.417622195020362,5.62800454167629,-1.2271492148618854,5.345731016936099,-4.586525045089765,0.3340605777160945,4.379374373777295,-2.03496523775323
7.782640606328909,-0.0238873248281947,7.406379445897377,7.597708349376551,1.0641635237574327,4.718262613637474,9.341812532642765,7.982437319038613,2.8934203957659577,6.452099493411216,0.9236183311641676,3.809120284071376,3.68888274487832,-0.0979744101758797
6.923014652183911,2.255019165378176,11.60736050782951,6.098649653524076,0.2937193343292108,1.412124892065879,6.864084837552049,8.045025782952028,6.971363803503952,5.094970055772206,5.831781837820536,5.599407608024023,1.6707766255208636,3.374710692685589
6.956714917769898,4.545969191535471,12.5718036142427,5.452004869326951,0.1178463331038059,-0.3457685216641977,1.8935181479396703,6.229286317646334,9.711357445169384,5.700194910461487,9.177137901450616,5.765702208562441,3.9306781569764473,8.301917118027852
7.41142107540337,6.626729548417066,10.361617302812652,4.879238513578216,0.5820913784108495,-1.2357362702295482,-6.144920287356464,3.9814227994200593,9.729843939430936,8.014759539464913,10.547951154415014,5.070979811591855,6.294621395906254,12.759818912376412
7.140865541828284,8.011095807110028,6.559301430562952,4.013246698658299,1.0095340744152566,-2.5426946729933637,-9.46792123741086,2.6465076932278717,6.521955556544933,7.784873725104162,9.912808018128713,4.157663491702992,5.372960513308747,14.30308799493014
6.581182126200515,8.298158822450706,3.213833247172488,3.404941025443657,0.7490512165850038,-4.779304233094887,-7.886953007622178,2.460019453268787,1.189051817983362,5.620613265759899,7.656278214553357,3.150348447005724,2.3193138486325897,12.091937610329875
5.445069369831676,7.501577204067949,1.5437055119370982,1.0419046948032389,-0.2258361663511472,-7.293007408203691,-6.436331053784253,2.514842730357396,-3.887006187003625,2.2556689399167174,4.713496114045718,1.9254225107375849,-3.587326939184372,7.745128092358032
3.608171683557961,6.072900783982208,1.3379081617221722,-3.107672071278293,-1.35279431818034,-8.960391097352767,-3.3681199162469877,1.730576417883503,-6.448740654152121,-3.092321389958064,2.407251279828854,0.5917801215506344,-9.09951547581999,4.060839641435608
3.1852753958138904,4.63069266980281,1.4528357623809534,-3.636377460546865,-1.9950345017945708,-9.102305598785884,-2.2763401068414733,-0.0651520358301773,-5.8919854854417695,-4.420102871277203,1.8112073666578752,-0.3999753208184504,-9.259723102925202,2.816806945021652
4.262541008208472,3.662603830166473,0.928143936728766,-0.5453754365256468,-1.9016246360473783,-7.82599602657988,-3.938662557836628,-1.9529176649531743,-3.682184345761119,-1.321921938229642,3.013104722608668,-0.5966352670784723,-4.551440429890972,3.6711024303884567
4.594462580009796,3.432670047406217,-0.2254129119050967,3.1788700674762933,-1.2614318447910584,-5.747199910613105,-3.8063325161008272,-2.7926459491980617,-2.197569015511683,0.9077082417539362,4.953551620075379,0.102314577664881,0.2732941200958153,4.997316398516883
4.587022127008924,4.052130915069501,-1.1784639615687569,8.744882921694106,-0.4435284645659028,-3.555300133172869,-2.783235005944834,-2.291002808813487,-2.8116218828730077,3.6045678646585326,6.1484710956906605,1.4414652511061543,5.096055092418106,5.6042583414943214
3.737454839944654,5.472772547707869,-1.1593402851698809,9.37029481564417,0.256838853361101,-1.7662088686092186,-2.122238263839711,-1.245559201574296,-4.745584216189357,4.559206085861822,5.803867615508991,3.033358449402696,6.612802355060143,5.614171977640525
1.5991256120983168,7.281420470399328,-0.2414942374786792,4.207787705329517,0.6874386229252356,-0.644640295171186,-1.2265935814814104,-0.7944106646556706,-5.696944010395991,2.8383475559044884,4.372179715498536,4.424197985905422,3.423244936703239,5.832468724809241
