AF3,F7,F3,FC5,T7,P7,O1,O2,P8,T8,FC6,F4,F8,AF4
0.3194947874400768,3.0847092791213835,0.2200289267715383,-6.218699360715305,4.069299688318935,-0.7930917805574025,3.4392854517674705,0.5038500465607885,-1.328760412272688,-2.201850996160401,0.7562880947905055,-3.264482773490536,4.662737981118303,3.132882856240287
0.9197360191054496,1.4980973206979842,-0.7554338936599541,-11.498743887898272,5.708457275788458,1.6843061532414207,5.13717935526855,0.497812208244748,-3.526231657992907,-3.387029074052021,-2.075186291995605,-5.9957957967837645,5.228075998681369,3.915969593656673
3.868985084632662,-2.9755380178687867,-3.1827259381255995,-15.34848370027806,3.867220051384362,4.010228479101436,6.91580778707822,0.2453847882948548,-6.028362208287597,-3.5360818593111327,-8.649784758229165,-11.864491583512352,2.816999274990945,2.6074001713153865
5.206721707746044,-4.946780937007106,-6.158382226626072,-17.80676836264518,-0.61501773171587,4.03679559718239,6.504541666758351,-0.2063684415418056,-7.232995645432531,-3.495382193791838,-15.10202719635598,-12.013854228172534,3.802112512562516,4.086135693746105
5.505677334581399,-1.909676379136124,-8.263038701316477,-19.053298619515594,-5.683173716440584,2.4611019445500792,3.35131151362,-1.0131016541090967,-6.944746209387416,-3.845408114868047,-16.31697826831786,-6.540122464139856,7.094144271822586,7.628611588464998
4.541976987164887,-0.1997923738511745,-8.532670673649461,-18.86679715112811,-9.420139576588683,-0.2823401374343877,0.994538999045462,-0.7891246522900066,-7.185965646862086,-4.019173131314239,-9.850196961275326,1.1159603024148474,15.131073652500389,15.811732977403722
1.5064387775270216,2.1514203973288857,-6.98463327471649,-16.53544650760893,-11.070609126755937,-3.6759098598306994,-1.1288354042286932,0.5406237076254944,-7.59146900872726,-2.676141969917655,2.102472778978454,13.019960682697954,29.386539804853577,29.88982740206812
2.7017937325345853,4.192144992533295,-4.333256017868978,-11.548041881937776,-11.008677665399242,-5.0679697622200415,-3.142283551408434,0.9509028377648452,-5.680847870317006,0.99271340795163,14.15170080945786,18.38188804424732,35.70777323408435,36.08207255800719
8.278784268723474,1.863812247527804,-1.2357962299906982,-4.589420412309821,-9.860707528519402,-3.1666067857651083,-4.4116808811444495,0.657913802278072,-1.5492711337641702,6.331326773079827,21.321432535471725,16.29880776305047,34.112793895411585,34.37551684440993
13.921785373502756,0.8880264099813174,2.202527764976973,2.230268779096816,-7.755893212906203,-0.1952383599734472,-8.469570635606042,-1.6243228457352934,2.660662983607621,11.569598658294725,22.021429295758217,15.15286569656678,30.920189850827477,30.336978773663333
21.004734252148893,-0.6547192790841725,6.216226172266843,6.545909454891715,-4.473881396771528,3.08141495489358,-15.378464309882776,-6.469972274876567,7.387272796722937,15.096507935678837,18.38675984140673,12.357758666908216,22.885223690738524,20.72100648292826
22.884173258255924,-3.418703495621887,10.706375407431208,7.598320217107579,-0.242459634870289,4.695010056874231,-17.88862355586016,-7.952046001254464,8.920962299609949,16.478849000999343,14.20773885765723,11.30652058550335,19.71463935736512,17.068834884299626
18.45526839497395,-3.8382867834470313,14.82053074586701,7.090436131238008,3.8344250876205095,3.541108814501113,-16.252014694148937,-6.139010360293549,6.524003618318494,16.43691163833371,12.332780640421657,13.184977819624072,22.33166620994944,20.279639691401137
15.006175645029863,-1.5690545814391967,17.283928754414546,7.932586986196362,6.388277141938142,0.6439969500507754,-11.763681729589264,-2.882067657546277,6.857498230166808,16.015102551337158,13.31507943824472,13.959776066120432,23.16238595911739,21.39254972923357
10.855099703810986,3.794172343964522,17.265515906705744,11.665946006182622,6.959410620559632,-2.674321563719292,-2.668247209665078,3.2266905667355554,9.165080287917364,15.766750741774326,15.71329603450817,14.725646728984572,24.52952089540481,23.088781346317777
7.815212074703935,7.132407520766226,15.017998001220366,16.802927168893664,6.531719187557449,-4.214150560307317,1.2211014695643132,3.974530512844693,8.268470273491616,15.490763855173082,17.29170582415983,12.40799959802204,21.522172811908074,19.65468192899901
7.109183086400381,4.985311911986164,11.689549325575872,19.752769708867827,6.761873752801904,-3.799529937518002,-0.4797272298268495,-1.20376764388501,5.039351504542155,14.450235582521836,16.222344561848843,6.236966583111282,12.8757821247933,9.557050872515056
3.768857802064726,-1.4712701543555304,8.438542650518555,17.724859039050486,8.524036315764647,-2.031267590255387,-2.004029134287495,-6.057340902723212,-1.4944498707169018,11.763493720076276,11.864084989048134,-1.4349392431913364,3.422927188114082,-0.0103779212611257
-1.5881553861987312,-11.36019069509673,5.619566873130052,11.111682475996547,11.112743515015053,-0.127352463883166,-5.651450843008335,-12.505983671417193,-12.424370897318616,6.837146585513926,4.9865658980905945,-11.617440061619964,-8.332005281589739,-10.662266170859226
-4.529904735026955,-15.219522043272582,2.745489828783476,3.214435290284713,12.850900045898843,0.7271135771088163,-6.177938777135359,-15.451065144035256,-17.137754289211326,-0.1759309148588093,-2.6852636839881754,-16.639283244124556,-14.015885230508834,-15.70524214878398
-5.586454647482672,-7.718529611731192,-0.7787960486951535,-2.4408572260143937,12.53341824024116,-0.38341119498725,-2.754029007366103,-13.73385911947319,-15.39753213914716,-8.109877057769825,-9.507823155783456,-15.661713427785376,-12.321345364238445,-13.42223329825999
-6.704425957300142,0.7235041576581831,-4.848760698005756,-4.746525312028437,10.38865000606529,-1.1854391825532438,-0.6519781523234907,-14.76811540715237,-15.801257235657287,-15.09354437230789,-14.871979205028492,-17.385990670083157,-12.451381372070534,-13.735468200474829
-7.113884474431524,9.5475328454854,-8.515731385421319,-5.2425399331820906,7.759223005866775,-0.8917979558970097,1.4250109392048862,-17.313026889110485,-16.169538003105988,-19.495196268906906,-19.18687010169623,-20.122233583643283,-12.325800592465052,-14.8821614166576
-7.093099084561139,13.61552881052086,-10.614511630936663,-5.877596385503305,5.91702705916161,-0.8130426033313181,-0.441034257759687,-17.482029170207255,-16.10205486514728,-20.91224386004277,-22.77503637912583,-20.56732107991564,-11.713889698552572,-14.231106342947536
-6.802462031884424,7.0544910059025785,-10.591177272538252,-6.63241432665242,5.142279382665684,1.148933115952676,-7.355744163834761,-16.19539999084244,-16.717356076800744,-20.332845579207078,-24.777487281746147,-19.82163216815877,-11.928966584524106,-13.212630021034558
-3.960731099445927,2.915274190788661,-8.849094019419814,-5.495750106307307,4.787142457736931,4.805014475435092,-13.419783942265786,-11.529919728860644,-12.568894653016784,-19.18531154166189,-23.43690481941925,-13.261118210335551,-6.253840069645032,-6.281199982835504
1.5327254868872566,1.0202389504464673,-6.439632585717152,-0.9850937266539548,4.016549600000108,9.017112704676626,-19.69676473091261,-2.664319655955793,-3.5213582581514924,-18.021704920899964,-17.82618359410766,-0.0323635812018913,5.41433028387366,7.137992237670049
3.4157073985839688,-0.7893551051946456,-4.48310145706834,5.237136160696366,2.3573513072197048,10.851927434769056,-21.743780969185,1.725845001971846,1.7652706391817945,-16.041269006197233,-9.400063391160971,5.248124260152404,10.812967968662578,12.304760049604692
1.7340781515425852,0.2072497548610923,-3.776560289288468,8.520434638683472,-0.3946064949750134,7.7565878082202495,-18.10483703147928,1.713566136439041,3.954365704869786,-11.96612319911117,-1.5829320386778356,2.810094349089723,10.563861935562148,9.52073868915952
-0.5131290158169165,-1.7833158324687473,-4.651212855835892,4.622683121156744,-4.500756618371701,-0.7694889733956315,-17.12045243192946,1.1118191692322068,5.871613558857691,-5.5120644423057055,2.589743165514376,0.5267475540229188,9.51103313389988,5.882298649700925
-4.744454180342283,-6.549510729182958,-6.836900698026508,-6.3280932026701056,-10.137250743812254,-13.445204838688936,-17.62037208212602,-2.0430483725729194,5.761270583480447,1.92634416311029,2.7424105434652604,-4.724596876504959,5.0699014263807545,-1.8197391261047573
-6.382390932295978,-8.15452911599823,-9.276179362507788,-18.914399051444136,-16.717062707236632,-19.09024894124865,-14.09167868958838,-1.2888854002586607,7.005670297973998,8.066727336695621,1.2389598154833807,-4.954555527559286,3.0216981273104078,-4.691399625984622
-4.92076527414326,-5.2629216289933645,-10.256690093757989,-25.79546630454691,-22.45723617466184,-13.444279481179466,-7.57398790287527,3.9933261113855503,9.775388466947955,11.319158431125729,1.011605876137213,1.0991178964864468,3.8759133939863655,-1.6414354790631578
-4.212450176191239,-0.4315388908124175,-8.240262284624826,-22.90871790136741,-25.000389742574445,-3.6809609622202712,3.75841917196585,9.944835269503336,12.33402147015222,11.736901527209296,3.1664258411217228,3.966616302313688,2.295496137791047,-1.4597933896007051
-3.145524556140184,6.54826271346143,-3.10492505737316,-12.350601600044897,-22.92875768745831,9.918230660325806,21.102042521793475,18.24532813519938,15.46890020172487,10.54883172978125,6.425312024484819,5.492358520249354,-0.474219616723984,-2.07962982236088
-2.652754943976614,9.6858506128008,3.2170510771624814,-0.6608924537278424,-16.98504736216921,16.606043864929216,28.72361443206173,21.00529419306289,15.176054638524404,8.849268983499988,8.566739791894816,5.700647307089477,-2.8614614941084646,-3.5962605535256174
-3.254341064084313,5.635237604814892,7.606431991226481,5.963692131973628,-9.846383928029088,9.299347248138725,26.150811256360004,17.31582150884865,11.012767434427738,6.766254673910286,8.254963677812638,3.045470043642682,-5.4690523624297125,-7.258159632711086
-3.491956526455714,0.62856923244869,7.854338250335024,5.662385720376097,-4.454430574372704,1.1034051036044048,23.135938405528915,12.463924920648656,4.168575108806627,3.8476046242556494,5.688249813094268,1.5865276279785487,-9.258585556655724,-10.121917802893554
-3.722892831281297,-6.036355109296542,4.440312948553384,1.272611441079194,-2.1336062495644814,-8.038567574998572,16.051586679825544,4.337822780849415,-6.574416871218782,0.1213985981932799,1.9579822083908347,0.951615217941154,-14.174311370798009,-12.528295009176762
-3.3830272129881536,-9.450091047690115,0.3797792296070668,-2.589509727064672,-1.90224143953266,-13.14132710625819,12.874686004057118,0.5912338290957817,-10.925868660532943,-3.3847926916265525,-1.8548434895569537,-0.1568069367765162,-16.628494068425145,-13.460445575945744
-2.2325941373188742,-5.429376138939348,-0.9937024268229262,-2.983367182063265,-1.407352386966064,-5.996829692937709,15.073573370521824,2.249990400624573,-8.20760568413804,-5.296562299977819,-5.031600590537739,-1.015992034481604,-16.517730023144818,-12.23916133218486
-1.2568300209109746,-0.9228375246455708,1.3769149095296491,-0.0983362642674796,1.2991646441555016,2.6071833951895798,14.853456729221673,2.5675364267178518,-4.511544894517018,-5.121689179561814,-7.142253168686047,-1.6850960007530515,-13.666252796533074,-10.759512046455129
-0.2784667116411466,5.14527890747055,5.45798602638108,3.745785274245753,6.4106199041706535,11.69117473264295,14.321993324364888,3.4860328206441813,2.7548887964304565,-3.842401882083294,-8.063483550356626,-2.13938836151926,-6.987226923806631,-8.559395619635287
0.0923107169635911,8.939367241909958,7.811542693848763,6.190067603178878,12.251692809523838,16.511349150826327,12.547938618270427,2.7447923564247643,4.561630603939481,-3.24517454636287,-8.1234936587022,-1.5688574251474292,-4.4731423657275045,-6.839706409576639
-0.3717646606708867,5.03426613672274,6.370605668066046,6.379265409819089,16.32677888072257,9.568016154580445,8.516773915913792,-0.628011453837517,-0.2211872878997945,-4.547156046397655,-7.938965621886361,0.1406163784077884,-6.272719438892571,-5.961271796863595
0.0298769310145301,0.8150790193929703,1.9895386135421165,5.188242818855709,16.78781501914488,0.0784480754687176,2.766160758504409,-3.4724101287803784,-4.627919386154411,-7.504270598979058,-7.821231122287378,0.577785334722042,-9.382322339788049,-4.567482232811528
1.1795136202488343,-4.259527404115111,-2.4208473610598418,4.300011319732613,13.440172031793088,-10.373474570733617,-5.391652927291225,-6.562723545254509,-11.001782838462008,-10.694807476281577,-7.341098563032713,-0.2119211184517718,-15.771383130136847,-3.0403685004262484
1.885431232050412,-7.451334545690219,-4.272276450500913,4.792737094615786,7.759725389598548,-15.68664315126407,-8.74627496597089,-7.33649435904676,-12.101160360790036,-12.604958215033896,-5.7108468919481385,0.1801827747165164,-16.365574548435678,-1.0562391605202035
2.424780095523974,-3.178368414090029,-3.130998948859034,6.092521647004601,2.0025788219060665,-9.72322283868725,-6.843503972845404,-5.12917415567766,-6.613546005334567,-12.534950942131283,-2.7601546418088567,1.3562633451763568,-10.517708782619204,1.5645893596894869
2.8045751309685576,1.493891055477639,-0.641465034252656,6.107369063844232,-2.001613214526799,-3.050660851536508,-4.47823175768523,-2.4643768573199165,-1.1863159841465172,-10.691140183473216,0.5647162655438045,3.2998978814188087,-3.9301184692922897,4.711379343919886
2.843634744533834,5.684377526405113,1.066627738721765,2.7596002165596225,-3.666007090140024,2.863356771786849,0.1076183337837353,1.4609058834086486,6.170061221292387,-7.66919580780691,2.9223711711156586,6.460791525419491,5.636250571148029,8.548510067123544
2.7756991270232203,7.090641623574292,0.9553184988750676,-3.999110623168262,-3.696866113285459,5.957208564975264,1.878328993736889,4.386284195858478,9.97136552362772,-3.9916883205581417,3.920880795782992,7.532527032108619,9.227382448464306,10.00987576988105
2.5362119447498968,2.7072620622635903,-0.5340100056143946,-11.39718909403476,-3.4977979377734805,3.026552375163568,-0.0069473113098424,5.859176356806387,8.982014741006896,-0.0612708004036122,4.615627323597099,6.408340809064853,5.6275572712554585,8.850806011922373
-0.1580619875894447,-0.6623467286667815,-2.200288458943696,-15.364817385794776,-4.348260340355445,1.2768260756691374,1.3660020094767096,8.793629933510772,9.598582906509542,3.711110782061242,6.439242457089808,7.267587945496787,3.89325154042202,8.344859963469776
-5.521673281392705,-2.227885691492086,-2.988785841725305,-13.53947581220491,-6.7593786094876,2.433654225005731,4.896471432790164,12.633836805480742,10.32668932483046,7.01444812477461,9.564425558715332,9.572022849841725,1.8525838047055407,7.8362432235277
-8.32098805022448,-2.2452997183903047,-2.3939336163351834,-7.334663019218726,-10.232010752911568,3.149810532484828,7.056579061006876,14.44847570652123,10.655737638476204,9.951200596094896,12.487076267494867,10.819064029935266,2.1449491764850515,6.918675431229234
-8.783620504902661,-1.1559948179095207,-0.4361952829736868,-1.088330349020322,-13.47105251694311,2.412592294092033,8.757811564575025,14.416083309543644,11.41978494831749,13.051131995958873,13.43778965786195,11.612519802864549,6.289879596255397,6.084065586350533
-6.065626934881468,-4.271368628826316,2.365208926271791,1.2812172982128116,-14.956916402126254,-0.2402100718029615,9.695460960884027,14.210967669461956,12.09267190938414,16.653127421316363,12.229346096037665,10.221561710286666,7.90589727809237,2.040021830346926
1.2494423180022762,-10.25485431252816,4.961022448234161,-0.6271322137033817,-13.61770647218768,-6.590872902441471,9.316980068520818,13.258800158121923,12.88384627631589,20.08016881424515,10.532380650516544,6.085082133310771,7.843851398731615,-5.4160186013605065
3.825677896300231,-12.374331778956355,6.043625038091516,-3.561017321830766,-9.275867766981817,-10.265391816491604,8.460832578592349,11.372330827574592,11.892211391597376,21.54049249763533,10.14102537206888,3.2994133894078805,5.9863103678779925,-8.79136114109573
1.736423361188291,-8.009131073543514,4.794025044284938,-3.61890869807484,-2.694658951815712,-7.362929482610187,6.854573071743234,8.682977521245581,8.932194644667593,19.21984059334558,10.94625343557992,1.5080492229447915,1.0848457567737275,-8.331963047171156
-2.145767810371348,0.5391082795636576,1.6100865501612596,0.245674261575596,4.690688119382325,-2.083116058532026,3.938728986736014,4.132948224895517,2.7456976469663203,12.863660497891772,10.760158763317278,-1.7080869181705771,-5.068363258188207,-6.949055114997198
-10.039152978368286,11.366326880175768,-1.9552911256610936,5.353687201614084,11.16733693642188,6.713158695759589,-0.2897023751621692,-2.3906721048465083,-7.4266863087411075,4.444627190740431,7.320074589757471,-5.677146796752773,-12.994692977173084,-2.988425183955363
-11.24103167885265,16.273558794728462,-4.197386933112281,7.84115973032391,15.212807006703189,11.87932903000765,-2.1492943128928927,-5.424260582445149,-11.483363972218603,-2.870639373007922,0.6193953259958214,-7.993868533512471,-15.992160504377598,-1.1472085930034737
-5.105102994229016,11.94146304754384,-4.393498605842065,6.305785295505482,16.08208017648456,8.540973277991428,-1.432420936215225,-4.76075203307204,-9.17940719239447,-6.747349509230928,-6.6259748473623326,-8.72301758995985,-13.222578496710018,-1.794036436226665
1.3036318124700463,7.426731596797191,-3.044274037820035,3.266161203722305,14.335950589966329,4.355369539095549,-1.6515651138524796,-5.249407571853592,-6.586844696405143,-7.048323678485137,-10.817638075880096,-7.288505159386635,-8.71688128678455,-1.0172921737060563
10.529155670533116,3.19661442414436,-1.0902581030589875,3.122613015188395,11.80775564128431,-1.1934663278010942,-2.016487210457509,-5.742634275742257,-1.3900463679271888,-5.472569282993933,-10.04694940376557,-2.9618241047313094,-0.5544322893184882,0.1328517871540412
13.504703202630692,-0.5353515793980468,0.9593183410834936,8.39681373418367,10.63098065725518,-4.869351997713587,-3.606036298345273,-7.023198072991069,-1.0280374282502212,-3.973811207405785,-5.376194870451542,-1.3619667120239909,3.271977796466216,0.4260637589366697
8.794269791368205,-1.760294178730028,3.026390392421167,17.427033340919678,11.716466186656485,-2.0290403180839878,-7.057087808648383,-9.86899457623974,-6.639214524811428,-3.464699049436581,-0.0382623692930406,-2.4930632348934245,1.9419720990869709,0.2179282468687392
5.828820711107894,-3.1902737993718127,4.74104666455081,25.294492820905475,13.836426670891036,-0.723494975198938,-9.301390245475572,-10.90321734439804,-9.676083853008132,-3.788770682145525,2.6574899571699,-4.754728127462715,0.8791520431151961,-0.5970424671324487
2.331759528234873,-6.159886826627886,5.110007091522504,27.05968444956173,14.30294436875482,-1.346500306832361,-10.652875053599926,-10.388906945101516,-11.88998313932004,-4.517101866020152,1.3015711860178527,-9.528525825929874,-1.981621153383221,-2.220610563133356
1.1074913877013777,-6.604119332808895,3.3044231498576293,20.800791619481814,11.002710996700564,-1.135588152292201,-10.97313942717239,-9.555235953128358,-11.095581575239628,-5.40881659624851,-2.849052158551535,-10.205191623969409,-1.9260251846707903,-2.303249159826477
3.7278097024987775,-4.050098644460502,-0.1106224168510499,8.580131264957117,4.256382468177648,-2.4404423441725185,-9.594912209711246,-7.7665396659220605,-5.7195673846174575,-6.045771991594853,-6.651620481600908,-6.44328089161905,1.8382351235750092,-0.731446808214218
4.477405623654127,-4.811625038805053,-2.9915773325975312,-4.759754302549295,-3.1032894767458483,-2.3489571384086383,-8.11616640282786,-4.851322560976831,-0.514308545044932,-5.360301212871384,-6.9886589575729605,-0.9764980150519292,6.191675224375939,1.7852025694275842
4.3470117924487175,-4.793817970647674,-3.0889033064536893,-13.890413935378486,-7.663124391749765,0.6816336276833659,-6.296403301607556,-0.7865640043169393,5.46127633666374,-2.053762798769288,-2.7720350485299816,7.900412627357708,12.49355477007344,5.88871312421461
4.165771805567404,-3.2430050712844043,-0.0207686236638533,-15.297312578169366,-7.902337783082903,3.0400036227859046,-4.06389472678077,2.27067295692594,8.984406873023662,4.13752584862136,4.222812565417872,11.845693689071094,14.735760717838554,8.08534613694813
3.0518910404535333,-1.5315395416088564,4.15886674784419,-8.898462831471553,-5.218843851406822,3.344440861537366,-1.6920063655313922,4.1888735541605095,8.998301616289067,11.558061836586914,10.395513520782083,10.22153798519258,12.235795452741332,8.187661106573872
1.591805292505818,3.792847662277472,6.516873063655376,1.6710449982008306,-2.658652297098012,2.9687678842638343,1.6846577124452382,5.8668898529593525,8.36850047338308,17.26150193092957,12.669415083252652,8.987936175932447,9.88457551229046,6.527396772223471
-0.3786954908376349,8.33519483301332,5.600416700058155,10.657613161204218,-2.373662755189063,0.8318608404592069,6.030464135994221,6.717729728150182,5.92578157859135,18.87343454604372,10.495779885792455,6.131211482165231,6.172115118100469,2.080512429561211
-1.103051879480153,8.13384514941882,2.503559173347586,13.370569655338723,-3.8603628010319433,-2.7211261214643945,6.817324376925064,6.220353548014084,3.507595006378528,16.119198687808385,5.989994021146003,4.332458817582308,3.6376582047350583,-0.6794831985792742
-0.3700423359208917,4.105090387192208,-0.2344431508593949,9.19453181364754,-4.421788824291948,-4.432023829629665,3.789205128442097,4.232638902346054,1.392072997063279,10.68721806974336,2.0873914728399825,4.363022409168443,3.0230368951332083,-1.7916608549760995
0.9947948503089312,-0.7584551814512837,-0.7899210397614134,2.108884578103652,-1.5190123302249423,-4.08077677577791,-0.096285284255144,1.6061547772048972,-0.6968786569682138,4.677600797338087,0.1968361486362191,1.9056191886092384,-0.9572775007459756,-1.707187683791701
3.512527212475604,-4.100476183575329,0.6554658055854965,-2.1433968045492726,4.85668199101702,-3.4375558598510243,-5.953574148081192,-1.825778649126026,-2.166997716734855,-0.8167322900121725,-0.7489225841242231,-2.384163120913359,-7.780844708579006,0.7139801498577553
4.274748350184501,-3.769189277898217,2.439807890556676,-0.3976955672036553,11.739109548157137,-1.0583520959192914,-8.362899552040068,-4.045565136427118,-3.491214848124484,-5.754684161626667,-3.0733991636843854,-4.963024122935116,-11.056013287306849,1.1301347101997006
3.0572320236458075,-1.0980478572977348,3.0220685494764616,5.461532548153851,15.128115878214292,1.653274681176481,-6.5834640603173575,-4.70806555445593,-4.4451381409983055,-10.117132185733446,-7.970862037275104,-6.268875802566249,-11.276627018901248,-0.3838737236388786
2.272029082257611,0.2275174533558315,2.1420051743687765,9.993287858028122,12.857510211093302,0.6591627669548504,-5.515139688684952,-6.66751282651459,-6.339753288073407,-13.211635567889203,-13.97524232464449,-7.229938233695955,-9.90826481156346,-2.3828052833251685
1.2470082888364091,-0.0763791249707771,0.6706363299218303,8.52169811839736,6.137231851726899,1.084223053532321,-3.769520850981937,-9.462109678682744,-9.2875481672504,-14.214849055344054,-17.717792522071193,-7.166623034988603,-5.565040884230431,-5.841638864419956
0.592629063994578,-1.2603602974911086,-0.4528973335964252,0.8008788069135626,-1.441827865250815,2.1485339976139675,-3.3297967356545675,-10.77814912649841,-9.813994196590496,-13.308748298069204,-16.571337780649294,-7.173853403582603,-3.3522853589656045,-6.523973465983434
0.6552220243293291,-1.271414592732551,-1.1023521276208967,-8.852975813277009,-6.580477798297366,1.331720477770407,-4.949737439995976,-10.899507563725733,-7.983326629732031,-11.920790030834644,-11.070207145960282,-7.257468012683328,-3.439237892020746,-4.140639481551464
-0.1324022144842298,1.1392648203334113,-1.90615402771914,-14.880101408801565,-8.404778547498672,4.130172103294827,-6.533906854542413,-9.981437640870736,-6.048485601664758,-11.466380147128191,-4.904310775510616,-7.215374001019743,-1.5718346284348763,-3.431309453719097
-1.5935735206073267,4.724544165064684,-3.427262329095761,-14.491882970641583,-8.405131585421987,4.621743273459966,-8.789403269576676,-7.531041542271744,-3.307756210839771,-11.741768288358555,-2.1696160074342785,-7.306222253071222,1.2217823654999946,-3.5744631779269462
-4.004988799322084,6.083788844543872,-5.438719339731769,-9.393478953686014,-8.516285782877247,1.8914303944919053,-9.201100420285428,-6.423040900721736,-2.1299332413662726,-10.79324819864808,-4.026236611041952,-7.512116905725775,4.134864434712419,-4.40179948162965
-7.718402433131032,3.815052931799889,-7.027137224204203,-4.270011590089069,-9.273119885469022,0.5892150354596541,-7.359804412765431,-6.728862470140035,-2.9940640821845945,-6.752064380732023,-7.707242366714667,-7.922266990897862,7.684469868851477,-6.744747043524787
-10.700882550994097,-0.1811976260932193,-7.452012100891459,-3.4613588760498466,-9.714809612288889,-3.114984016632187,-4.656486784435855,-7.407399908464114,-2.615966065216333,-0.0073016798062894,-8.912407617172093,-6.77211840381024,10.92644436299495,-5.879731611609849
-13.013345363150682,-4.427511966225178,-6.92314500964801,-8.180897074455554,-8.882841377613047,-5.600693207100596,-0.327387039939448,-9.176590524153184,-1.5635356064929693,6.549287248439335,-5.536956020707677,-3.937795784071943,13.78472253042454,-1.7097017492832374
-13.984472686182997,-5.503389397625085,-6.477134891314229,-15.89485670301612,-7.195386823430496,-4.426230514983541,2.474515232647483,-8.303691378657431,-0.7714195403344488,9.73898715923967,0.6260591252670551,-2.392429156090328,13.699525904612226,0.1211072330910393
-13.025371975842358,-3.390837034227107,-6.99314234588855,-22.000928661731592,-6.205259361029874,-2.727435140899322,3.488604906666654,-4.5249592063469946,0.2402377361672739,8.807694057496036,5.68094897612924,-1.8801277572069324,10.122717242569497,0.3749063442021977
-13.651613116414907,-2.461336473748164,-8.2844373235558,-22.696727600396457,-6.984750440337848,0.3162932828103544,5.312800351967946,1.2817634102753546,1.8011497245140289,6.002695377858149,7.072699588173389,-1.704696676359758,5.8036804306063,0.2239045314124915
-15.70353344760356,-2.7015731976195787,-9.193030612457513,-17.34537826666088,-8.818231362419414,3.2603588370417214,7.215851707391317,10.191428360644965,3.930420017859193,4.391627166707497,5.396762742023945,-2.4774972867447715,-0.0093266597154933,-1.3565994372808114
-14.779973909064504,-2.895636265586958,-8.63318988156487,-8.879960469865239,-9.581664072613671,3.4470991061349627,8.779274885978976,13.736939853090712,4.761784003461701,5.020313407669857,3.138745927490703,-1.574531366765797,-3.3586725743823465,-0.9651466078548148
-11.296711726834054,-2.343712549681636,-6.566845471895249,-1.890875231235789,-7.51367214031421,1.682084951919236,10.260278227503996,11.42553833857876,4.228675370506576,6.148693519643629,2.002969065800265,1.132831153268682,-3.51910062131588,1.5281017168646045
-6.129004467839367,0.6499704284791998,-3.9812507114800937,0.4009641008763047,-2.7511646670599887,-0.4562051933343167,11.099644872270211,8.859213857988141,2.287003541596666,5.19401441088112,1.609424702299485,3.1117891255548464,-5.783195260331654,1.7552072760817077
1.638830671095541,5.327035301602329,-1.9818975985870535,-1.864311196416093,2.712505806517793,-2.09180161013807,11.23538731654732,4.005984569780687,-1.6287826060515451,1.3422634493668897,0.5499791552336788,4.883526150545517,-9.205625065431123,0.2483967085685786
5.350466973195777,7.24531200410861,-0.960770777754437,-5.718010265494815,6.503157487271228,-1.9460209999271827,10.020270424720772,2.0887570222866976,-2.9506686153374497,-3.713456068904909,-1.7163859846087668,5.172242369706106,-9.593085003819397,-0.6085183687870787
4.5781613257267,5.311545048689977,-0.5739330009819916,-7.90580519889126,7.443616485664314,-0.1594317068411397,7.207159421992601,4.036236653602801,-1.5464542703036357,-7.408033891142441,-4.21374698368593,3.4387359503146278,-7.427252426638205,-1.48688476285039
4.980082142259121,2.722218432326604,-0.3177207377477415,-7.255635380636002,6.028054553098954,1.421987834462405,3.431339787815787,3.482161217485848,-0.5174966700642706,-8.493316799312634,-5.485194008510515,2.1137484732200065,-3.939846599282793,-1.006810572311645
5.0681317836366455,-0.8156751894903539,0.0373218845746592,-4.942799051016548,3.674484349718785,2.43281171901474,-1.567299983510224,1.6736968293522094,1.1487631803377327,-7.704783996474743,-4.984341936461888,0.8057674553591138,1.6883279821142017,1.284550186871402
5.439102276526393,-3.227981292163521,0.5038969723154381,-2.747214201394,1.571826391667523,2.4022104891121656,-4.733816197028945,0.6057776455008664,1.648971751228592,-6.622910535978862,-3.4198692874694725,0.333213319300195,3.733882480932728,2.9225411908752057
6.87448333606604,-2.9935208933901034,1.0997002005159402,-1.2334379067333252,0.0179004575691994,1.2512146163772613,-5.735130202624751,-0.5494697340683649,0.5104233390910922,-6.179074336417875,-1.9585097296766565,1.214626788607173,1.7069697337828844,4.268247243159929
7.9554556350515,-2.1964366008550447,1.8238119979104708,0.3590508785237505,-1.4336730788750982,-0.2326821093509092,-7.972833482678227,-1.4243428576689303,0.4603265808632389,-6.218914712051369,-1.2382816225534965,1.2921854235081354,2.3568506815530594,5.784793212301389
9.080775383871146,-0.7065843085608854,2.473025673219479,2.635659047975855,-3.3211589683332106,-1.911113728042708,-10.76142535389303,-1.8357385829881605,1.0501100266625378,-6.138069883122683,-1.021759577658286,0.8512722342147482,4.5297857741659096,7.054702378898452
8.808748971300231,0.8301268561649313,2.6863326382085866,4.767333345924854,-5.685743245162086,-2.419365016435123,-11.873709594040392,-2.53552414994648,1.4492493584360744,-5.579477908587558,-0.5670523400248546,0.5221904101252373,5.909596854795791,7.269357618855173
6.856040281233717,0.9414790562433796,2.2851975825767474,4.941468324310111,-7.983066593425841,-1.5176538099282173,-11.62909957670404,-3.431515757477619,2.060301995330541,-4.490236057134201,0.685052874112408,-0.0493429740756987,7.472084282914236,6.254051530577295
2.8855228698102664,-0.8293064475314564,1.5110302025932816,2.209632296321435,-9.532885206117276,-0.9584967534703116,-10.028735754802492,-2.8253672340599585,2.316710731185167,-2.7935665728608825,2.5555068722590564,0.438369277114226,7.55481786357731,6.274387553990484
-3.685491786434437,-3.1011283257205298,0.8367988393444357,-2.1327602557205605,-10.09971162749831,-1.0554569443450732,-6.598121485084536,-0.6923428420652817,2.135958820877184,-0.3156470561293574,4.087591127556514,2.1073296450186554,5.83990688205683,7.217714770592853
-5.340173799085028,-4.313774476542993,0.5674355895296923,-5.166513556784066,-10.03164834442271,-1.7485991885051908,-3.5864075392477672,0.9957648166121704,2.314323721268637,2.8736829725216744,4.226088409120848,2.4510189338306936,4.485030660839556,6.526225089814658
-1.7448080084343616,-3.112678460154261,0.7035908791308749,-4.633096635926993,-9.750141955256389,-2.446261119862901,-0.9694944771755626,2.5311302318458355,2.74617042654553,6.136305681187416,2.8704178249381265,1.6301549240125286,3.109162618496803,4.500389614282972
1.3778205204494642,-0.2999989468373809,1.1645177660030797,-0.9296812177625036,-9.062282022740074,-0.7337400573685794,3.915142704214046,3.947831504860841,2.8614742035830907,8.394743452984393,1.3351989463836809,0.083069697011081,-1.1721104063126184,-0.2777156288988186
5.712422603095387,2.3673510190115588,1.9707556754425437,3.01727641423404,-7.089770185945255,2.560976467147188,10.74571692279216,4.863598872206497,2.761061957144824,8.681572499289057,1.430391282112872,-2.751512570599748,-8.281883317722533,-8.50592041844278
6.8416878721830106,4.655091079908726,3.084330026183821,4.079973808381308,-3.101589928086394,4.058908789990658,13.833962093308488,5.698081703947411,2.1466716605856924,6.710730768227492,3.638554440911946,-3.5786725918030298,-12.538606253245598,-11.428584538304207
3.680544482009812,5.193421799594008,4.168102379010271,1.64372910877983,2.438814854467473,3.121167649934564,13.159424459182906,6.299461067122516,0.8802223036178166,3.0979782596162835,6.105334668774951,-2.248925155732408,-14.140891592221402,-8.926712078077415
2.3686333179236985,4.108281722208598,4.753079321093011,-1.558062682549796,7.725548607196075,1.042292001697271,11.742011806295611,6.834542587079607,0.8831124022513682,-0.900090466543574,5.815844453626191,-1.3572612898060687,-13.498740934885848,-6.269946671131155
1.7564657707538345,3.750060989889515,4.783629851951709,-1.3730311874043792,10.7505466980926,-0.0384183737116717,8.269202153107367,7.334134475566728,2.195267532899909,-4.011195017708992,1.3153115888629472,-0.1863490542031922,-9.16908149628872,-1.506914994792668
1.645743755635812,2.291207898145663,4.884889416492406,4.389838927695109,10.837273643282629,1.2869018910560244,6.47633005528755,6.726651072091392,2.9482227156707776,-5.6077996695003165,-5.455809237973988,1.0874611351948416,-6.645302328307372,0.9912011356104476
3.0341662780947884,-0.3552920895423432,5.848867777106428,13.750656943455176,9.150696967021991,3.269172167622883,6.846158750230562,4.959207976654896,3.5054778666751023,-5.9652194820222775,-10.180396097742168,2.1335057117669707,-5.7940523010301135,0.4135001294218005
4.306889309793234,-0.4814246970868201,7.726573392153767,21.457644673701893,7.646849369883412,2.039952997353903,4.450851589693401,2.3261171778573484,1.280145797304016,-5.861402700072475,-9.451690086557385,4.4804185914072026,-4.811368417396708,2.0750311585403023
5.758169310550199,-2.851464018884052,9.499540851678384,22.60992396668331,7.410126751855302,-3.3058928102148237,0.0467794746980077,-1.4719039635179076,-4.309437405280677,-5.777891044986127,-3.512566138601088,8.080445525470628,-4.911319048918786,4.923013921638368
6.463088321776588,-5.506143782983489,9.809605939761866,16.36234772331555,7.914083321215656,-7.983757181939262,-2.205586147298186,-2.908528492126916,-6.069199023234851,-5.394876567666159,4.003388508248733,9.182245125806505,-3.2211110905613576,6.007247776656582
6.08681762682746,-4.56141714001626,8.114196950246182,6.749805513766376,7.814157066893586,-7.729143153620962,-2.807829740442238,-1.7112859748474123,-4.29989445733612,-3.8960012474991856,9.066418468516176,7.786381587098671,0.3751036055352077,5.87844998708229
6.220922561416284,-5.611625623281294,5.148244835359733,-0.2162905827432411,6.386165091797665,-2.409555490589201,-2.333865590273264,-0.3149781684685203,0.0618126128476558,-0.8474106462463169,10.258011277455168,6.891437389406198,5.466563233065636,6.782699745547913
6.592140026629816,-2.811902346634305,2.273231304950244,-1.0041134935470095,4.183125729982294,5.99777118578756,0.0739472144750067,2.1613739600288864,8.740853861018591,3.191738171727607,9.20913027392929,5.751051682499119,12.827707064249616,8.388627662011935
6.714003337859476,2.918420593912641,0.4139370933323647,3.014866399438077,2.390626051634527,10.438570115878283,1.2083841643026776,3.584286762592121,11.805481957604703,6.950976862331302,8.419261046526842,6.219263827965273,16.206363175897184,9.644795620395982
6.811995442972002,4.224393746793884,-0.3835948217948726,7.166237723499975,1.691871860247474,6.622031418973249,1.0442707542181695,3.565607512432264,8.940403339170285,9.378148593714071,8.820356114065703,8.903072975182882,15.290688106368384,10.909873723093904
4.864382650389545,5.086541707025025,-0.4978826284606725,7.673268265765017,1.8225247507580635,0.1339781072042845,2.3622680728693592,4.535976114474881,6.501159320437647,10.34668303555202,9.42675690686869,9.392222867655562,13.218348463060954,8.813975983466609
0.6425266996492687,2.7547774590420784,-0.0647230479282043,4.768687914559592,2.1175013344746034,-5.370912111814109,4.573305825409609,5.965786294043431,2.2532664535996334,10.528145897479511,9.107106982314413,8.065112793585733,8.414872361880153,2.9043774493892136
-0.8763103208051808,-2.712856705775123,1.106127802373635,2.0327255699198616,2.285089708005323,-6.941823647710156,5.842375465439276,5.945817173009429,0.4345966454125501,10.653021604987558,8.315043387630027,7.283319953459135,6.493021345934029,1.1301804741148256
0.1325885695880584,-4.400034006800753,3.0134941841010416,2.723666630010939,2.538423471567768,-3.0339683882789554,6.424102709809528,4.642009589408604,1.9766829127381345,10.907973318277897,8.757158232390836,6.295545374202615,7.9990614544398415,3.121846435485516
1.7473906886757555,-3.0012000130931344,5.056446710519211,6.583674393055432,3.071126353343331,0.3100348318237161,5.502265112146226,2.2270831334589305,0.7101198454291079,10.943561527316575,11.280201191424013,6.7123811965952935,8.974642293740073,5.947139944480008
5.057085742163718,-0.6338371503233673,6.307243613751936,10.047779130147234,3.628830081309737,-0.2595390636053367,2.595819901809779,-1.7468902840911975,-2.3819002411340424,10.296581683950564,14.292094964002615,8.951502304456485,10.827153739840988,11.304250956714228
4.875486751458135,2.35496905635392,6.222270844304504,9.536168537127397,3.744125684947946,-2.241971603489443,0.575109313046967,-4.471508168379789,-4.906523640286839,8.707905764128967,14.626780192037536,7.757023920792046,10.046303596095877,10.465940970969257
0.7422689432577624,3.01040043269544,5.01720307451415,4.712390814564323,3.353914403160182,-2.9682226540564,-0.7562023788618552,-5.857043832992327,-7.745823504839215,6.10983531439291,10.268575696681438,3.243754244887492,5.987332174772387,2.6622548847297187
-1.9214079964490776,-0.3906883890234653,3.3035413599524617,-1.1835158516372957,3.026081776904846,-1.9876441697464104,-1.6012059186056071,-7.600133721003641,-9.709562244148485,2.524307394598395,2.3562386202776366,-2.0780797738795065,0.5973260643169269,-3.8692636246983114
-4.225927300622177,-3.0443641969495365,1.4323616833323882,-4.008743560867117,3.4534390323124526,2.5077772710413324,-1.3091036976094816,-9.056427676950651,-10.461316558193642,-1.821417947928765,-5.502257821708717,-9.340917889505636,-7.211749288195078,-11.091770978754695
-3.9807868149198895,-2.8669923655453577,-0.6714188236418153,-1.9144804332838772,4.717181671979596,6.98719204195361,-1.821081645565376,-9.373159901334844,-10.753914080413727,-6.244056497335556,-9.961696606284406,-11.975377635472942,-10.749665974181957,-13.537816142052929
-0.093066400620325,-0.4544613224325471,-2.9924093050107885,3.505547833204304,6.119513712895667,6.520332476209666,-3.0318238097811343,-8.567238345398763,-10.179404751541092,-9.640199653860885,-10.17382518343475,-9.241139590557676,-9.431373675187317,-9.48712665232815
2.2634200114495333,5.365281936865372,-4.899928443578695,8.647683159532285,6.798309368305176,4.367538933837219,-3.707846794430754,-6.644056584381479,-8.30074967655367,-11.055824949629134,-7.70336656939736,-7.332291701977392,-6.812836707765977,-7.566544471454352
3.743326313079148,10.36451895335972,-5.404068208142064,10.457552559777897,6.509604688841932,0.9386909096674274,-4.177144095004055,-3.3447711966055285,-5.036166314466351,-10.424458747411045,-4.710368626635461,-4.672005921431193,-1.0982678859399628,-6.238313255929834
3.478805209616503,9.95561353582563,-4.121895069679532,8.20269435115101,5.755903800021748,-2.635476160493613,-4.684763637863846,-2.091109065225128,-3.409243022522612,-8.791977120095805,-2.484485337526081,-4.728859342219948,-0.4717236118396635,-6.133150448275807
0.3517000887792977,5.192804294128637,-1.96878279610408,3.5451220858054,5.119019133730447,-3.2392293383227404,-5.091867027393078,-3.0899386185406814,-3.543100913601727,-7.667270305833316,-1.553306474319207,-8.665405971150944,-5.722777160180634,-8.781671162703292
-2.2334335979413096,-1.462610825776299,-0.6987332035184863,-0.8253939592507109,4.493005806857997,-1.7734315289048812,-7.757308744652954,-4.636314923627247,-4.436158710453117,-7.914497931728039,-2.5623616675362584,-11.09943898827194,-11.747540963075194,-11.056391951591143
-4.777402838090964,-8.083343748932112,-1.5430970310818388,-3.074640985615101,3.061922856156496,-0.5786483054036682,-12.9285864412027,-7.621422534720555,-6.90060860087708,-9.088177881628052,-6.32887223804836,-13.041221011726089,-20.68593226370185,-13.614684368260026
-6.177264587712269,-10.1654171593054,-4.179205532895383,-3.5091613956654664,0.1411984691982906,0.2366811834507311,-14.337080409208006,-8.006043241461331,-6.2963863158238045,-9.787882900447734,-12.714140716799152,-12.531961002256615,-22.562031693169075,-13.823634674376194
-5.700773956705881,-7.477666282276489,-7.019160175336422,-4.352659709816713,-3.914306666235833,0.4800524382354227,-12.134535853587742,-5.413563750992981,-2.333587354863361,-8.735267801815278,-19.663121190647075,-8.488725165253816,-16.17294673806358,-10.979566820077215
-5.481275132434379,-5.699056527452362,-8.53399781204957,-7.883863885493367,-7.703941799034093,-1.9906711928057232,-7.557352622944504,-2.2112489072884016,1.8698115955023584,-5.674430352811816,-23.867093740753063,-4.6144520242151295,-8.668804239179266,-5.780999156985591
-5.0341349627275145,-5.170526388792919,-8.363766251746366,-14.1087451530584,-9.836159730287116,-4.156738502049624,0.9290983172069488,2.664987311683418,7.423484228092913,-1.4165488965669155,-22.840264054653115,-0.1692278016400671,2.602629613576793,2.8104114829891707
-4.408121913462528,-4.242272985171275,-7.231766960416152,-19.89110949588845,-10.08520311699857,-4.422012212281012,4.830431229656644,5.431675779499901,9.16314816459066,2.8421353417593918,-16.618053593156347,2.855716271742764,7.445240041628961,7.286447980940404
-3.8970755125801047,-2.744270562162676,-5.923745832495918,-20.69084895219015,-9.482610520612717,-3.1247017767840664,3.793474362650165,5.659010853126452,6.328128721171545,6.211454215372157,-7.531166711489618,3.687686013679595,4.370221363542551,7.302750051200917
-2.7098681340820185,1.397774796511502,-4.4820743709130895,-13.97893664581153,-9.170474819587575,0.9740966183620642,3.8876212291447536,6.870678671898541,5.899862987659531,8.274487218512633,1.6002584471339745,6.696912100466395,3.297204624583593,8.471919937332727
-0.924052073100075,9.030435479158887,-2.4406818083942525,-1.712718614753939,-9.157425376862951,5.1823663944790885,3.2220959837220424,8.171039340764562,6.764370807295593,8.8599684843035,9.038886564185454,11.367562824386177,1.6577094458165813,9.115212343456934
-1.238940758951374,12.504253622222688,0.2148381581763629,10.319410152654813,-8.348208682026652,6.78199170932404,3.253762590123616,8.27964691646138,7.090717307545424,7.926238532603463,14.12263239069582,11.39769087787779,1.228738286022338,8.524003791097524
-3.768028248745617,9.015158460557124,2.45012388420102,16.052583084480474,-5.956387012854378,5.145392736770765,4.741854335616388,7.523342709775622,7.980047734564502,5.760187244680637,16.174709479458897,7.035766256833649,3.44461838060464,7.227726571699746
-6.826817137964227,5.094247022788719,2.7027252750988424,12.999452337836315,-2.8438773933631296,1.0291130930593642,3.810027557103128,4.689904944138886,3.901041544422265,3.139455070935668,14.02553164170962,-0.8307802736666671,2.522991330603296,0.9249440630650904
-11.068009368392469,-1.4288311191713623,0.1857094271422426,3.58721855735422,-1.1639845519824377,-2.9622483381025084,0.8143176968470683,-0.5596998703412087,-5.652880364118098,1.0297668843273868,7.076947385334037,-13.761801779556745,-0.9325682627169902,-10.801302474540236
-12.49567625356612,-5.760361914249614,-4.169996028576136,-6.771231548516141,-2.32015944652575,-4.6827951624197,-0.5996961819295138,-2.946816407118638,-9.089648805993209,-0.0542600663161607,-3.076159631683481,-18.829206108180745,-2.690512134729405,-16.262282771544406
-10.603090973316338,-3.3256923104371063,-8.071900194661481,-13.170707774938876,-5.158543450970257,-3.772033177256256,-0.9070126990646896,-2.446745692540063,-7.007178566641154,-0.3724734946017634,-12.44092371015293,-15.331358255419849,-3.528375979784715,-15.67587554310477
-9.118806740904963,-2.8086922206008533,-9.395987967933394,-13.778366958643687,-6.443242359510009,-0.4538151368666049,-0.4064269654935733,-2.119704607062088,-2.6761151973023747,-0.5428576914217729,-16.693023138781314,-11.849404546440494,-3.608172373558538,-13.02921253466931
-7.045831613791666,-1.910124029700493,-7.737068189677785,-10.143518172150747,-3.6085586603635136,2.0925675992450787,1.640219128626844,-0.8002891243374183,6.456880344049703,-0.7884399635347563,-14.147987111252036,-5.308829283037903,-2.174321699145861,-5.594697852274449
-6.163503613306808,0.6224946490277061,-4.71089660400196,-5.659253116352176,2.591643368882842,2.46229485182178,1.8857875932098471,-0.3405264012303603,9.476324215753866,-0.7116145252636557,-7.146718127972605,-2.708031467426812,-1.200665653002996,-2.643124974255729
-7.109782811893895,0.3075023499399459,-2.696859055320573,-3.4359294659508635,8.18427474947606,1.8117951746429928,0.3010160933368402,-1.1243551785586463,5.769232642614822,0.1002334175103385,-0.5262198177285597,-5.390625639118046,-0.5406921115375454,-4.702464195602747
-7.5574120552481725,-0.1810400729352447,-2.999066917905622,-4.660159197673494,9.09768941467368,-0.4816073035743584,-2.2080059165442667,-0.7449243575009596,3.439805625764208,1.3608076104671625,1.7247349357403436,-6.494968723093386,-0.2098110581199944,-6.187739828886371
-8.084354491247808,-1.5541307527940402,-4.929543645546204,-8.055022819148576,4.664467580739824,-1.1800988462113804,-6.470407492238519,0.3602129347659544,0.0257063256065849,2.2379768523213386,-0.9476006341906212,-7.904359891032758,-0.6454185531796915,-9.302371517670212
-8.20403404535266,-4.225263279241961,-6.5607117075192605,-10.743235180996408,-1.7304964505873386,-0.1195748871969626,-7.690331342525363,0.4837597143005909,-0.2373231932232541,2.3709282553863886,-5.679083228321872,-7.081072637062524,-0.6017135309283013,-8.897191521112648
-7.572000823095545,-3.95559887552704,-6.445990615235758,-10.276213481555146,-5.590104221730428,0.6225865400645534,-5.593987040142394,-0.1415424260508872,3.929295244169296,2.585892611971019,-8.515762288508313,-2.973502627105588,-0.1975117900273779,-4.155257307721219
-5.939798715124883,-0.3256834726912924,-4.766643072577153,-6.652711099622394,-5.209985944122536,1.6308692861572145,-2.6816991015416543,-0.6743480791748936,7.0264901032765845,4.245448652749559,-7.120056228681847,2.206152217356995,1.527863586956004,1.480863103323643
-2.9753898435885637,4.891062466494618,-2.932435805749435,-2.6424647437930275,-2.951365035901688,0.4232956374296878,2.253549159595388,-1.3947423650203603,10.29330425878115,7.637639997372617,-1.9848401542477632,9.455749531816156,4.935152184865181,9.46694669502694
-1.6861436625861304,7.895754925356189,-2.129240607231509,-1.7161747140713146,-2.742715311883444,-1.634027415053474,4.291513548066448,-1.5773140189815298,10.19534040458805,11.080578998740634,4.32923100528609,11.936117241482847,5.56615778605439,11.675368623028588
-2.1066458634080747,5.432924695810257,-2.255804851594803,-5.016542389731285,-6.246087443101089,-2.255790974275804,2.9248121174422788,-1.0602355519610285,5.590495232345492,11.933093262179568,9.018135195686568,8.93973186011951,3.431963830536206,7.170946589634057
-3.091549775495279,-0.0227231586074575,-2.207554398949071,-10.064031552740971,-11.317192156226495,-2.95124897063568,2.641911543606515,-1.2570308683392446,0.392060115548097,8.797531602703828,10.567147062955314,4.966899556899747,0.5426209530316837,2.283671276939289
-5.3716899398989,-5.349823424289235,-1.0831446142533707,-12.623000374041425,-14.055334111152092,-2.0610062986363484,2.289675675805708,-2.0301358218133108,-6.583777722955563,2.868017315098058,9.184320760346566,-1.796776883544921,-4.123631722115927,-5.083013734417805
-4.525118918533675,-6.65367203597007,0.9644430213616602,-10.223604842240718,-12.272459635912725,-0.3270076956233944,2.4820251199953347,-2.203532756506299,-9.376926906983291,-2.896602139395071,6.218586952292753,-4.376775003418556,-5.19470738306757,-7.3459177448219455
-0.1935496725863282,-3.069717760827733,3.00606465009497,-4.137848513351685,-7.080509405254645,-0.1133947927494699,3.861212116681782,-1.967097235264476,-7.003011123247297,-6.022147189194925,3.2160983534813,-1.859158118641074,-2.135590782532631,-3.1861926809729275
3.395467828174781,0.9175417278469596,4.297445148206748,1.9658948282569213,-1.4555663434963435,0.5937418451521395,3.753727809368188,-1.5900201058805588,-5.245937057225683,-6.149917051550915,1.2462127972635813,-0.9162302351541178,0.0203552044476231,-0.9798797607636284
7.218907401424732,3.357671429055395,4.854599472204484,5.255705850205345,2.411628811471246,1.2572528826955218,2.369986487912437,-0.8718240777556933,-2.5208751673290184,-4.768019501586309,0.7020967053797449,0.1609999007641778,2.5213099574794358,1.1954737810001836
9.694941970222228,3.150235925478048,5.168590157142091,5.743474774282674,4.400256573336833,1.3230245278843944,1.6178178531548058,-0.509775095994246,-1.4160687093752211,-3.6072203085054753,1.3913940072523587,1.2211410370422946,3.610929099616488,2.596226664180872
10.047610241501786,0.7844856416438257,5.57231235153364,5.44560700344158,5.668713711739542,2.3498813145870443,1.0925988365644708,-0.5456106762771897,-2.872515046621173,-3.310716792912217,2.706375194520035,1.39219328335523,2.431874761458223,1.9514885078226976
11.201926344665548,-0.5540769165511938,6.02529867631921,6.010153024202396,7.193267809073632,3.122451790073979,0.4987835481736787,-0.3032137569125869,-2.5869911370107594,-3.3851046222624177,3.88577913471778,2.7386449433494584,2.671105618716612,2.98055248482761
12.61727598498748,-0.8216826989722683,6.419731345252728,7.374149220429047,9.182683240127233,3.2636544250800394,0.1204556217890999,0.0766798265490851,-1.306950964672675,-3.093913671093958,4.44048878518737,5.011779446772531,3.783506006980256,5.221086825694237
13.421184107101356,-0.8173459760784747,6.847180167310285,8.50197664899838,11.434269568164297,2.219229054888232,-0.2992048753414245,0.3303910108454931,-0.3943497690523904,-2.269655557720881,4.543783470923245,5.932283402727629,4.950625685355189,6.811732022774284
14.000976234403687,-0.7521405247702351,7.41864190164938,8.924528217160287,13.67154250562669,-0.1715456577286926,-0.7261934423875219,0.5384027220145735,0.7491079666619824,-1.4040380649495887,4.951328691417501,5.663155390297968,6.772945259926558,8.282888850526794
15.079674167610111,-0.6729627517009733,7.929367846783862,9.210303814945718,15.420127763433952,-1.5535217779404566,-0.1364433728555676,1.5721999282014962,2.077602998924948,-1.14156695364602,6.29347766516031,6.851833586408947,8.631121466628986,10.773657247942523
16.68280115389499,-0.3549163061391757,7.939298078636,10.02958108865866,15.946210283619903,-2.572615647889202,1.5358173467580198,3.4868900185657448,3.5109146869042007,-1.692454179700718,8.29554455251747,9.212461164535034,10.54903491133232,14.159974627851174
16.411252679459814,0.4498478408193673,7.292705533763552,11.1302806983106,14.750245388044531,-2.152312807557531,2.528762617150684,4.730251297568086,4.342022003672077,-2.5990119785214745,9.75780733844138,10.243129232930244,11.490478068136046,15.817923787785189
14.253436957342828,1.538597551666267,6.443611284688387,11.522956089877113,12.161768306335349,-0.4956536100007369,2.987613037176464,5.422299780303434,4.467056313920609,-3.0044818222337994,9.491707970733358,10.274006692022462,11.216163015596193,15.750848257724796
12.290016191710931,1.4932525100469092,6.087163296818062,10.657083341616186,9.189603080237475,-1.906241662214949,2.793430338080676,4.71643073784934,3.5365552258466506,-2.270373272471204,7.392568821720886,8.78672945301808,10.222398851172686,14.075725070262742
10.056205264492393,0.6629746419713886,6.422141808378044,9.175314777808296,6.625519823527228,-3.634579624931521,1.525214615471524,2.160722281591307,1.2531323312501608,-0.5269550636915739,4.577994156031707,5.200723803715422,8.133995948743303,10.064168326464996
9.572156885012486,-0.595456862354107,6.87741442065095,8.261981292245878,4.399974877791436,-3.9127688861211207,1.45710421963318,1.3667102764813173,0.3628299110245122,1.302483826045446,2.428385981742636,4.495345212333135,6.9040175509698845,8.337548634902133
11.364308491831284,-1.2539160085788883,6.660016098225356,8.17679637538248,1.9597322828585104,-2.986778839924413,2.5563594358808173,2.2162383159623,0.8758084560792386,2.110818649061457,1.4885243171062117,6.721670433011797,6.647836629035238,8.989121442989086
8.890741096814583,-0.7555681092099332,5.5589635399144015,7.615284236428323,-0.8155311148696711,1.5390461372588606,3.275255312518905,3.479286703247941,1.5009583645396012,1.4036024052344374,1.2726094297727286,7.40439842041582,6.633655866757339,9.810920095087988
2.3240781905849737,-0.3713448442799464,4.154723746901411,4.8875130830814015,-3.31415465023062,6.341182119563415,4.054874877938581,5.954956851426631,2.8684102568808543,-0.3774029373228416,0.996556572398262,7.483185651862921,7.382986600607374,11.892738653383963
-2.1863885257162448,0.3947131964516241,3.251452005800509,0.0413167263171772,-4.87890355757952,7.197814178315959,3.354580960822529,5.56333087014358,1.848148164435811,-2.264978695546155,0.3390758285125201,5.823975525737371,6.344646282237437,10.986528255615736
-5.721582790345415,0.4639996778756123,3.151255073689605,-4.25736846437718,-5.5843320436121004,4.379626307475573,0.8313504073022108,1.9894653077291389,-1.8846136749882991,-3.5357424596041653,-0.494686623662119,1.5919289091328508,3.3533387394621736,6.661011678049891
-5.910622647918645,-1.102976679535428,3.4416631708411387,-4.508735582133667,-6.096474984579871,-0.3728296581100522,-0.1445640910428078,-1.0386068772192565,-5.629121049716106,-4.202990723031817,-1.2223130709231285,0.2680308586921088,-0.8388191306227305,1.6494740052608448
-1.3916913334841752,-1.1811783381019696,3.360112693609679,0.2750900908217772,-6.789173570107444,-4.785684984765712,0.1658835731517135,-4.425395154816914,-10.142337689849477,-4.8988524076621225,-1.7798156251901671,1.6651654319394082,-6.940902461816834,-5.155162528460001
0.0609926958729118,-0.0542611481309347,2.32743323170833,6.766572256994735,-7.262571802990486,-5.440358867830327,-0.2490395085835447,-5.273386384082227,-11.071903903526843,-6.288832972807136,-2.2094527373442148,1.7390570703144552,-9.78012473788594,-7.931159748135049
-0.9602254140085104,0.5676665961805579,0.3200513977383119,9.344443656946885,-6.924710047162155,-2.29319489568775,-0.8148643264518366,-2.7681032627056896,-7.658288969613899,-8.423766017729164,-2.4925279940267595,1.4670081650832458,-9.024910059282137,-5.963189250615189
-1.987100905603041,1.909559847383478,-2.003147746488464,4.781710328204621,-5.9375567618182,0.7226000080458203,-3.830457721455944,-2.066976857590629,-5.0602681763060575,-10.454414556850928,-2.6527355701680277,-0.9762163252284184,-8.214589699793525,-5.300998436098612
-4.547594652513593,0.693255778793826,-3.510008450001923,-4.514790630381503,-5.2955587662622285,2.662284211743492,-9.781575482963545,-2.464518841737512,-2.188615300005793,-11.005332323750087,-2.9454884757855018,-6.365081608230359,-6.1047966377508045,-4.5758788670192505
-5.137670913498178,-2.3227471820943943,-3.2722990251604287,-12.05237203201394,-5.794676856150716,2.6828766901751515,-12.202574151499642,-3.405571300763692,-1.547673066125902,-9.159023607819174,-3.747932635211241,-8.684488593387279,-6.479216385644823,-5.568126181017887
-3.547928840806202,-2.3583308277934854,-1.4612288187862037,-12.639698424431856,-7.016436612143007,0.6040193718828046,-11.323925750136302,-5.841035398709839,-4.187308127505595,-5.438653043402915,-5.173474993952468,-8.224449400019044,-9.995968970957492,-9.345842625264169
-2.684939620453825,-0.4060780970438051,0.3370581260024181,-6.855939869899565,-7.565930329714426,-0.598256455671926,-9.907338836980024,-7.109197030674436,-5.586141585693302,-1.868763621920852,-6.870211934606751,-8.149976947857388,-12.255771126051595,-9.51742308502693
-1.8150320639888136,3.9331147561180857,0.0348980401534291,-0.4652105397997097,-6.47311324430315,-0.8659309244645221,-6.575735517523049,-7.290107266292741,-6.530508012653853,-0.7256730734983989,-8.295180404771532,-7.299228173257841,-14.186119258673116,-6.470975442280595
-3.549027017549024,7.351615103043195,-3.2679324169125152,0.6703047200044416,-4.350204552688332,-0.739929630282512,-5.46374805026202,-7.732103205551992,-7.471634707516994,-2.779901582406921,-9.197668006572286,-8.308570013744513,-15.253774153437565,-6.632712105918251
-8.543568362177712,5.537491987939742,-8.287949080355276,-4.550967065144292,-3.048603153173844,0.0342297043759901,-6.997478548618866,-7.91613101709776,-7.683422372092992,-6.549318829822795,-9.7968369873672,-11.68860210675344,-14.728069348922542,-9.140226117138528
-12.402092243063803,0.9147922565055449,-12.348178671702833,-12.113050365142016,-4.043422595441669,0.3251282265901301,-6.416327503468741,-7.119922447164037,-7.481726593401365,-9.36326905847372,-10.482257536524408,-13.186390657982985,-14.70131071657695,-13.64252324246293
-15.745760464714737,-4.673412879616106,-13.399496751262966,-16.830928975601154,-7.0529506946322655,0.3540301729357388,-4.570691514027087,-5.355308202262169,-6.647787444191623,-9.386140940450872,-11.360457842193432,-13.342063424781909,-14.865105009658128,-21.43353457156512
-15.74930837115535,-7.387959176800062,-11.473905007860663,-16.54764370671056,-10.185824585585436,0.2995541706202506,-2.410555016815676,-3.187104968648649,-4.667843441749159,-6.827819453999183,-12.074326170351029,-12.031408674713123,-13.757712183385436,-22.916745462726954
-11.272130723556185,-5.461630591400783,-8.319581727130512,-12.929777316019065,-11.4505565535679,-0.1976842763286322,0.7981577195121089,-0.4535547857044282,-1.4195175722428883,-3.3815879692060804,-12.039724451892369,-8.379232169390626,-11.606560008251163,-17.704136649443956
-7.81220239723171,-3.0768491951415555,-5.751369175990298,-8.949106634694658,-10.222701890472052,-0.5802195098257547,3.193327752312871,1.716511988251546,1.0425136152433665,-0.6342315389464517,-10.911569673239242,-5.110939439407425,-8.798621685856933,-12.861007532108104
-4.520334918937745,-1.485983744641513,-4.359296171622113,-6.098702613500592,-7.415327949557223,-1.0485386773301972,4.696139382612294,3.140050791099333,2.730848891438161,1.004597169105125,-8.933205108984481,-1.997883684740998,-5.078890144559004,-6.25873887833519
-2.104266941337139,-0.4560574317312787,-3.5782822254350397,-3.871396316411556,-4.393274245562985,-1.2339735836761905,5.897688547850885,4.630313361355613,3.812251335650092,2.1116661344787104,-6.8533413321129615,0.1620094899413225,-2.516823624457279,-2.3658467158578342
-1.6435353159949146,-0.5656182502147553,-2.636817302580873,-1.2291216841223829,-1.7932682461958578,-0.9165662319759784,6.324871211307056,5.857150752370367,3.739880441163948,3.3852893571642184,-5.351412451429958,0.6921543228363297,-1.2990943869362914,-2.393891316444108
-0.3104744532565848,0.6256150287586749,-1.2519948915547443,2.031945698174951,0.6739997955881876,-0.3451523351498375,7.25674874293334,7.2477222276015905,4.43484627251505,5.088191898851413,-4.375563520227274,2.0780331392044906,0.6537327902157857,-0.1161209767739588
1.410651431616275,3.8175035175808905,0.3979526562649695,5.36803108939867,3.4495286268146472,0.8065570691799767,8.717466045652065,8.8775896112922,5.83040622077527,7.085633183872524,-3.09664664333701,3.976112935194656,2.8799919960706863,3.2608462060624217
2.533388831512755,4.684142894495297,1.9926771104399847,8.387820444318585,6.299515487713194,1.5989826224634702,8.723226682066596,8.536198627308375,6.0615379938320055,9.04164355879238,-0.7461658507901774,5.0995445222985625,4.041956650564277,5.2320786789433535
3.424175916547356,3.1480199033919147,3.186351645968287,11.151314864699188,8.309165723506979,1.5995630733010948,7.420921197790429,6.143840900201434,5.412375530087452,10.45805132424129,2.348625953252622,5.786582367050796,4.313813498307419,6.543904020395094
4.228982572101917,2.29970299860401,3.6050721376434254,13.472387407138903,8.684316357755876,1.2033876029077373,3.785433386057357,3.4986479823551537,4.003630269089922,10.765909066487744,4.724560758088259,5.28303497646213,3.76504180584237,7.393256937925031
4.872616806155183,0.2076002381990183,3.050688579838159,14.248789725251534,7.571952066168968,-0.2382579236865889,-2.76078826529451,0.123138832819585,1.4831301511549937,9.717493669006572,5.119375854030579,3.3271232501023973,2.1053536835828632,7.467335828588562
5.093191562585262,-0.7844571262137279,1.8181941294438388,11.97927228647366,6.1276241306695525,-1.9195852653520848,-5.239291433443335,-1.154835750568811,1.4385106384971904,7.798725952247224,4.024478490271207,2.621236929241026,2.605367128967416,7.937895147867903
4.878701056563547,0.667392427555475,0.6519876041088182,6.33685922476225,5.733663668863265,-2.2552008853742893,-3.5421997957933447,0.1846085948068241,4.085155208964167,6.095499194294831,3.723033147502768,3.098067208735658,5.46368885578587,8.836761946836614
5.203972409698983,-0.7918271325808603,0.184890445556995,-0.6551787004586984,6.961758153000794,-1.6515607605369067,-0.6887042219651228,0.3681291389288198,6.3260969508378295,5.542838090520334,6.399355036455354,3.559346450076933,7.459085291788099,8.755587510525631
6.085518913920839,-2.917641331469668,0.3799424081205487,-5.256267560552232,9.060330961773658,-0.0451058595505869,5.004482374820159,0.0757510704068784,8.956377233018397,6.22324798243833,11.92812038919238,4.589961465460663,9.278087152140548,7.882124529615244
6.019734611254477,-3.7532952525862577,0.6170308354632894,-4.395567077788442,10.38853780502138,2.4307620474531384,6.764709416326308,0.4153505332698484,9.439150308268596,7.425648421453523,17.497330403922966,4.9044058163028,9.84193175539962,6.941084975923361
5.134385435914151,-4.272510405633879,0.3796528925794007,1.875777964548668,9.554870545256207,3.559882769759264,4.012260490227833,0.8534073504440736,7.107212473584668,8.383932491462126,19.600058241564437,4.364448245536786,8.535953062387595,5.72023673016504
2.584220857915056,-1.336713696099162,-0.1990514782667531,9.876296258297852,6.488559763573242,2.4795625757692767,2.521096419662903,2.6335456392220733,6.103177503147284,8.896583886001636,16.69268757351677,3.934717857414626,8.64206538173358,3.729952408764352
-2.0662487589077894,3.461713989307686,-0.5338340504370436,14.385014770945254,2.624039738001578,1.0308143947461974,0.7310165070485678,5.921790650062287,5.797311984913291,9.203641303205856,10.281834740427987,3.3016851478718863,9.876250280635196,1.010879938456353
-4.467403810086937,6.295521936161554,-0.2974655259611793,11.996440984210018,-0.0404116600323121,-0.7664805864755614,0.3809092517642052,5.958480863526483,4.817490855610758,9.350183396958547,3.746474250901393,1.8567649280571543,9.46472781194625,-0.8560592432807467
-4.651320122093424,6.153710418208219,0.154649793383907,3.387994588100032,-0.3518989481305254,-1.8685395126850115,2.3542155505797164,2.6729743076416645,3.795608582502619,8.831719160461066,0.1154519980429782,-0.3770546691379556,7.85307856966422,-1.8321741484469067
-4.936599036085138,1.716686519140537,0.1201535756444442,-7.0660928855044,1.2477307725849904,-0.0024149573658031,2.497768672476856,-0.8244469435079514,1.1572113139922815,6.994865959248685,0.4860743197284414,-2.8347470219555038,5.005336080539434,-2.717850818380916
-4.379131722321551,-4.244505408584219,-0.705971284212648,-13.97759434578604,3.265305172000783,1.296666948673196,1.304330716895437,-5.582494878947323,-3.313543505077587,3.8370507067113913,3.773155273187093,-5.630316029468487,0.380164356010819,-3.127716945667404
-4.671783302474601,-7.187416607133201,-1.8548265047986237,-14.06001339401616,4.477697353599165,1.2806385813185883,0.93581260777861,-6.854237954511589,-4.760438442570738,0.3779950899036528,7.425045283295555,-6.954289528403446,-1.0021082565288528,-3.3864291889643447
-6.102735561475431,-5.612403131425701,-2.464097319498677,-7.777973640270659,4.78887490414969,0.5898978286921324,0.7704787965633743,-3.87926561070777,-3.2196557390635947,-1.879187278465377,8.58572305274098,-6.525755589266591,1.0769260205520117,-3.530531344666366
-7.335403114694812,-0.0484017688549132,-2.050134278329086,1.190867652679195,4.868407016635441,-3.4309061892107486,1.2142317932066824,-1.5972342952038836,-1.403135948790959,-2.0569043773112856,5.479548817278893,-7.324713401968125,2.0243837619384184,-3.9488160521401183
-8.828386956268515,4.91856235970042,-0.9400377294395864,8.099397533065774,5.0950311898558045,-6.841766411099466,2.583847581568057,1.2014880989859615,1.7427244966038165,-0.6693492483627557,-1.343058468685916,-8.994946598794623,2.876560394882022,-4.775559914273258
-7.820167317181175,5.982266430920915,0.0365419288940707,9.658734629758664,5.059706801778343,-6.391457212414687,2.3366027659417377,2.639665591663469,3.0441529501377964,0.6890433029372289,-8.754052634419462,-8.291585274306312,2.91551799055212,-4.22638970995708
-3.926081636922744,3.341410658508651,0.3192870980952254,5.74427057629329,4.2241385814258345,-3.1231192632607407,0.4767901632950201,1.8622069018355647,2.012370922152743,0.625016401438506,-12.515075951092117,-5.501137617504137,1.3790532112602565,-2.3050485180666733
2.230561110253883,-1.120670462089436,0.1579565400674396,-0.5731732194312045,2.9371984682199663,2.6745446969397664,-0.2942517908867398,2.0881918086200697,1.8721203109715767,-0.7892435674553724,-9.97541594322884,0.0612776444096575,2.3790079102961044,2.581214274778333
11.559149328392488,-2.7905959265299702,0.4135582092292771,-4.8733439317592975,2.4502764522182345,8.017578437661758,-0.3952828305140548,2.689914745203443,1.83403750367613,-1.9075704952908028,-2.1621844509113703,9.230087261858902,5.750029450406917,11.08896812086765
14.074154804989082,-1.8348941184694247,1.7384182470190146,-4.277757751782278,3.601123764438195,8.046415525045681,-0.6397970033340724,2.437063239744267,1.6280728595736889,-0.8412189703984931,6.554407832817446,12.627763127132086,6.887418055337263,14.108214467689317
9.109116074531087,-0.6967096672418845,3.814427640057035,0.4128202249746469,5.448934388143467,3.3172249264999056,-0.5918020386314548,1.7093737170142875,1.659045150407504,2.762057015297935,11.290880964443115,9.944054472186243,6.342177382178147,11.522680201916735
2.49053212256207,0.2865120357315943,5.350429277831869,5.072272196814692,5.532434797489824,-1.2268608503023986,-3.005255710109736,0.4619456741416049,1.372610404569534,7.053174952685858,9.97295171784532,6.9611475081951095,4.866868299088357,6.031099812149095
-8.323431515905483,-2.385260348392607,4.967178038114675,5.244009056099694,1.9457236166435017,-4.65433193117885,-8.16260581274179,-1.4675331905178557,0.8304673604104463,9.18144236475083,4.6366024996371085,1.50304423186223,1.552899910101483,-4.682353544423116
-10.94764916025109,-5.362724247189918,2.352388329803801,-0.2464848547319196,-4.541150570411785,-4.375530956302913,-9.271118771254203,-2.06634224144961,0.2753412110191399,7.4843319707794205,-0.2298514224810404,0.5994090487124429,1.058823828914995,-8.4354098726193
-3.951945966749139,-4.312195492315307,-1.240587308821473,-7.963401163159288,-10.47553127979614,-0.777352492588044,-6.545775580750674,-1.215018461180506,-0.3695974503068565,2.818489984243305,-0.933814738494025,5.341765374475885,3.5825690742130867,-4.542640593909906
2.960092116224986,-2.092769892048955,-3.648923977041077,-12.176163057743445,-12.18644676000289,0.5744979122286791,-1.6937190582359924,0.1479888189648441,-0.7082307973580751,-2.1398506207899626,3.0321423491538138,8.617410425474366,5.990129532869758,0.4609623470177962
12.965355531872875,3.626304403856633,-3.237390406870613,-9.228719521763413,-8.723032892873926,1.076152883857082,6.880689728918289,2.5517929468543543,-0.6726244658039705,-5.000747274418298,8.99521533418805,12.190134751698356,9.337828017695188,9.607131720594197
16.50951000549149,8.295124522545745,-0.090646479552074,-0.4983451273884149,-2.6780511307316037,0.9028747962208986,9.700381638658572,3.319121515990461,-0.539581807053945,-5.309140372929777,13.117461756165309,12.325081677673152,9.478652664226995,12.488171914926518
11.762646795996384,6.515813056068808,3.953652941317614,8.527745681262903,1.8628586280516224,-0.2878164385956334,6.210768725710044,2.2182090134404238,-0.1911792406980715,-4.382728690934169,12.764819196548636,7.697187200152854,5.717479278708999,7.958826465574705
7.485749429936859,3.931216250517975,6.5153478318080005,12.365618184680104,2.439457551660265,0.7019181226409058,3.6107118137083143,-0.0406922270737641,-1.204215551267043,-3.7384327750189854,7.762035882602959,3.651695691463976,1.6423413969436615,3.247844459899367
1.0008386834511889,-0.4609037302956714,6.255935952639849,9.492295776027468,-0.2539493095810101,1.094321236099591,-0.2622490891601216,-4.243924376660649,-3.7483207975279536,-3.782465519557352,0.1536723832983177,-0.9842986987976512,-3.8895138608955127,-4.336234761339285
-2.836469730605133,-4.267925466109968,3.677942631994668,3.0033783454840126,-3.5389611187670877,0.0992464828488204,-2.426945104845456,-6.083298441103939,-5.173372447029997,-3.960224457836304,-7.009060248797155,-3.64853621508434,-6.897792338094677,-7.41220560186833
-2.678377338419393,-2.7202586396652,0.5767101524909428,-2.325894003866445,-5.286768796650133,0.1368299540085597,-1.8143780650194277,-5.375111230571195,-5.7405738721512725,-3.9200012891401954,-11.121644601673175,-3.306580074506613,-6.64923369720464,-4.778654215564641
-3.5074722995257366,-1.801728563549465,-1.369168633007419,-3.8954982371191207,-5.450949764715038,-0.8110376190911575,-4.860383452487478,-4.320477107494229,-5.450391977193048,-4.185310898477148,-11.166497659691595,-4.60105168531906,-6.806462670751804,-3.4889464896117635
-3.827969787569248,-1.9104111531960528,-1.7265120362350397,-2.8388635167424745,-5.435186311046564,-0.4505938452595276,-10.880280079215146,-1.867898535634456,-3.7156673992797287,-5.482735661853528,-8.130488825647245,-6.754486218846502,-6.263433221979708,-1.6355313639034588
-3.401101373321901,-0.8707215928566623,-1.2968020164744978,-2.295254114614604,-6.247663402850069,1.650104788458505,-12.8570483949555,-1.253978061162856,-3.2096071637221453,-7.507477894682506,-4.428482765015051,-7.563650831154546,-5.825442610012361,-1.054740598511864
-2.6859850798170903,-0.7637858424492783,-1.0977154798233784,-4.256589662058548,-7.377874142417021,1.7325652450514073,-11.43551298478302,-2.821640720784542,-3.884638551816271,-8.70112587007991,-2.4884395088212727,-7.614113838587112,-5.939065273367722,-2.772515906408277
-1.8769893451400672,0.1053675780735832,-1.3166233622906276,-7.814549349505082,-7.393147796522491,0.8795708670025035,-7.284598347894586,-3.357085751189612,-3.492211697725573,-7.595209033551853,-3.284929077549215,-5.991471196643896,-5.3578307897130575,-2.418987854763363
-1.1201339422903611,3.3112098193082584,-1.1854333807237047,-10.089365774804197,-5.499268477383929,-1.4868059199323662,1.1604988777516954,-3.585353375833128,-2.4972022980530366,-4.472288473187106,-5.81454434989929,-2.2812818571553835,-4.383331491067366,-0.55726355288388
-1.0603787954298356,4.622746145706441,0.1315704083658424,-8.745834903539224,-2.4435956506628718,-4.0663824332473,4.644463427086991,-3.398004283130248,-1.4582627046267027,-1.5089771555132536,-7.950703046194974,-0.6356337771292085,-3.854209807825741,0.1741159389251169
-1.9230760623811791,2.496695304599426,2.476840562252331,-3.88884274129444,0.0834133595564736,-3.569200562852476,2.8896380985926218,-2.310937812331661,-0.0645937856729482,-0.9813210194792568,-8.060664219679566,-1.015768719596258,-3.6994105474967696,0.3619869194537903
-1.894276682995088,0.7517546245001795,4.486820640621307,2.0189527110559773,0.8826823481126951,-0.487344087174543,1.3020628162576515,-1.9013799456759328,-0.0061922220852507,-3.163147356135095,-6.14313769153398,-0.9145369365907762,-3.421722316763752,-0.1785063882257231
-1.1035739846082195,-2.61440362742663,4.519199827963796,5.870421605778407,0.1121335410662247,4.669361710550742,-2.2464816623061483,-2.058487489190231,-1.457970731065373,-6.040826186618215,-3.635559417739561,-1.1983425940486914,-3.178751217867401,-1.898334341112076
-0.9901347702804214,-5.031986446638158,1.9998311521756555,5.872306975528868,-1.1420913249871203,7.538168174150064,-3.004060308414939,-1.784067009154111,-2.5736970101757093,-7.238051023740805,-2.133102741313529,-1.3679931428688514,-3.9788665640014367,-2.227271120459443
-1.277132397204982,-2.7452001025267783,-1.9489546643014075,2.5278464204800706,-2.000764318303826,4.800761659946957,-0.1904482591144632,-1.3326699979131342,-3.723239289185617,-6.292522462177836,-2.1266817326798293,-1.160616145778724,-5.872895858628444,-1.1828638709607198
-1.1106646076978115,-1.1455562312312866,-5.196103708998496,-1.7712327628258642,-2.4387800497421743,-1.1932641064991103,1.6320589159698204,-1.1486281755467125,-4.968582854822234,-5.008778702371147,-2.7981085363868115,-1.7062595889198735,-7.41372073377973,-0.3056079319271373
-0.6549410433966615,0.9514932557533372,-6.1278250307585775,-4.223839896091654,-2.8964519394691344,-9.810539295197026,3.6749836072993394,-1.137529304853378,-6.016799155285662,-5.538460797309044,-2.995007288949134,-2.871029806443353,-8.771710646848117,0.9367323057448312
-0.2724417445041695,2.7757498366127296,-4.813000341929103,-3.381975388225161,-3.450216158418442,-14.10700848626403,4.652562940593688,-1.0597739020964738,-6.454847008525343,-8.156172725898918,-2.4991198182357994,-3.4763842295830893,-9.169894350548969,0.3616439323380907
0.1583231856074829,1.2154272186667294,-2.85974252024422,-0.1699810897379396,-3.55346869286252,-9.350850736930806,3.8785149638877874,-0.9733022789612412,-6.107560100547019,-10.99192835313952,-2.4180691229312856,-3.629802109834616,-8.221545016456595,-2.385249638741214
-1.4890800085972995,0.5702229076805096,-2.06431584942759,2.6681457841684235,-2.6475963377374114,-1.1111301633873487,4.104227370379743,-0.4819077555751193,-4.963876852582501,-11.932296344554333,-4.236080491822287,-3.933262283410791,-8.411092855986722,-5.562308521662102
-5.47355327220646,0.5459898604339648,-2.946276900816704,2.607611862260832,-0.9250137184561192,9.52159015701802,4.916266295416079,0.4937535787382163,-2.793325514497743,-10.661683402315544,-8.243482207409764,-4.173008498284707,-9.563414545089444,-9.780601623011911
-6.696299466756148,0.1892436197589778,-4.363102047162238,-0.4841908248333872,0.6705936603093345,14.99674125057621,4.4327623394826325,1.2934899583793642,-1.0052446466161995,-8.732844619708079,-12.7447682180335,-4.300689221534002,-8.850452439398996,-11.08340955741059
-5.371528914810168,0.3286467396459024,-4.522319913114272,-3.914202898289792,1.2636206378204822,9.951803663827562,2.96505992377802,2.003163309735552,0.3979091228033593,-7.691763841925903,-14.95166362796881,-4.363356168749103,-6.560909896427861,-8.939335383499357
-1.9300499461344531,-1.262535627257857,-2.5519815930990006,-4.209600787828308,0.8267986320825589,3.2258092845534216,0.4184284415424511,3.6314880181621088,2.0384494188046083,-7.332715331835468,-13.039762715669664,-3.6954025061570577,-3.4072996948870493,-6.141786983892562
4.8811260357726605,-4.009497408035265,0.671119909572429,-0.228439170969116,0.0886374299820147,-3.341267314546916,-3.5866383127711186,6.1495730432446924,3.5939812519594163,-5.964521871396036,-7.707957359371975,-2.231744681087554,1.174372821111754,-1.592538650831763
7.527152710846051,-4.808960222168595,3.1252825031276714,5.360920830836191,-0.3061532857554709,-6.501847422764791,-5.404951114871366,7.018620621923412,3.98797089951085,-2.3774612421089625,-1.8298916329804469,-0.5828119255464089,2.709802654676896,1.01751527173185
5.816281004935787,-3.0421150925166587,3.20562777868066,7.848589966052093,-0.4311341414273011,-2.6387878445757145,-4.890022490456889,6.247962549958843,3.10032913689694,2.6203447546072542,1.6441274456761743,1.4103777134500055,0.8467997233260809,1.175055598204661
4.040021373071936,0.0657903412137255,1.0060090362668834,4.32506047376264,-0.7911091241565593,-0.5299949898164703,-5.187616260473692,3.612089269595809,1.6763103110215176,6.748228642519342,1.8359147535756115,2.453338992708201,-0.2376524939230628,1.5024080426410125
0.4730837351243173,3.5048650366470007,-1.690043217391331,-3.623789749573783,-1.450541240752372,-2.154761105225808,-5.532107449716159,-1.6209485225221203,-0.5929176559617529,8.31918004238676,0.3623052787139609,2.3351260032213537,-1.544628676805394,0.9910832661240184
-0.1533810136843079,4.600552943592409,-2.7072403726088665,-10.801379897832796,-1.613383205689663,-2.997897174758865,-5.188268907183595,-3.7630363260967714,-0.6127528780665678,7.725282075137646,-0.2205823086305622,2.4277897623005877,-1.5286786703478117,1.1452145039130408
2.859580296297076,3.0787571366593705,-1.078860896439814,-12.295124739856522,-0.2778599103760668,-2.9755945746793038,-4.520150394765591,-2.709022150165989,1.9628946885967768,6.89301039521195,1.4448652339400936,2.396153411353566,0.5547536260048559,2.257016732305774
3.983351010808128,2.520343733242155,2.26208797807078,-7.171140044859063,2.581575427755456,-0.5295806564599692,-1.924749190064768,-1.0989621847577211,4.484942504345804,7.384301756989403,4.586082649720743,3.641374729440385,1.6025313352176571,3.795836639885505
4.296336666291371,3.3621269031597274,5.214174505870329,1.045948165675831,5.532002793047576,6.10681462826668,2.796927716507511,2.418555905569837,7.73266125168178,9.08015387534924,7.16504889451384,6.491994368541631,2.107701962808222,6.24958602955484
2.9128755177364214,3.8876280410008506,6.07881335274369,7.292678251825921,6.571759757295721,9.18420013603074,4.5181860857126335,3.1241427102146138,8.030783727957836,10.585199690316008,7.568304530482473,6.125598172129133,2.506986068295973,6.838283618834898
-1.1630713962690042,3.093794995069406,4.738560401028688,8.634281569209161,4.754138466019457,5.023646810943758,3.2580932893140697,0.5664591469988131,4.717681807199681,10.66770028697024,5.639269063228721,2.61112193258004,2.289626352101287,5.418522720203558
-3.630822020660533,-0.125422234042781,2.530448683054105,5.710975092815513,1.1069253388450124,0.7596052302040731,1.4404462594693976,-1.4783263002443978,1.4590746174519162,9.188655586123163,2.4090150429557857,-1.5857790354644508,1.8387336103579597,2.509014504266386
-4.814804507711419,-5.676796754084389,0.9770291410700248,1.2669635974877873,-2.0669097635789706,-5.419439654971747,-2.1044863038573296,-4.141675329557172,-2.7409994948644645,6.82093699996386,-0.8902727561733506,-7.51070447445201,1.0477234478696436,-2.67663416141318
-4.857951525105869,-8.520143773657967,0.4993685230595686,-2.3754890870835466,-2.992447768864925,-8.99344993076654,-3.042854864867669,-4.793384643512852,-4.49267235728672,4.247906363743313,-3.490832460666608,-8.688916746780498,0.902470978992734,-4.958802796496327
-2.798471433804876,-6.4635054332263655,0.2412789321151018,-4.542201489957098,-1.7811597720884105,-4.828802164131147,-0.9143833833187563,-2.7686907430891954,-3.0163872579063566,1.858764923448456,-4.999002476848808,-4.354933614575145,1.5277230917130626,-4.113827416763115
-1.6747373591865231,-3.2973219921618324,-0.8725289778407515,-5.525575802997626,-0.1516369181081462,-2.1951514089133264,1.540590969639178,-1.1115779101119538,-1.7223090356734758,0.041403334118268,-5.02218053386809,-1.5186738195348146,2.7403514585786137,-1.8739852452947732
-1.3060020657505074,1.2095554617171222,-2.867572573565321,-5.372417990596841,0.2096185339373608,0.9053921748299788,5.4653692285081545,0.9301125099022696,0.388997678731822,-0.6927646855763241,-3.224467453691471,1.3044916860631637,4.864520865118911,3.1279096746559074
-0.5946216010396927,4.235620096432998,-4.484961233271871,-3.7295511672575294,-0.8655372155383292,4.050831284314444,7.151418134690069,1.7644039818958503,1.6915505087802718,-0.2053272005023254,0.1206902274665369,2.1686352440732866,5.390096168207441,5.000138555100283
-0.1332642439414644,3.1563042675460053,-4.265322654972746,-0.7825592693062244,-2.0275737397364875,2.478538001787464,6.120938109375746,0.8324377952410829,1.6665011754709294,0.7474437572273107,3.78527888471556,-0.2125278398216082,4.197915051972343,3.4399862173852416
0.8121893915238239,1.8801245566026543,-1.969108306463009,2.1166860041123243,-1.7979081285691674,1.9721346587242503,3.8628013689864673,0.0701554439565,1.3994110370126085,0.9040217510958336,6.123195393955693,-0.6231881571761099,2.5189323998897613,-0.0691420289242913
2.2957469907057497,0.4800816407530656,1.010366615378028,3.2132895578722778,0.0451083197797208,1.145519489175566,-0.7307698740558507,-1.0542341526327197,0.2956054983663178,-0.250836771012894,6.250048900714177,0.2619169475556448,-0.2778822559633008,-7.138329105526236
2.463469993978596,-1.1864590364956875,2.6741112659976896,1.907567814652511,2.36943350474217,-1.1342656134899256,-3.099377555324842,-1.419490826057208,-0.1806756156386693,-1.643225039811802,4.7822318097128935,0.5108165342551677,-0.8810707749729161,-9.393899417862333
1.334162645880154,-0.9649887377278876,1.993085796358363,-0.556638288451758,3.8246963148926936,-1.288481478023,-3.0094149571559314,-0.6957218153068344,0.0630100196590323,-1.3345549747565268,3.3069913666286315,0.9449183395124076,1.0304138487982797,-6.490272296298436
0.6543037111334806,0.6043692576926504,-0.3420875092977864,-2.1165470121361185,3.987223503075161,-1.0808332440424449,-2.228914884973376,-0.0681265650079308,0.7126673408453712,1.6123276196555212,2.988933674400444,1.2692220159919734,3.297793929401636,-1.9610570985265727
0.0964036243094663,1.8954426623336331,-2.58356363163566,-1.6540275912737226,3.453870642025592,-0.8661587252678837,0.4226775081357501,0.8197587169932301,2.172408199504664,5.9272806533164895,3.64959460790768,1.3484279612681818,6.782583165127803,6.30380010589088
0.5330798471634561,2.598413179773767,-3.3221353235903277,0.2353405855817119,3.0150624522031944,0.1820619591165809,1.2963737170439873,1.5921285463460209,3.09465933499043,8.937171814798829,4.208643706102419,2.128297352285183,8.286686108001037,9.43030545823884
2.3585375764593777,1.7751518989064854,-2.388266290733899,2.08655505423726,2.9160414213677592,0.5896341246134573,0.2042837546642029,2.096051371840208,3.487294157585801,8.768718922267233,3.964562109495698,3.5839807503603467,7.380990500877139,6.732366286033959
3.795166684262087,-0.8021652799566095,-0.6275072868721985,2.97401038784019,2.915961965200835,-0.0616626399967822,-0.5154493115022233,3.125217789522995,5.0472167060032485,5.908112734547116,3.353847402952903,4.75534819527294,6.525365100003256,5.2539248661021904
5.11473343807284,-2.6129129551300725,1.0161758065046582,3.0769755607064653,2.874199020627806,-0.142066855326256,-1.6994115566179586,4.584997095671724,7.593859910551225,2.695821786911296,3.4701296324660307,5.788684515575244,4.870081958492483,2.934541473489991
5.404414535865519,-2.74958660384814,2.1784222546616485,3.150192701771754,3.072633796463752,0.1738339796320013,-0.8640139663927678,5.3067635738478,8.53303911193383,1.3347694459772477,4.966255000459826,6.4549291346552415,4.054896033738203,3.1182424494344665
4.2443442970844,-1.6811932719890423,3.0107377869608447,3.770825124926829,3.9114043233270346,0.3047105141800386,2.417007008240533,5.332040045113616,7.971490955747448,2.281386559335817,7.483477592395987,6.543249984214863,4.434795005791625,6.920020585723511
3.100891115053064,0.2134842494075352,3.672558038463408,5.081738892093603,5.368915355886036,1.1484173628094116,5.209820405812166,5.158997825924066,6.322818671027716,4.279623078778606,9.999601222008652,6.3598013661128086,4.638617027599793,8.529895641150373
1.6417666465705087,1.2640020730975363,4.021122767223307,6.869420773836199,6.845950154152909,1.3730413647242936,8.114303221350072,4.5301685867285455,2.953884804243742,5.652792930989676,11.53064953930242,5.7582754109005805,5.148937316011754,8.829761156301961
0.8190032321864102,1.3100086526255923,3.792175958547314,8.576295982841495,7.5704368801682,0.6648119347713974,8.551836849536302,3.821969746425129,1.3508357167517686,5.53671529641681,11.558035638736497,4.538693507561069,4.767690454740474,7.77477707987761
0.9334276911218442,0.9590588465198456,2.978378840240897,9.43598526322072,7.194881159989269,-0.0155337059863041,5.795107713547845,3.068068228640846,1.6324294462170177,4.193749342932279,10.163289632848848,2.6732774252671643,3.278182091853784,4.283523337646378
0.5062395696301976,0.3656161610046589,1.9308326069218689,9.123971334686136,6.087930487176093,-0.7579333381330265,3.767023229199179,1.721354284657129,0.953843294471116,2.533150005998462,8.07696582516451,0.6552186159684269,1.7770112967010196,1.1496356687719425
-0.1912208822244551,0.4629820550431048,1.0485592689422658,8.452786530902952,5.067924570942085,-1.0493522235797863,1.7602479374225817,-0.1614554061864185,0.0395475112076958,1.389246043209524,6.440393666563867,-1.5434320922065874,-0.0606762099563741,-1.928123381585028
-0.935552834306468,0.450402308091995,0.402428086867248,8.927601998821432,4.745091706755393,-0.7382078011576187,0.7488144392747872,-1.0099816278926443,-1.1483628689258707,0.958034530124662,5.961399821040207,-2.607094643922507,-1.1977182081479691,-3.6178635563173422
-1.9503206495735397,-0.0080345313489512,-0.288353565793606,10.915694701625387,4.92555595643182,-0.3286257138817818,1.4974072685292872,-0.7822799367639353,-2.9937798603295294,0.5996557893604542,5.943182532620738,-2.27911624526783,-1.4147468952483828,-3.219769933540639
-3.1033305312102994,-0.0905125743237114,-1.281696105701899,12.198569884391318,4.587789973085613,-0.2812616210660636,0.4610676492476558,-1.5179789405931323,-5.228766388699851,-0.7815807070780147,4.446644117528734,-2.616757765398026,-3.516161124118712,-3.696784339470528
-4.433283495324937,-1.7729433979595786,-2.419647970421042,9.139090670757252,2.62535476699292,-0.5970577230287475,-2.048059514691209,-2.959628268580378,-8.022005133239665,-3.7953288513392174,0.1307600801747725,-3.317354288137689,-7.389284278981473,-4.594707405088874
-5.465381382218386,-3.3766862826818382,-3.139808409851784,0.2337096439365416,-1.092623484431988,-0.6272809134709635,-3.5763580667110824,-3.989409696366615,-9.126488691580764,-7.67951185369721,-5.670775144091747,-3.343624338641305,-8.698756103836734,-5.114553908161933
-6.1459974760928935,-2.206746312486641,-2.932320861772198,-11.295706339065466,-5.262355562359094,0.0859565997517454,-4.65326712074712,-4.916098685328692,-8.349574184781503,-10.399994969230406,-9.081695656191462,-2.981919195062225,-7.711271544868401,-5.7146494607175375
-6.2578825440399655,-1.0954330927612856,-1.848943972008541,-19.131458920478707,-7.894565612958518,0.7275091710019769,-3.9080718017024334,-3.315599608860305,-5.260220157516737,-9.99875082819787,-6.745227281561299,-0.9540361371206372,-3.084150362516657,-3.432665878192703
-5.616577295042732,2.487181302903537,-0.5848487583494753,-18.946747918028716,-7.810735036882738,0.9805603368896194,-0.7984632665911272,1.2111524041302977,0.918866908592063,-6.2083962854560255,0.6243622253981846,3.0134008515621447,6.390979001669419,2.020112154490199
-4.579589419077808,6.137912554267575,-0.0251283043069676,-12.269529243143614,-5.608824096859674,0.4305696628035341,0.2733629413887005,2.9175409064122744,3.433738929487067,-0.8865509899275126,7.825413921344819,4.579788503112439,10.743176427104393,5.086999577778242
-3.015058104120492,4.14053276845586,-0.6028719550566544,-5.132021780495814,-3.155814317920292,-0.7884388451577427,-0.475967095267352,2.105983837750624,2.162388323441358,3.2310619222161883,8.94831671478508,3.799922048560104,9.99996231491802,6.171249893770607
-0.4154825611714051,0.5858854202886932,-1.9779824765469056,-2.597293953151736,-2.03196516235608,-0.5787081044069996,-2.289796222984532,0.1105640508459326,0.5880533735291519,4.431851099940914,2.3287769768164828,2.3300775494357118,7.625386305367232,4.269527305841996
3.2546996556690755,-4.825706216927591,-3.2875924904243474,-4.476316313639202,-2.3965999192480663,0.8545822061766648,-6.1775976462295175,-4.353842280362878,-2.860632992175682,2.999010687718836,-7.783698661551751,-0.8339963605441852,1.2480929040241542,-2.038131758704182
5.52581219146465,-8.36847557257635,-3.76492998077464,-6.311603056405835,-3.3171886648369497,2.284703693876126,-7.098816608533402,-5.323940864823507,-3.738200742381741,0.6089716622821175,-14.44675500546318,-1.5006377064783278,-0.8818609997430171,-3.80126281897566
6.312469093066396,-5.411046631420859,-3.242795426714255,-4.285483494605299,-4.069687586251114,2.5783586659218503,-4.887971875781543,-2.5304338643800914,-1.5110174251269106,-1.091381529610026,-13.33373195053331,0.656345812939623,1.7060004161346864,-1.1715555344570874
5.395809558617595,-0.6711693224084709,-2.161758334628952,1.098281236490351,-4.886024248695752,0.5194876382682028,-2.8467682806863466,-1.2216440790674867,-1.1373648657840052,-1.470994109513969,-5.640703902695588,2.27627163119274,3.8041663606746017,3.4321545100148945
2.0129176910907978,4.195294529328244,-1.1047616287678388,6.009781512471194,-6.260223933077167,-2.113046138052621,0.1479506944159348,-0.1692075033669677,-1.6475402434743718,-0.8775925208619166,3.450932442729547,4.3298103370511685,7.351948662732752,12.121773489984156
0.310604562525075,5.855507135163143,-0.2681151137419971,7.356285945193139,-7.623843252927292,-3.302630980244911,0.6023837526876014,-1.0789103728725211,-2.12857033826146,0.0352948223929221,8.875965292570081,3.824286844079802,7.128614011207038,13.325879380630884
0.2152217581418249,3.314934461613463,0.6559262273399153,5.43969830968701,-7.125546376165276,-2.522112484085096,-2.1218114747977466,-4.886757789620161,-3.300846254767012,0.859786439202658,8.783990903815813,0.0768082797367649,2.2625471510073325,6.371867640214319
1.468185777955297,2.139109374713292,2.0581457764349604,2.8097217715493987,-3.2388228419929246,-0.3822389929837376,-2.600250492800998,-5.660044440657072,-2.681449152352281,1.4581242637235658,4.671553805856915,-2.343720847361566,-1.9052310767510392,-0.689903155109648
5.129938748331583,2.6729866025787583,3.825278090269223,1.1807910355256492,3.1527645006233165,0.4506030997124126,-1.5678295875490642,-3.744312516152261,-0.1247609446813421,1.630769448465228,-0.6377117427864487,-4.151991750723955,-6.698508719544087,-10.565766561888283
5.126154821020844,3.1336359862887067,5.164757014461059,-0.0087972005418102,8.487652937180346,-0.3038139353316182,-0.2460675726165504,-2.621142814330113,0.4782322111285596,0.9064953396827242,-5.047612923702285,-5.104875796736745,-8.35494278504698,-14.19478186331823
1.360418337739154,2.873956727903736,5.088506358481977,-2.140885341763381,8.921261012202505,-1.173977366930581,2.313620382157309,-1.2235094085309024,-0.5260186198879883,-1.202587909528789,-7.937257321464081,-4.333719076855289,-5.7829502406204565,-9.9587231487683
-3.1375553809455865,-0.4821174988132125,3.192175236277664,-5.16127201419021,3.5547607834744643,-1.3329228262345252,2.342916607039169,-2.42964907189638,-1.9222284168705304,-4.599809673447963,-9.71003969623528,-5.792328990113104,-4.955399798508916,-7.631397606107353
-9.767400369922589,-5.648207182214962,0.0546007577576745,-7.267913728394462,-4.524518806363286,0.9909472568262514,-0.3817771489823227,-6.920561014970686,-4.473352888679987,-8.222717318288622,-10.942408939743755,-9.356875879024152,-4.869193269842338,-4.876674550077195
-10.86058202257963,-6.956319193423049,-3.095969101295401,-6.8427258312016885,-10.62774491792533,3.560758860195339,-0.9394333616255078,-7.350979536483321,-4.690791792141991,-10.421054920317768,-11.745097016654377,-9.829954025687432,-4.993766449224221,-3.1352260440637365
-5.579910785125312,-4.177403191524333,-5.147867579436406,-4.3674698750638,-12.253319767624362,3.644118603421999,0.0346858594275745,-4.112181604045603,-2.293486761830069,-10.003874915566426,-11.59006604934545,-7.67597829977359,-6.328990605975923,-3.892385760387087
-1.4048134467307114,-1.3754832053465411,-5.66672293354323,-2.170734935876456,-10.784335678020168,2.5047176202118413,2.1217501947756774,0.231815903304369,-1.23311880292966,-7.144270764702687,-9.690732700352171,-4.350855321462236,-5.910934727189328,-3.605927689748993
3.460764433038749,1.3340197922930346,-4.906287024823701,-2.28453535814916,-9.570045470758805,-0.1444375365106273,6.287559178832509,7.224687137410524,-0.8118657677073678,-3.312652106816945,-5.79251155752703,1.1954773255507056,-3.8096857561873687,-3.055365488293385
4.575593191873961,1.7851057372331207,-3.471753643842668,-4.657437599656463,-10.40422993914103,-2.1850118885447727,6.551426513866448,9.280708651836925,-0.41021795225095,-0.2454837581406379,-0.8262525033610322,2.6713385819595503,-3.25667968642671,-2.638340350439257
0.4456501583333118,-0.0421092963739825,-2.026166407195503,-7.441794664847063,-11.910643577885583,-1.1456742674953853,2.701775962505836,5.761669746338369,-0.6628655176789106,1.155313599989967,3.264615304635832,-0.4020861253497611,-3.8384196164534936,-1.9142615307549824
-2.156630074944092,0.787732186688932,-1.1483172323850166,-8.830504750742483,-11.260317992281676,-0.0970722321647936,-1.2455698583191983,3.3263761923099837,0.9026105103686892,1.1046280490217697,4.650437587579597,-2.1424991134844773,-4.613412119040941,-0.4990240956685041
-4.550433038375854,2.522581305543316,-1.1658351854098843,-8.463225214055,-7.228728611842024,0.4129788178672967,-6.632488997996119,0.2376638973059903,4.384733378582933,0.3751674357809413,2.905314633886632,-3.9355053661577775,-6.159319573412789,1.7507021974305264
-6.250712568007929,2.603155908321292,-1.9106637335119163,-7.172618702179004,-1.4356351504838123,0.5133587744717802,-8.09087749846004,-0.437503890596947,5.315190037722429,-0.3902030239946876,-0.6482702314031519,-4.227555451891616,-6.388831053094429,1.7273276277612333
-6.127379926771594,1.6948142350183677,-2.675175937736069,-5.738134370883034,3.258491285568525,-0.978536122509546,-4.715854538607066,2.465802966772373,3.9551412650887614,-0.9142478857757376,-3.899218219536334,-2.019652515958969,-5.133224976777013,-0.6791715831602375
-6.097633923729013,-0.6212251659526322,-2.622091469078436,-4.186181850066994,5.294434330042322,-2.0395991738902994,-2.300702366285675,3.498130930230325,2.347027409505104,-1.140274113712258,-5.409485261823279,-1.1289059506289647,-3.977324272937441,-2.5175689393709013
-5.638800822094106,-2.935376046562849,-1.4148504920877365,-2.222725320679904,5.360587853815008,-2.086115051194027,0.5196417521094342,3.544053285701536,-0.3998532614733175,-1.088125063752825,-5.165085744300331,-1.006057227033734,-2.428620010832712,-4.412657867350858
-3.884688874015689,-2.774555617971277,0.545870543314539,0.0646232685033241,5.2055830648724974,-1.3788712065668995,2.067146458490676,3.3492356497379983,-1.3280154520934715,-0.8262981309846662,-4.136510143326233,-0.0529497978340669,-1.4618398327734383,-4.003578219037945
-0.9342830696261042,-1.156624820344833,2.5713026467639706,2.2603869195452595,5.90779384033571,0.0197948533411436,1.3628747420275265,2.0186639636692867,-0.0556385631452955,-0.4100228061207209,-3.264486431536312,1.1825332800027286,-1.3335745737211944,-0.5802106784628145
1.832193779488176,0.0975240362697805,4.371023241156948,4.286363467322073,7.296053289367883,1.412602227891483,2.3697323169566857,1.495197082885236,0.124882184929816,0.2182171916276596,-2.8250154987506804,2.4883331114909466,-0.344501843009072,1.605699096766069
4.483432649547138,1.2964612597155412,6.212438978204901,6.605342124387702,8.63004801807564,3.002114854783565,4.52901704286066,1.7183855472385827,-0.1182808885501823,1.1310849727230732,-2.542845991542848,4.004071513905997,1.2829647875119965,3.155553628125878
5.973254163149576,1.5433551524178704,8.35242413599207,9.453815659112095,9.4308393269657,2.8745003094078823,4.6085960548337015,1.611333149060665,-0.2018940774967462,2.097903535087968,-2.0736359326815474,4.544883251725455,2.3625535144279364,3.694365643631503
5.841119472543371,0.8193666424180254,10.392186680229957,11.966367248116123,9.643181218967149,0.90645872412257,3.0246317460998644,1.532975645109873,-0.5915718021809278,2.4726214124070998,-1.3287691587058252,3.983704191078573,3.1105666415358137,2.3655867012493808
6.218815491713375,0.5634940559215544,11.353630701768292,12.457827670361434,9.326136125090375,-0.474239450495228,0.9607212276989908,1.0309101049544882,-0.1678389361409748,1.659350634129818,-0.50595733152318,4.250239475821097,2.8089089378433254,1.080089111752678
6.772569886243236,-0.1297146220739075,10.497209550662609,9.915128565739536,8.475267939130667,-2.808160623718875,-2.1570295528701187,-0.041820691710935,1.113448864022622,-0.1810280695088648,0.007030610323552,5.1444366107094845,1.1637705470894422,-0.5315636635244769
6.412056356295245,-0.9356288605826892,8.05745199364917,5.303421130329033,7.162450899148212,-3.602601926828627,-2.565530501135273,-0.3348394738985398,1.74514629789933,-2.0092577287852222,-0.199854611909565,4.819707357366879,-0.5095588239427236,-1.8738154139871035
5.411967934735117,-0.7946541482143142,5.113146522682535,1.2493145998287307,5.684047458272054,-1.166588812531328,0.1466693022219748,0.0965410919920756,1.8901556698974584,-2.7317701008510458,-1.2787719203572774,3.50777477184062,-2.434908755536009,-2.5990182251394787
4.234467249220847,-0.6370459664468707,2.709503733878863,0.237078545718929,4.46408111761229,-0.2816969704297832,1.204413745184994,0.4035397046887765,0.952861939331803,-2.225747578322585,-2.8171971595558363,0.8133202333316448,-5.846490731589295,-3.9443885404578394
2.7623450861960075,-0.5543727937375518,1.1103150276502016,2.872791812721564,3.7887219655450304,1.55146949795612,1.380886516524534,0.8395821183847385,-1.4562123353620973,-1.4575737617530748,-3.867532181552553,-3.699792888710201,-10.64326821062423,-5.688800198296595
1.6331831574715512,-0.2646113767797176,-0.1330563526400388,7.575840313720251,3.6054789396071127,3.042879340732052,0.9320554687754178,0.472634026929696,-2.702836613557774,-1.5016927282611117,-3.566259613231452,-5.844223325230766,-13.383039409795764,-6.934921478355578
0.9881417516867972,-0.0002897616707278,-1.488423847738626,11.649408198507285,3.539670214667755,1.011179886777283,-0.9963888672756868,-0.889530562035901,-2.8977141893387204,-2.4740235512923108,-1.9974976074814703,-5.538025584459083,-14.010652001361631,-7.79561181760928
-1.5615615054442702,0.7718340784356952,-2.9105906591296664,12.68405270940064,3.1552478731448232,0.3412942216293831,-1.0768018350547337,-1.0737575799536638,-1.2469482411277912,-3.496435335192925,-0.4703685507662238,-5.131833340006594,-12.11102312796128,-7.5243924987691395
-6.007699017665705,2.734815983560365,-3.9798459477924335,9.512866442561496,2.3296886610697163,-1.5342273735281564,0.6535208849689426,-0.2159913245865065,2.989646343798858,-3.6856500946410296,-0.6806124403613723,-3.665391821809039,-6.6389767767970005,-5.8467101757305295
-8.007381969126468,3.894898828702956,-4.457001720313425,2.7054160215194694,1.4121082607362252,-3.8459792619389,0.5461271528560664,0.1535522178849209,4.832770129284807,-3.087489925724846,-3.23191046642248,-2.908422110661045,-3.302258529078072,-4.456726760315256
-7.773020378133409,2.8665894863069568,-4.598040256178736,-5.294081009123383,0.8565738558754625,-2.775998170244626,-0.9009051158780657,0.4010710779843058,4.40983101618118,-2.613653466830656,-6.779599266158508,-3.1515559466318503,-1.973211290910804,-3.167866541527533
-6.739679494249524,0.6263062869331073,-4.898281122652252,-10.791002269216412,0.52611232521444,-2.154719570822561,-2.901251810305052,-0.6597544920786932,2.75919905832015,-3.1073622931913345,-8.751145538865105,-3.08568920263255,-1.8797365718947248,-1.6190470564336403
-3.956635876479475,-2.98056325153511,-5.568134954778165,-10.63680566443873,-0.5450496367668858,-0.2656835553470105,-6.115870586987684,-3.378018644695509,-1.3033970807006334,-4.463615183889532,-7.279256376151668,-3.1944823264320443,-4.4238423518545655,-0.1296730810121807
-2.5963869492842533,-5.062701042748863,-6.301072175766727,-4.525216064931776,-3.333765127081018,2.564913538695021,-6.112335343674031,-4.226807352852311,-1.9835060178134856,-5.551252720151595,-2.787985617556201,-2.853315077906033,-3.5477330383846635,1.7479442305548214
-2.855898214081681,-3.7902989430823015,-6.560273948770014,4.032276157368841,-7.499197456626583,3.141900113834885,-2.5677151445672464,-3.3583868748283776,0.9372427925201232,-4.940661888578792,2.2218038802838205,-1.9195990340214235,0.7951455350830703,3.987670225218996
-0.9069798548671688,-2.205079115199569,-6.076359824613253,9.47296569182542,-11.016218790707963,4.239293552664531,0.6479966279557418,-1.759944042348621,4.152367594994915,-1.906097714155644,5.156334011683306,0.300617428502452,6.309135170714515,5.377130467791606
2.685174380563776,-0.537404708835207,-5.055772644535204,7.950511476295649,-11.605436594220071,5.852761682135316,4.5345689468031605,1.354137468898093,9.018302500831537,2.9083374423938877,5.43400986853313,4.113191272018153,14.420637149672114,5.887617476685337
4.815469047596663,0.8358206947873643,-3.912964892126497,0.293305094562424,-8.874306078873914,5.5070487498416725,5.613535219708843,2.685914083751669,10.401318788706082,7.600047314057544,4.843329922409226,6.70242622459953,17.94647999581013,6.88720928303196
5.907591550396731,1.093842870265052,-2.820597389778753,-8.428669415298254,-4.947601272746245,3.677512066762144,3.025463481014673,2.0598438728493456,7.628411689400984,10.009380666584564,5.816443347431165,8.154314693227901,16.318481763378912,8.15879269956895
5.815986792612013,1.5456494088172668,-1.541503153963268,-12.60825524776169,-2.595976348579821,-0.0444487409317564,0.8302644093909336,0.9130669592319808,5.043242721993021,9.16798358746495,9.21290374041039,8.966353768148482,15.719893177121104,11.162050338998077
3.869606163667127,2.7481609020560254,0.2843823831163834,-10.099117724247332,-2.497900992522089,-7.104522578528873,-1.974871130368811,-1.5963182567227954,1.3302511118263511,6.200947413657941,13.67826403265654,8.462399584720101,14.51215630647944,16.30615013374697
4.352340392239068,2.827602034745126,2.684245589998181,-3.2419624196054544,-2.473214370812478,-11.189293961201637,-2.518215484108563,-2.1082986102315853,-0.1798526723320893,3.793567467555025,17.09875356749842,9.378130950296466,15.240002388086936,18.852673550123832
7.301042752605151,1.347625664336098,5.182605393493019,3.675553707265255,0.2564843192721976,-8.700644922655902,0.0241142850661434,-0.3618059782088094,1.2939201026697298,4.345823463524972,18.595387303147145,11.753128930840292,18.94056196274641,18.947047506904298
9.709201650705635,0.5257602829080451,7.090076927117529,7.959049376793093,5.895615757271496,-4.130861932705068,3.323024513304821,2.63592703769467,2.3221417229282797,8.140550345114093,19.011362984973392,14.28710690611648,20.34350741243432,18.331191733917446
12.460142670364611,-0.9605877414908518,7.971519473368202,9.812426761054814,11.237403240095237,3.6175233671082663,8.368732148340479,7.834667471128761,3.871772275716511,13.04008615166098,19.49456097563756,17.605698142497925,20.13688825456048,15.95592613233315
12.312753137065869,-1.5351005204687402,7.85354913448729,10.618303377455176,12.264241447859916,8.705630668947496,9.66863966336105,8.580686725198852,3.1443123582861974,16.047065973535524,19.860506731131952,16.38471875801578,18.36483778852948,13.786704258787296
8.594871112387652,-0.1298436052132234,7.014010028938936,10.44514286358794,7.845650979711368,5.373749770005666,6.606178770772132,4.460033358324711,-0.5236388508701205,15.484444004323889,18.66216323100212,10.069746072663335,13.99245640673762,11.923159416012462
5.255878118620444,0.405879203669989,5.621095425753589,7.634756748306666,0.9792817454402576,1.7033014835671851,2.2306516728520647,-0.4864173570003316,-4.243166814848139,12.028205787813183,14.953681465211051,2.6345354838117108,9.085556646104443,7.503836539931564
1.4496716117916768,2.2705475280125222,3.609219996592314,0.9391207476132156,-3.689102508113456,-1.618071828516543,-4.992138363675328,-7.903070338870779,-8.836428338882296,7.840118797402889,9.716587837970714,-7.294001917429823,3.310578413298417,0.7945360518255953
-1.2330752174603783,2.911006530802985,0.8981784260117909,-8.169698546276937,-3.793160464856279,-3.773174377049272,-7.639932583630501,-10.735994649606956,-10.508405637760688,4.662592147989763,5.146555065690359,-11.939716096360623,-1.5173274942605912,-3.5034197237387144
-2.0333803470821747,-0.1630463192397594,-2.317166190737886,-15.766913612188272,-1.0267709215764254,-0.9521833618853648,-4.996064856354627,-8.081601952337355,-8.556870835198538,2.525281754706542,2.35008219607584,-10.195243782737702,-4.869223917524034,-5.553250657018436
-3.497662114807151,-3.348503768787371,-5.510821416361687,-18.41680936611552,0.7176579670224115,1.2665758208119584,-2.9779592907980144,-7.899511148785713,-8.107957943528941,0.0937570274781185,0.0157824243495801,-10.521201623831171,-9.35216681833459,-6.810986402611568
-5.0475171277809245,-9.60929128993661,-8.045779815142932,-16.088826969733816,-1.069852328060513,1.092694833241647,0.2271510706636648,-8.589025787040342,-8.26122713992176,-3.763854039828132,-4.194714126942987,-11.037008986394053,-14.438600673477556,-6.187533289240889
-4.829915405296076,-12.77996791855976,-9.432596186211018,-12.1416420181567,-5.516236723971302,0.7481214842934831,0.8684376146352427,-8.016205869337295,-7.972148621064979,-8.590960036387928,-10.728121129710424,-10.450059412538268,-14.5841899121434,-5.879756727840006
-3.0041959181189384,-7.073465610558594,-9.437613962826026,-10.206799190015072,-9.507006385444315,0.1281654783083783,-2.034561202727163,-7.241453781430885,-8.026441800630295,-12.33968737250209,-16.80611933803344,-9.879001977597069,-9.624927369057676,-5.908904561726285
-2.426028752769737,-0.610167783028712,-8.084944455813744,-10.810968124208374,-10.54326132022888,-0.5579283592741017,-3.1345644112098383,-2.476147946681938,-4.665740758259623,-12.77950499120946,-18.40837210927323,-5.438852070857773,-2.2099082995921093,-4.923564828468805
-2.9334107425775096,9.96702095978305,-5.69087969931898,-10.948664278629622,-8.57485260152891,-0.1485555557029421,-3.4099610544814416,6.737602413221254,2.3833438572943084,-9.201638271420991,-13.875839667502834,3.0816624256104848,9.062489777146157,-3.363392597889571
-4.157203408258813,16.86273533312487,-2.9112109809617586,-7.159059919266278,-5.452630951985265,0.1361969576892657,-3.604363557370784,10.289356864430223,5.027652294167746,-3.103645372762521,-5.601900047875551,5.858416886948104,12.087944435425456,-3.355757824684599
-6.776032438786211,11.418228029608972,-0.618102541746758,0.6115261718857461,-3.0297309283121017,-0.9970149348730428,-2.8962506314023666,8.414404697458234,3.60902990120987,2.622413131166308,1.884387644685804,3.0398899262771275,5.68378072448348,-4.991971813173297
-5.912580062422743,6.3541282944001,0.4628714458735139,7.991460578151649,-1.891096045648915,-1.4089395362092971,-3.013585741844883,6.205718484011001,1.1509592868956386,5.358465390805332,5.504670250704013,0.2886903719334045,0.5789248732713765,-5.989947903064327
-1.3407769076770513,-1.322394070383573,0.1371417982466347,9.315666530143298,-1.553870031455995,-1.347807157165266,-3.919454407372806,1.5044227655703613,-4.099843151885262,4.164474252521783,5.401248050763471,-4.475900207729194,-6.130434848726118,-6.784317689925316
-0.627243643710262,-8.008443640312011,-1.1882195836592473,2.5123726158925024,-1.3772755580257652,-0.6861544598875856,-3.846273878491184,-0.4186696380285494,-5.354711366736911,0.1436152353306763,3.5443417422603414,-6.26635698181506,-9.262418869571729,-7.315351264041109
-3.0838698532015085,-5.173747784586912,-2.805832609874823,-8.480357709473202,-1.0729607694831849,0.6654970118206296,-3.038361216923212,1.188297234430157,-2.050309686904308,-4.260556469452144,1.1925191672447577,-4.1594839268547545,-6.982201537583872,-7.188322992260232
-7.130079787396266,-3.4880921144525265,-4.086617849832177,-16.20582166348732,-0.6488727056940782,0.6415419798307527,-2.3788192001521744,0.6680235060947156,-0.0449775846162513,-6.557562424102315,-1.9105959053408768,-4.168695720985908,-6.947269657909214,-8.055340250811385
-14.324549751458065,-1.6115801539212466,-4.631724373827744,-15.378357864554388,-0.3445455086838525,0.0867156658048395,-1.5999677936556242,-0.7526013764431535,2.204734204427166,-5.479191232987054,-6.106196517385882,-5.0819712033076,-7.578196525337355,-9.864556654669284
-15.540134035993574,1.5687971499624065,-4.231798176330333,-7.077220985665198,-0.7061680941433526,-0.730503896126266,-1.026469193992145,-1.495497949408256,2.8939663800175817,-1.6447553118651204,-10.342322732707991,-5.447765528167327,-7.430026196008626,-10.50661679426062
-10.250949691609971,0.1001283318246451,-2.9026746422835963,2.213766970893931,-2.2630621031911438,-1.0108579116538174,-0.79823146900842,-2.252115768220759,1.0984920850685296,2.785331268458066,-12.70643675604769,-6.071124907156137,-7.518553851696435,-10.18047955549711
-7.589003399126904,-1.9895038346828688,-1.069906974491574,5.946472549409336,-4.61342132179796,1.30907121911555,0.382342790503491,-3.289314590123249,0.0801551004923502,5.398123619589424,-12.418145908020824,-6.88330647386892,-9.059116340089991,-9.783939265184149
-5.703723772606397,-3.414192950476761,0.3990682701686481,2.565186882785192,-5.878510520760054,3.814762225142447,2.4901921518252883,-4.529459301224163,-0.788104356310827,5.009485221389937,-10.851322519509106,-7.873125651103919,-12.277847451775315,-8.928324280924022
-4.240424714922394,-4.319410216303406,0.6471159230676413,-3.98894510758479,-3.741797950573418,4.478424279047622,3.345749020000897,-5.099273434173912,-1.238182852064379,2.3136916330894906,-10.210320050141702,-7.508848649295217,-12.957494998135102,-7.706044203494948
-4.646643229456499,-2.095274683782783,-0.4338024679940879,-8.26371410300546,2.2718301029145067,3.1886347926135,3.0682196987495227,-4.9713152174378665,-0.7269163467689642,-0.7883752049119472,-11.169023246371038,-5.644166545381752,-11.180857305981004,-6.166133450264037
-0.2550284205657128,1.4481542529650528,-1.836345264612973,-7.667459578854768,9.4629707943432,-0.8930471250911656,1.98919205834745,-3.102832082513452,-0.4760330510444651,-2.592704188731581,-11.981212719643022,-1.887586244356064,-5.620623031494065,-3.893576280824348
8.979821380311897,3.943051704625867,-1.9532360461993756,-3.367706106198673,13.459736383637589,-4.955153560404852,-0.402250481429727,0.8778898660338201,-0.2550815768000617,-2.5740651428512287,-10.025888164744623,4.315160475839375,4.9861373147293255,-0.8816841702915802
12.60619299570378,4.171135226579901,0.2709115974522014,2.1890117198947845,11.741346335491892,-5.520692987167859,-0.920164662384054,2.6179102714162146,-0.0070277458269839,-1.298207888376936,-4.284509831737104,7.385453466079665,9.472876288991944,1.726842812321556
11.379344978966174,2.5281685681840718,4.439210216757804,7.7870854339070785,5.987611546387079,-3.1752862880929373,0.5705627836688157,2.1751751335493537,0.0874362711460221,0.3590495215624329,3.5477865241129507,7.181830721492079,7.779309509938377,3.932453576311128
9.256962496331044,2.131237594809672,8.82631868632192,13.423697497891624,0.8207536453373194,0.3414777199832055,1.89032941885415,1.859053546139422,0.6766726545847713,1.8286139072669023,10.19193388930148,7.313595573019282,5.463778362749889,6.894906111058182
4.145086993612557,3.5711748705948354,11.495745063250284,18.64169361870116,-0.0603491089912218,3.5700979540494,3.7627500514362873,0.735375060374891,1.75097588500917,2.885208515577432,13.056064256640912,6.530958533248899,-0.0127217278651472,10.413343322346538
1.789382277503175,4.477433730739292,11.577531184313894,21.912517869090465,3.2206099171401625,4.293434941301977,4.472589069822146,1.138711091506015,2.2932647134681856,3.394528774158685,11.809035893641402,5.170844913678555,-2.8959528262684984,10.467489442185004
2.732808904205418,2.8649162652119067,9.731996197696123,21.993898121452705,7.343293202360607,2.417069190195543,3.650319682855105,3.427561604531548,2.367020463265165,3.2188897619178984,8.19415071291629,3.561890875919022,-2.4840503747506406,6.854581908530349
1.135743472220261,-0.6409661932763822,7.453977304924997,19.36840369595157,9.00684894722216,0.6366383353983667,3.384665390532314,4.443057103592827,2.0702396813737742,2.332997547645274,4.406520019528166,0.5427828719500534,-4.310968618143876,2.495172543134046
-1.7765376560533128,-5.3060196340706005,5.795159430411536,15.711543883125266,7.5181470418700975,-0.7100679639097812,3.2316272172418583,4.6769398143840375,1.1632375821989989,0.893420568522922,1.3661142409653912,-3.7814863490350814,-7.047405119818568,-3.563637427600747
-2.76079680017743,-7.517045384376697,4.593152390798643,12.004014678587232,4.614478916497708,-2.016285018407185,2.7729667582951665,3.8257969622627632,0.5421888091066502,-0.8514862723254062,-1.711365338251742,-5.309830671412732,-8.861415278900164,-5.899091817068018
-2.3988001853154914,-5.447222109658677,2.9220941325770493,7.838051774917249,2.3050780258244377,-2.402462643718711,2.2817873008274403,1.2685390386732711,0.1930690634951973,-2.659396506548534,-6.032237752228859,-3.871142956399586,-10.327580548666749,-3.68591256090829
-2.3249818194426832,-3.834078615606704,0.3915902899864569,2.9910964785464067,1.1272538074562064,-2.533273785267339,2.012477581520437,0.0296866511867544,-0.1558047672374767,-4.2868235915687976,-11.341859544662327,-3.787810636823823,-11.12687130984778,-3.725441786504153
-2.072522293807639,-2.590762498480386,-1.988092100900284,-0.798521173950224,0.2322807534712296,-3.649263319411932,2.009143682543212,0.0037718431044298,-0.2998334891762606,-5.50526744413483,-15.342478894653336,-4.251005533780537,-10.978712303285027,-4.768542036666631
-1.4223259983023422,-1.1203266290032,-2.422924752319995,-0.6304796584178458,-1.2833038654856246,-3.4551899732820983,1.985937741038268,0.0590985297147113,-0.0463714321898588,-6.266040275985869,-15.319934127591686,-3.3471542510807537,-10.09106288998765,-4.209620794786509
-0.5712034484915784,-0.1202101120086026,-0.082900331328787,4.383258803714362,-3.268499540793961,-1.3131302812890726,2.0225708767796604,0.8395476468417788,0.6641841784123086,-6.839770471910899,-10.698339038856904,-1.6235648506818117,-8.262175195204831,-2.939471178832347
2.253507352426583,1.4743333630186364,3.688821250828173,11.01908670742068,-4.457851524546301,-0.0963600937455519,0.2673170227851296,-0.2231455918930447,1.0879134700039326,-7.62484881013744,-4.0141699785350085,1.4146623778107064,-6.760651276549147,-0.1098896729027077
7.205003251469957,3.798295086844569,6.136007140545512,13.806749285516734,-3.2968690201254134,3.21996089338143,-3.503181597990036,-3.3486687023209885,1.245731142581476,-8.668186462377793,0.9037040333589416,6.080734407238414,-5.647481836683501,4.647324489809421
8.264373057201336,4.99887136853694,5.404505189044908,9.622818236478142,0.9348745567796612,6.103143640440504,-4.200291195710913,-3.271817204609167,1.6840780331487095,-9.388791642703382,2.009782145850025,7.509630971996981,-3.522332674853178,6.288173222129029
5.388050255918107,4.44912483305622,2.2886663685344075,0.6131873209497485,7.295348742890713,4.841242120087468,-1.9437978540691876,-0.2673151750486524,2.2650255119621074,-8.919713973976314,0.4940275831307446,5.492980236947373,-0.622711456375806,4.700611563709408
3.007452905979286,4.716936237342414,-0.402541301414562,-7.5250075467061635,13.216961887128717,4.232683883369513,1.99427549788358,3.797150804646851,3.340304860920135,-6.860628551971772,-0.6665787860128987,5.962224926634908,4.838011114731279,5.405340536824434
-0.1288085849378031,4.222019385360535,-0.4180189587904408,-10.284665836377584,15.707947668936068,1.3396145482402773,8.832965068229795,10.040676634218215,5.021822445202702,-3.7541803820037103,0.5394338619096217,8.057679866257104,13.2985948541297,7.507619408326602
-0.9767544765013384,1.823503671985071,1.8478958119423048,-7.63365762778362,13.203012415049734,-2.6041771034266654,10.400186639486764,11.462986198384431,5.285273297424999,-0.8238202156719652,3.776001349774624,8.703928069117886,16.185404233662833,8.260487517824034
1.3052798775642558,-0.8145709400477382,3.7836520461551215,-3.101954964409572,6.734226263659279,-2.750070290266634,6.1874198997948,7.444824819931759,4.078515295993798,0.8039190830695269,7.302546513935379,8.749686555584745,13.356826188567508,8.415598335123597
2.075556836364457,-2.9663159134555115,3.0819883180644325,-0.1610194206679658,-0.6667931047080948,-2.47615704965634,2.4265135170799046,4.740279454218414,3.508295844052462,0.760928669231177,9.77626721430354,5.81917825548264,10.04606630015279,5.827704104907884
2.1333135023212324,-3.9844065371473754,-0.1075855612628462,0.3594938145688129,-5.9975428421077766,-1.0654038045806211,-2.769222851579876,1.7776298615454944,3.198580766565139,-0.4409255880895486,10.9635304800315,-0.7510119366205542,4.32427923681629,-0.1076433244698161
1.624534060552684,-2.6582051076608404,-3.4277151769450445,-0.2414042559760147,-8.09498235934593,1.0904204838686602,-4.8402106993239,0.1064615562010023,2.365166994680519,-1.785872530171904,11.06298026701756,-3.4756416736281777,2.105762963518107,-2.5745383202104595
-0.2443074529640678,-0.8757930894335972,-4.602837133044746,-0.8351530315861222,-7.802576949668158,0.6766027916690321,-2.667058753331376,0.8574976006560255,1.3019107698890202,-2.350468468930257,9.941602093874929,-2.5905351085954043,4.361832921284178,-1.7838172435286606
-2.657196004278368,-2.969682831635988,-3.4982776579468524,-1.7866671106549497,-6.656571786639734,-1.1846926366746808,-2.365820641561857,-0.2471340997858225,-1.419945878532872,-1.858566750293562,7.351253084478008,-1.845420613425915,3.888846763769092,-0.9081217002458684
-5.9049640591827846,-6.4763579174788575,-2.060072790594667,-4.108553487007633,-5.548876079615706,-3.325575496188455,-2.7343577513680506,-2.6401483376392623,-6.017322429628125,-0.9338809619255866,3.714984052415966,0.3100940602976386,2.07092208200304,1.4913982659427245
-7.174412269938839,-7.7336350979042,-2.356433661709808,-7.752100661404267,-4.531705788310534,-4.326133073487353,-2.482890132967391,-3.060394504999023,-7.362578740795405,-0.7765091115579281,0.2949313026832616,1.215534474608732,1.4030147465846805,1.293064321509265
-6.1492631244548415,-5.388989786120748,-4.645005364057132,-11.090058939551485,-3.543465439047562,-2.4853767542823504,-2.458540432515625,-1.9975930021135744,-5.439221108780517,-2.2563331682107712,-1.6555166848224072,0.4177642854861035,0.9537050707358976,-2.007121864414106
-3.711292357195832,1.5783032398198396,-7.179726369202141,-12.17003656728378,-2.950409149806569,0.947000004801546,-1.6391723118420285,-1.7840228429231448,-3.692836246809368,-4.988913628419365,-1.8919776491928832,0.2820635426757596,1.1440965484365693,-4.890596417168372
1.0055074779565956,9.29907259473183,-7.78332563969804,-10.418345199997912,-3.26202957717497,4.734289423820302,0.0146676971748322,-1.997436936198243,-1.039144612210107,-7.263073485784117,-1.2559869183230576,0.117884165778597,2.25040670639777,-8.37354914411537
3.801175062384649,11.290581639275354,-5.7121030013691145,-7.120309587793846,-4.467907438428348,6.255139230898321,0.6134443581992406,-1.6588525323727314,0.2292571653364574,-7.159133359169147,-0.7686280502781511,0.2860713089896695,2.9658495091073025,-7.912083002396914
4.504317837710296,7.069714798352502,-2.2467661876161507,-4.299434394060405,-5.859279993831028,4.02012756249614,0.2331487874103293,-1.1039606058174056,-0.4717505068354893,-4.084517922193083,-0.6951535150755737,1.073098580486713,3.3888247713630064,-2.6534528660058605
5.116627423645427,1.9182986809609843,0.3650401177891726,-3.157645091985504,-6.59797061499258,0.7994633376255651,0.638110272012612,1.9131260521016664,1.2111639639558331,0.6285664776979036,-0.4802365971744713,2.422290494536311,5.331326882113372,2.7892905861156483
4.607148518436635,-1.7204473755036105,0.6465953520435921,-3.492270991880172,-6.456480969617781,-3.0241168654140944,1.5246294419306492,7.72638287749731,4.799216639546436,4.717952625012645,0.50340656769216,4.560735449432819,8.681832654389314,9.656555969366426
4.2953453519892495,-1.860431440408184,-1.085993162859635,-4.403182386885533,-5.991134624667193,-5.082740488155041,1.8841767856102845,9.16404738625664,6.490917354667445,6.775996936151955,2.236341301932274,5.4670232041907685,10.66692212859452,13.051121451510866
4.283106237915284,0.7986099970512344,-3.123693491849929,-5.363147383307677,-5.9983573032250135,-3.2887167704376785,1.9385384556543768,6.293454932857843,6.817171716529715,7.228753380168023,4.071050843296327,5.059869997567686,11.450735161292398,11.920534191805864
4.562283345449669,0.5661056538556047,-3.740993719551128,-6.53911458909085,-6.774072981780829,-0.5387094050816288,2.047647455898661,3.293224928620308,6.219320200825711,7.646778924013954,5.387531733145458,5.541897523251915,12.500143217098408,12.494067177072152
