AF3,F7,F3,FC5,T7,P7,O1,O2,P8,T8,FC6,F4,F8,AF4
0.3036585714489468,-4.4839591752274615,2.4758802069851464,0.4172955634149762,-2.494306124411456,-3.0572422448432164,-6.032157483278438,-5.127323290183461,-2.2664113903847354,-2.2146796006736147,-0.8343207213229362,-0.1782590287838505,-9.001779102752083,-6.356849405433146
-2.009914725807785,-5.193349265471674,0.9575427263496614,1.3852684152733292,1.086367112545195,-1.1616630839113535,-5.298897467032141,-2.502076490438613,-3.804277517269114,-4.122255465139211,3.8374290292103272,2.003288895199935,-7.0543425386660505,-3.8609454615650423
-4.084273005686413,-4.958147158985689,0.22246032944998,0.6760036528652669,6.06613052932013,0.6851474887879223,-2.1934270173703045,0.7011071371594596,-6.569973800776356,-4.771548486016178,10.811565482056016,6.815953602591989,0.1580964712883672,1.9944389912296907
-5.797978664657196,-4.2279301715032105,0.6976837372646854,-1.70156342669489,8.230933406133376,1.533698525429544,2.669889338539215,2.1241843115230536,-7.430429765462191,-3.94890560922861,13.425827824160098,10.01054765008766,3.4478170934375925,3.352618072380229
-6.838282267171037,-3.890989294099229,1.7157662397940072,-2.3101537225106643,5.025687616357798,0.7791786945973729,7.622998071902412,2.268524547156745,-7.354719154206123,-2.116324795890125,7.044527581429746,5.494092710411611,-0.0551359098102224,-0.3082465119539407
-7.295302346735751,-4.821769654586791,1.852255566969748,-1.7742355242949457,-0.2794623138276237,0.9016276052786086,10.679686737981024,2.603634303001208,-4.627107563432275,-0.2749624207085821,-0.2043050200246602,1.3983770830029836,0.5225615616644619,-5.225855572671291
-7.959471615912708,-7.242194258691219,-0.0825017780926065,2.0073628650575746,-5.978972963582804,1.4159274049191652,10.519447972995067,1.5037776895383923,-0.2748291094158157,0.4377843550901605,-9.862000210010915,-6.045237027688216,-2.629545264871341,-13.427156319474587
-9.699446513637248,-10.389993376936657,-4.031231312171276,6.404216703364749,-7.888655456871706,1.2345458382341843,7.246387331366167,1.7220037890877995,1.9242064920792836,-0.6207544246827297,-14.561871036159316,-11.413249140872692,-4.524142830662291,-15.931332356626148
-12.409947137000024,-12.864405748463705,-8.419044810050101,5.635473672244013,-4.549366708370345,1.0567993112096103,2.4333890274741625,3.1056728312580604,3.0279551632874533,-3.0489343147011816,-8.896011518430761,-7.809517005952493,-0.5259734583058033,-11.937803632973417
-14.668056767760357,-13.4841605452402,-10.96840114959165,0.5671244312409794,-1.716561827449219,-0.9204724468449088,-1.7131072165612418,2.837040519225095,2.4136137221616534,-5.374905682757086,-5.663622385886571,-5.948101831059771,-0.0587633001308536,-7.113929766399884
-14.650115115240002,-12.028491532385296,-10.172903755647948,-8.367371747205432,-0.1081193491177775,-3.743810724405201,-3.636589637291826,3.8706288755319833,1.99670218199296,-5.749560750414124,-1.9714747659596508,-2.2622534016191524,2.661184571619509,0.8415303831626321
-11.611698304507774,-9.28868736996953,-6.408661265397514,-14.29753687063176,0.2019723375951825,-4.105307468573371,-3.3188361462868308,4.71925207808275,3.63781329875025,-3.03975652584648,1.4352271167273831,2.1421527311508863,6.363975711390889,4.674550978768691
-6.6178040384627455,-6.410374418877691,-1.7766977290421837,-10.38760337703302,-1.0114862023429438,-2.685028516238118,-2.1223569998162564,4.037098803667619,5.318307285583725,2.376937986021262,-0.4353129414512491,0.9797319949541478,7.119120434001053,3.396736129060956
-1.859095782367799,-4.0841235219739325,1.3400900802271218,-0.6420066516565832,0.3135020603391098,-1.377205148988823,-1.6766187878715135,4.796043653421236,7.734745932894473,8.710184702957772,2.5543376704492853,2.7048286682821927,10.59123756888982,3.287190681440148
0.8499310824813957,-2.242393116217101,1.9652499661213128,12.411678504284309,3.9203523395795896,-0.4669841283565233,-2.6248091530795388,4.935942233523975,8.847734411723797,13.748600493700774,7.378764992406015,5.01284993376319,13.730547375728282,2.497912630690738
1.14416262950621,-0.4570705855468515,1.1007216738759702,18.762262923583407,5.473249779757516,-0.6232834553038678,-4.163619663073653,3.777461708624408,7.33454526933886,16.074104955541817,7.314528861163571,3.866464421872457,14.686097804453768,2.195282297001618
0.0030984576509338,1.3980925793596592,0.6598116972347281,11.49774370663038,3.985192018093459,-0.9937753554919094,-4.706267857374183,3.610202010403036,5.245078329987974,15.629358204831632,5.444398243277872,3.197552172254805,14.86099439486406,3.162681418031074
-1.2273872865423772,2.8854663696502665,1.646088528051789,-0.2701150586084191,0.8419783753403466,1.2136458877549388,-3.153192095496276,2.6880856326648,3.3858434981073917,13.293052036526513,1.525419283439444,1.5680284131581026,13.366867866835095,3.024970355448444
-1.7752785407027272,3.406990152614262,3.2010962451280305,-13.271027624841915,-3.6441805240531626,5.331716738208674,0.1943075188262599,0.7850328352053928,1.9832267529233976,9.971946466228047,-3.225777127517418,-0.9277717530446165,10.843131131541956,2.226896916918233
-1.6897242149541478,2.864871127824749,3.4268649662480253,-18.272420733273627,-5.2369443157599305,8.119046664353549,3.7699153335176936,0.6975753922509451,1.7606710328274842,6.120129798241191,-3.510114438845452,-1.3707117563989408,9.055930548552883,1.966490657666496
-1.4300176335228088,1.896885491308267,1.2647607987391936,-9.479501461627054,-2.441667998233123,8.603871434486319,5.838128925560891,0.7210980120438675,2.4804511646875973,2.0978586274983257,-0.2482648817775173,-0.7320180540136295,9.18607610328237,1.989970642751096
-1.2882147190831588,1.422658882538387,-2.3138831452916477,1.0494881745664604,0.0820057960111705,6.58099543476242,5.737640155768863,0.1505925088974331,1.5463180780552586,-1.179389002180936,0.629985274665214,-1.129434108514204,8.922397436608245,1.7473272159388378
-1.1033015103164612,1.9349633678389957,-4.946615861884199,10.769335590207795,2.4667895472805044,3.5170304095985063,4.32619451119524,1.3218419241921715,0.3695941419778419,-2.2713697682687557,-0.1085363921083158,-1.5937300424120275,8.14489551035101,1.3939952281010366
-0.4218971076575584,3.1983262370419725,-4.779887867406635,14.071945563036726,3.083034899882326,2.584098352317067,3.264938791204604,1.6017660666339573,0.3291292455000278,-0.2311466447121556,-1.3350159195189462,-1.0703802833728815,7.77581160726092,1.3156269963549625
1.0455620928821252,4.546815976413704,-1.8991493546398,6.889616491161526,0.7084243313050022,3.9052867779574103,3.6748900291686986,1.2756927805332627,-0.1746561170111746,4.219967553402946,-3.081943150503799,-0.3231353779088632,4.668925497227538,1.4744867567268003
3.014178662181627,5.360310067814941,1.9360302279593216,0.5963078978702288,-0.2461758254598353,6.623003366186712,5.219908564101721,2.5338853825470435,-0.1277154511274894,8.614001388701544,-1.9206693837976765,0.3640637577508566,0.8816084454545925,1.63699520597567
4.631660633362925,5.25400451600443,4.844296285797532,-4.220015696693158,-0.6066121747811718,8.707107984431783,6.3699528548644,2.758987719879773,-0.1671816831079627,10.143186969212527,0.5223009412192458,1.1462968326871563,-1.7072745000682767,1.8730040203537817
5.0330611008684105,4.023918924962259,6.139858100327796,-6.321969545622072,-0.6987212832119403,8.312208463070407,5.658793718239894,2.6611506452043496,-1.305420688789177,7.5591524036544815,1.6088035754565049,0.6594292237663212,-5.307679603866586,1.9103745640173293
4.098343895141344,1.7453737952439965,6.338709169131783,-2.427501519316996,0.548216223517606,6.664491493861481,2.926053323451028,2.839331728129924,-2.2820266408010057,2.0179726832597247,1.6000879803101884,-0.6512894106390805,-6.173103139713404,1.6936240797070592
2.7339761683910533,-0.8978303779916333,6.17791307077233,0.2702786644068999,0.2784796049342981,4.134986242183496,-0.4674568668707504,1.7897459695597275,-2.262962601325562,-3.818895595361103,0.5625549902934583,0.102827167481129,-5.00533761090756,1.7655102458285308
2.25111881097419,-2.564954235926739,5.8284732000284745,2.4473630665004467,-0.1220520694853399,2.3110732432239307,-2.605798647661904,0.919571003658404,-2.134674861228083,-7.651436143986068,0.2613739221464286,0.9954993590300922,-5.665783952926337,2.0770704945369687
3.2049125376202143,-1.9961362180041284,5.005334661392141,3.9072135918114,-0.0912571244788107,2.3309874862555264,-2.353400616143271,0.7279928138518148,-2.507894066435171,-8.871603264254333,0.1979951119288118,0.8826662292684242,-5.299056356442905,1.732227438791493
4.703407076814672,0.7893172779026361,3.5727355265461958,0.9354459171067884,-1.0209957077621747,2.369252614428892,-0.0058500250461887,0.7368362686758617,-2.434966669047092,-8.459707872515201,-0.552831694083921,0.6543274157166619,-5.6806059422029485,0.7606406386879702
4.954003974242454,3.966916990206101,1.7918739529559249,-3.089270804596724,-1.15987830368768,2.142186899773717,3.1271146244473678,1.2396795010305353,-3.068980899815671,-7.818107020284964,-0.9464139365342604,-1.2535908017548203,-8.219404586481105,-0.3219900451753954
2.7613638406400565,4.918207546576578,-0.0308675829015114,-8.46703555494909,-1.9589711495117976,1.1055098116415372,5.679769664467009,1.8446756312986765,-3.298621555367516,-7.669784929253675,-3.047442599828665,-2.6974201699581286,-8.503710672562708,-1.6994799980485311
-1.2526474992443584,2.297187529735586,-1.9096224840425324,-11.143902169308566,-2.6620041221061173,-0.6541193458417837,6.891526720773601,1.8335544769078411,-2.200198211461752,-7.841253944815429,-4.262516233794611,-1.7942599562330142,-9.126351239069455,-2.4808269399955583
-4.828718008603565,-2.534400563053894,-3.9614294448758094,-6.275697891146621,-1.259124781666733,-1.7061041782833897,6.616790884017114,1.3903083915158498,-2.4315455410012223,-7.840906510932506,-2.121313024337156,0.0908492176755917,-11.828826151055072,-2.533015087726646
-5.625058004273188,-6.152903838791291,-5.816827376673693,0.4124399005664102,-0.6056445244328301,-2.380634945003677,5.012091595204167,0.7677726487996642,-2.721773503542462,-7.519848680228043,-1.2814904123280066,1.5484688010784071,-13.056636126196326,-2.60129550554017
-2.9350617661461134,-5.563918883509002,-6.476784441590556,9.133261685565436,1.1109101963511612,-2.645835381298505,2.4007255493143864,-0.157860433402768,-3.2220980729587185,-7.209819582850109,1.0346550883384873,2.0481372281814854,-15.356930360722131,-2.444834312817187
1.8189304469513277,-0.5946145278424035,-5.031749246183354,13.950601851685112,3.40932477270037,-2.596341931953358,-0.6068874323286835,-0.7144980892489808,-4.636073561535738,-7.314761440212128,4.268901654931718,1.355627516534935,-16.112819875011574,-1.5138489552014949
6.213651115201629,5.88153054112552,-1.6329520649252487,9.104876895833314,3.510082027096374,-2.8884305888584656,-3.103931510011947,-1.1903692695391312,-4.419432828617584,-7.802507776638916,4.581945796534776,-0.0747148854452089,-11.25781616463426,0.1825063591097948
8.659431724374485,10.218422094949098,2.3515025812316983,3.858385516288138,3.985683790738445,-3.233814160229049,-4.272463211730919,-1.9883939334406429,-3.680468842085421,-8.071502326060848,6.188216539529919,-0.6227338177964706,-5.424067488449238,1.6767809064878882
9.472688237605402,10.915674819710102,5.335074914111443,-2.37080279519732,2.8824397926717324,-3.4933146268823947,-3.9444205819317952,-2.486787972156638,-3.10607229737686,-7.33867192731879,6.858538128254588,-1.2227695705344648,2.182674671753683,3.0295944294406607
10.343399263808788,9.653365417433832,6.784862826195148,-6.811140819215808,-0.7167191901979691,-3.922065486970869,-2.796755180116248,-3.1540643325744417,-2.2308475336191447,-5.301526519778087,3.5218231135564064,-1.866886039571953,4.4361914799517725,2.9535224531595183
12.638178143555567,9.487866920839116,7.497259875552351,-4.571591626944512,-3.486505693639925,-4.246666738821008,-1.9072550057426323,-3.7351458648827727,-2.662693091769204,-2.604140835128554,-0.7845243688288068,-1.6303807245428366,-2.932538444927524,1.0786031016728943
15.917726294760149,11.793887015702026,8.543014818242476,-2.060562568883681,-3.695929438358773,-4.1941403425042205,-1.997754071123956,-3.785015355338732,-3.361190308124566,-0.6885161223200678,-3.745909986778052,-0.9187578731322834,-11.746304355537964,0.0840144481082507
17.919352565077737,14.76212035918324,9.902810286304074,0.3059657257412256,-1.550883684305442,-3.9357103008249816,-2.993081975726408,-4.119411789874986,-3.5746688187454176,-0.9571873790631305,-6.148036630928742,1.086876628477691,-25.64901349571635,-0.324110349085375
16.142028448079927,14.933884137610155,10.196324525316292,1.9341460052357868,2.159656656467493,-3.602179567127233,-4.216113295568444,-4.12800378269954,-3.610031763452753,-3.689994003287676,-5.315000486982041,2.81271254021738,-31.38563371465776,-0.842974295857062
9.903193427171018,10.470363823052107,7.884877804296025,0.3597636183635979,4.318308634297106,-3.642655990776016,-4.960887034928139,-3.498715084647392,-2.1761134047175856,-7.514929290688313,-1.8478794151145248,2.5477281128917104,-24.07871597593749,-0.976821528106486
1.2768167860533837,3.1705442200173413,2.8812304319926576,-1.8188893816161424,0.9218132445915176,-4.055442113589533,-4.9226096224486,-3.0134700503535643,-1.0166680222946207,-10.036291274048551,-2.8626232265785174,1.3290406995296005,-18.810402564046772,-2.00205045711442
-5.92843474195047,-2.6986296699119325,-2.9591763681716614,-2.7922165690207885,-3.9866208933450022,-4.553966431652538,-4.218590990372567,-1.9819053872803571,-0.3823859452516097,-9.41619289234364,-4.229516697838657,-0.6901009100531357,-5.975537962419989,-3.976544247119589
-8.553817730972455,-3.8162547312833546,-7.014880661815015,-1.9198561742878848,-6.455821073276711,-4.844292863929908,-3.1621021184216715,-0.9943507418422898,0.651007522260137,-5.81909636687598,-4.065947228682376,-2.0057395444191557,2.596471499314653,-4.083710844089592
-6.172214981361834,-0.4850941170345635,-7.788343265370058,1.1271227384102076,-4.8858067809142405,-4.383484082349557,-2.0937065254570197,-0.8871430364238132,0.3401157216179411,-1.4937587304111215,-3.41229753879288,-1.2482939546411955,-0.3332958109954238,-2.4021723732708717
-1.3403952176256824,3.720162672820816,-5.914075868058802,2.7829833221881244,1.7332308229685758,-3.242865395537134,-1.3559332886204496,-0.4671825128859536,1.1588066600721445,0.7919439483644148,1.6756948253149977,-0.2654224730407862,3.5674875192947044,-1.0050068747417515
2.2092646054680074,4.909086321404112,-3.471514635550996,1.90728498104387,7.150573042585102,-2.100008051915275,-1.2442290917617276,-0.1106758641647893,2.6394297909277182,-0.1270358459558122,6.168000682373812,0.1444260979987228,3.379366251661639,0.6376144392222531
2.1456662238106308,1.814298687099121,-2.2655364721083444,-0.3164637548727089,7.160047166135054,-1.4566565661385436,-1.8044459042457848,0.1994419257653053,2.8063485264824517,-2.8309588822133973,6.731436392439927,0.2160905173866099,3.131645142469598,1.2534297976038282
-0.9989763678846736,-3.653599729227456,-2.5704000727502594,-2.8375201407620216,2.809912272171299,-1.1853628140829602,-2.612851578841638,1.465540806920978,4.51386324092908,-4.346822189023973,5.426077718447447,-0.2676275811720134,12.045016239783696,0.4280591319745104
-4.52960379070247,-8.346119661087346,-3.315800116042192,-1.9598435859674488,-3.4771203491825964,-1.5832963717037316,-2.834096678097366,2.7143740907354648,5.360142858936826,-2.4264709761026118,2.963007740296683,-0.4016836313231935,16.29350627602203,1.0521024901478464
-5.836682503031373,-10.36422626922164,-3.3455194723342405,1.0435042902934368,-6.680351886484484,-1.655766795269741,-1.6808550737259265,3.860553112944365,6.192786052320421,2.744802024783816,3.1785765161167987,0.7142871516877498,21.716744452474224,2.8539622186533573
-4.379988710753868,-10.0351715079858,-2.463979046081122,3.243970098574819,-4.615198526388227,-0.6997767805648396,0.9773718731984689,4.558929231746352,8.47171835594851,8.740370295652179,4.462233106231517,1.713946339459166,26.341070602756595,3.5233593145428315
-1.8632827872090243,-8.952218905486585,-1.337285537443357,3.172746554122808,-0.237200935527041,-0.0219979386749894,4.322356516685103,3.7231573446578814,7.6907936400285,12.723029354935044,2.579682885422093,1.476939883518943,21.419606158006204,3.460024585239573
-0.5995642452075076,-8.328350294031374,-0.5472220203349636,-0.1196320671512468,3.111472836483452,1.0726771791197445,6.912526549292752,2.383548957553743,7.119581648160828,13.36165124883419,0.2088444831977128,0.8126617627999665,16.263345103453066,2.521325728884269
-1.581169916759717,-8.194491726024491,0.0489366701654914,-3.305430520570498,4.01929896554436,1.8006180992536251,7.483736091023168,0.6357859916437202,6.235893528668294,11.37415074440658,-5.605604499226692,-0.7322344360554294,8.648081345659934,0.2594903385039035
-3.919548427937025,-7.887222644666969,0.9102236208343562,-3.99300117449385,2.165194570481323,1.3384369165507175,5.711372026172569,-0.8186215675391568,3.2628915425353107,8.526718897296982,-10.133375805081332,-1.9156719434583096,3.29829304610439,-0.4734033126297728
-5.973636486635559,-7.038913269287651,1.861701172272486,-1.8254910898581305,-0.2995066918650223,1.643563612754242,2.4086021998688265,-1.0313714132483454,3.197303144511147,6.183339713166475,-7.1934648458757176,-1.135001664861665,5.989046044282449,0.3391797741965983
-6.910309218277867,-6.014394997038979,1.8430870614920027,2.4391269467031376,-0.9109201499552408,2.008408747880442,-0.9858936746855868,-1.347085511483976,2.253030544327644,4.653661577045394,-4.851039590632511,-0.2376801168291664,7.714616490905978,0.4556230762277146
-7.147098644263005,-5.479865533295739,-0.0782714868639034,5.236513191657052,-1.4137963777720537,2.334507620312764,-3.2810430250269635,-1.6414514687278254,-0.4038755046967971,3.638620014396321,-0.7506485538911393,0.1650776728764942,11.903615121131512,0.4347060068240234
-7.382040593571723,-5.674129531775838,-3.3359842905834323,4.779910655542333,-1.727624718366347,3.1033150532017,-4.164571043334324,-1.7817387390032513,-1.0390272513529546,3.019770177676937,3.2503684275909484,-0.1725690908916362,13.723914831160778,0.2090825998103632
-7.422160663172251,-6.146182192009244,-5.72599971655101,2.086439676420594,-1.0803434341737082,3.010902312142147,-4.180297470200166,-2.2387995519384547,-2.4240277713949347,3.07012541414139,2.1822333368938955,-1.19989130151008,10.04746668275,-0.5380294309931367
-6.226220193805732,-6.167537224144903,-5.074924926933202,-1.2032570023294331,-0.7656557908804715,2.586305050758307,-4.131401411861413,-2.4129262271008995,-3.035927038803646,3.941375879727438,2.5456617729388467,-0.9617701387034252,9.423697529638332,0.091220947069627
-3.243153349726798,-5.371678040841529,-1.4210764485222565,-2.9807812137346024,1.4483832121750737,2.4784868305224803,-4.401970295084179,-2.292846079367083,-0.9701323786067636,5.13281610964695,3.330494790089169,1.3851143166164357,6.25986611816686,2.118308484408532
0.3633721842121336,-4.035800560447402,2.421363465695197,-2.673720786312164,3.6573274695459577,2.375780379707312,-4.703386829506303,-2.5788696264088617,0.9973250226955512,5.678244565774795,2.783763709404549,3.745944290627384,3.2747059665310494,2.703121861050316
2.078374227973746,-2.826120427831396,2.809222839668228,-1.7468795879900454,2.536917742559171,2.150975163352361,-4.383937018969613,-3.3591236317346,2.214085280017926,4.976136399514342,2.389141725958764,3.379317162326015,3.671778151594537,2.083793987945274
-0.0479281285542261,-2.2969137962347794,-1.6870438955785882,-1.686869853083712,0.0219031212739671,1.9037395974438032,-3.0064299175844,-4.198476944776157,2.5565140849785277,3.415813188497044,0.3641948715651344,-0.2955378051775955,0.4107328551245135,0.297671230086146
-5.562171415985089,-2.5404592285507515,-8.77660148177975,-3.018270326843669,-4.702709962445336,1.3566291271061754,-0.7381016045860038,-5.292186221010354,1.594618329970551,2.081560471704206,-3.071094996206555,-6.244016859211228,-1.662031543388801,-3.3119193072691955
-11.564190497657997,-3.157742998054439,-13.953554680638907,-3.3290596039824965,-7.699409280520628,0.9291898828161846,1.7132359791987524,-5.160381717504609,0.1938461243323503,1.7601156670026876,-4.5461281260012,-9.255424346462377,-0.8736087136112256,-4.28693317373349
-14.620190021285625,-3.486004084872324,-13.894009174224946,-1.1239104225404586,-4.940895103713493,1.3276012922019802,3.534571968602072,-3.089002025464533,0.6694953227676284,2.2432208428023928,-3.06920669827571,-5.901475817340628,-1.3841704934150632,-2.521580851189884
-13.08197952844893,-2.9535612969989407,-8.927348283433544,1.7043935926296157,-0.5882289025389267,1.1477049506886146,4.293865792649909,-0.6030803359451672,2.907315514150877,2.652144525559394,-0.6108019187345382,0.1824068941310992,0.3006968712005542,-0.5793724460851372
-7.969143898939931,-1.4395975705330013,-2.5439489671528275,5.301369343525516,5.0587477812089245,0.2398985513785918,4.1532572888503045,3.021585536626267,4.8008433470874445,2.450393862085223,2.4033308837505167,6.218549296093097,3.923570745482282,2.557485446050374
-1.8896839898415496,0.5429131466666934,1.523827012084189,5.483472415941186,8.22016882439663,-0.6714903144216874,3.687834494988605,5.469851400820319,5.1514838361911846,2.075023513006263,3.8640539181412654,8.055061760111021,4.44752718864204,3.659747529085936
2.886969624722196,2.050476619981894,2.0673225493354144,1.0711265368449023,5.598158303295514,-1.3974771061761344,3.454998759621809,5.462684422766922,2.4304429622565973,2.5081765683189747,2.640522600749775,4.640820430592603,4.924557253419159,2.260702115730714
5.592022175309993,2.2974660106748246,0.7433846630416387,-0.8925437240747767,2.8902900594403764,-0.5129904635432339,3.6301030849935993,5.922011958918247,-1.1008989179539612,4.223013149442294,1.5535797277683596,2.537927437237278,6.763980353988355,2.1499536116516467
6.66561341012574,1.251344928038873,0.017665505948281,-2.02325381952736,0.4785163402676958,1.7587047313506523,3.9708654446600686,5.398037370964641,-3.119979801404475,6.585414151407552,1.1394809046138343,3.8339061425154224,6.1756915377099295,2.5916455565270757
6.675485726708769,-0.2923749800102424,0.8349633261647531,-0.7114980961686953,-1.0692858792420783,3.3430589870813368,4.107577720671289,4.061482696448388,-3.229555446285354,8.297381799539853,0.6671062400354223,5.780945373101776,5.764732132143252,2.565676176347015
5.648057467581557,-1.3127285121221923,2.138019990402962,3.673322983602108,0.28113313568872,2.9181492397243067,3.880819718145686,3.216549281266691,-1.5830316388982175,8.394925202591605,0.1812738572279832,5.703525920132405,4.844184129499871,2.5897691560720566
3.3783901815956003,-1.364289199975821,2.394568935565624,1.818390330089736,0.3188670969485628,0.6961065493195798,3.4086634607482487,0.7596745508352494,-0.9058992419254543,6.816350664109523,-0.0082587968345495,1.5707145195466587,1.1040785852641726,1.0106062679815084
0.2087867107519705,-0.8390838476651945,1.367153887495702,-1.6606322952932164,-1.1011666871503072,-2.023860579609891,2.834142068276346,-2.685477199575613,-1.7797319973339096,4.111549790267162,-0.5173550870864757,-6.8091827854031415,-2.3665992919249,-2.366944289705665
-2.7013047242271373,-0.4292589269690108,0.3110001819927595,-4.030364595738985,-1.942359917968537,-3.214366455471114,2.040165529419326,-4.481280876030252,-2.8551729271836206,0.7915844098604783,-1.0042396018652224,-12.581181158910598,-4.84002283353023,-3.792110598960708
-4.038022846101434,-0.3264168700728249,0.5209674515819054,-6.354174965790403,-3.2674543163597685,-1.7120729294671169,0.6802038318001671,-5.570625627736025,-3.0889599764028053,-2.905978394719874,-1.2585194531742838,-11.170114821392913,-6.451904316459848,-3.430439916508669
-3.3605688215448337,0.0093115834392636,1.837312567767704,-1.9230415708596056,-4.751094993070161,0.9562248002282592,-1.4266276958577635,-6.618401183544783,-2.696558864833663,-6.664480100127015,-3.37684601220682,-7.398326107326552,-7.390746577521171,-2.8028036799309017
-1.477490779723777,1.2490558478900935,2.692235227923147,2.0261704117762807,-6.455111219640199,2.727162122189095,-3.876049155720697,-6.358899255475581,-2.364854780350348,-9.714394633094848,-6.5048351524160495,-2.905411379119063,-8.34091491981255,-1.1161659788886824
0.2742385055836887,3.3884640735263414,1.6700906836099678,2.4418022524662604,-6.912834166960491,2.4274217663892936,-5.668769364281606,-5.530292348950973,-2.6083139029535283,-11.035746820397607,-7.16037578399268,0.3801576244773374,-7.990084208338446,-0.4517974744168022
1.2237631857283835,5.617110680435629,-0.9566728343690092,2.329021245863065,-4.500624098769911,0.6079653854630293,-5.735123254720556,-2.9920664709346214,-3.326462793895478,-10.066489108988282,-4.211036846145472,0.2707578600385906,-6.682381685663224,-1.00620962089024
1.886413603352719,7.051866866679315,-3.211976102725128,-1.7515456584063778,0.644725106663682,-1.602406984381259,-3.6751494731061354,1.6006153698801082,-3.9911880140297886,-7.243928578208623,0.7867968501878326,0.7609807285367722,-4.663677029118078,-0.7678021673658731
3.2574466734541163,7.575691812608582,-2.9713413438135,-2.1266378423978605,9.072175841335277,-2.47053020960072,-0.1884552052965187,6.951853084512941,-3.4820978193076453,-3.82603111539866,7.242011096435653,5.100872543999695,-0.453440573594537,-0.189401781746645
5.528356488995199,7.847643546125726,0.2590847525444388,0.7836969171783139,13.53107860202496,-1.6176315667002998,3.1468006500770995,9.741434489123671,-2.0149814641795465,-1.1295176877615916,10.070848471166183,8.689376990892287,0.9838882969195778,0.0280369430009864
7.517802353632335,8.405613377783446,4.807689235044935,1.6170641465812006,10.109013082040178,-1.7334033466112808,4.662128501647528,7.755941713776479,-2.6837208764803497,0.1527181195179121,6.755860180618006,8.773442227730495,-0.5926299970222708,0.1097896656262039
7.505310922284655,8.805101247504753,7.922845195969151,4.712112292035601,4.665776822453228,-2.1107672263753874,3.499111156934842,4.557467706312411,-2.995768473203541,0.0463047155220213,3.323584464737132,8.033865658479913,-0.9433259277733148,-0.5300484857274824
4.818077542259884,7.822481928825972,7.605667547706711,3.9438227726835855,-3.677262622812365,-3.4049201277671672,0.0753712543238682,-0.3893799046875509,-3.769994468899937,-1.0913482059828468,-0.2251769438313544,3.234732225505987,-4.198444763600941,-2.0409163006897133
0.7138617865257846,4.705614832779313,3.88313299085346,0.4961123188250076,-8.658932324183144,-5.591154919187762,-4.1772559949519295,-3.933805998567516,-6.3610092151273,-2.9154827306625446,-2.4174907964735453,-2.2756113489264624,-7.200533838242994,-3.027732153558423
-2.3558467931135088,0.2902811162834275,-1.2718993589271133,0.6441388698395356,-4.647338994900704,-5.077360887522184,-7.635179407622429,-2.999516492634742,-5.445490078837972,-5.066214822686803,-1.095993613690182,-3.0004287683020743,-7.667738129235251,-3.586249649789776
-2.5880579813033258,-3.254208614095468,-5.223337112139648,-2.0596317669052686,-1.1411364404457736,-3.9724102417089977,-9.327980058037063,-3.004346676825988,-3.97566187848015,-6.969611390855091,-1.274642327585069,-3.8485179806546954,-11.407421426859717,-3.8495923852595886
-0.2349733726773495,-4.058337404901776,-6.278516929417929,-3.480415931850719,2.074089643080094,-2.7084781942392486,-9.263387276329192,-2.7261671587590266,-2.70608958660372,-7.920912616421216,-2.921596836792966,-4.129630053974444,-14.874538552346491,-3.5012997516312487
2.640218924498261,-2.1864515683839514,-4.590343365342445,-2.0207762996541145,3.986479054336064,-0.7524437652061664,-8.095215635326397,-1.8005748960647572,-0.2172127728577927,-7.563742969534198,-3.10048755650447,-2.1578714801136503,-14.757665514309789,-3.283075433934245
3.8740972115520567,0.2805527934812311,-1.8046725199198008,-2.643473614715395,-0.1427164377438748,-0.5213059270924747,-6.501249306604967,-3.0298388780246968,-0.8369652958515035,-6.320619148715419,-2.337350883705453,-1.89720557711446,-14.845896842516469,-3.1325533605152014
2.9454563742254134,0.953435071687318,0.2555651330695214,-0.9557418598233592,-3.923039619062532,-0.6716246007897522,-4.804165937813217,-3.31550716321501,-3.7245014147352737,-5.206406634576963,-1.1051385491423562,-3.3451663461918657,-13.285273697698004,-3.13513280436002
1.294782126492501,-0.7697934561492943,0.8991933417923361,0.1114949796675607,-6.693516787102478,0.0656434634834779,-3.0542406745768176,-2.60755157334792,-6.348511992527527,-5.015391930772143,1.0611400960571846,-3.94214913531585,-8.59618657093334,-3.457699904688548
0.9836362616127334,-3.0764324003394616,0.901312825430332,-0.8420659622776183,-7.54675485240264,0.6781633102614721,-1.314697193998752,-2.197681848980868,-7.6510110950493955,-5.582080334169071,1.5466325083272408,-4.060664471679004,-8.331024315374519,-3.0904645509159296
2.8660388120431337,-3.220084696458853,1.6564501170313992,-0.5738549295566514,-3.740557558418097,1.5819721521989312,0.264428816011101,0.0038086310378362,-6.2468451847489845,-5.8934541507330245,0.0510720815545859,-3.146752931840588,-9.636673280287866,-2.045773972234553
5.838569515412374,0.0868503376586229,3.8974924579201673,-0.5943753477714698,1.0246311446757568,2.70575921678972,1.6743195251460945,3.031378905701772,-2.539051402753048,-5.075079072541891,0.2915278948192546,1.528194360808617,-8.630000828155895,-0.6122009374833629
7.7858324655759485,5.398271218088137,7.064440214029435,1.6678550462291348,6.598835109851015,2.8648747863973285,3.233682093742257,5.939053323541317,0.8376107786395244,-3.368149099518943,1.251772217070715,6.37268122560019,-11.695017537921515,1.449316390928483
7.369724462524779,9.488542181352017,9.811629718785838,3.992172867531032,8.968823109717647,2.388057965197904,5.351316762978724,7.6282774633246735,1.8650760462778997,-2.102488990275296,2.051417681284138,7.107366421058868,-11.133554024220558,2.2704564890340357
5.10593784993651,9.776864101764192,11.129106430306146,3.2557776724797947,5.84456262236339,1.4736279279077846,7.938218979539878,6.23760564663404,1.030222754033682,-2.5541908998712124,2.496795544250736,5.115348795580669,-6.365664244561327,1.7136745183804392
2.835532126529813,6.249734483471183,11.043046108355986,2.619175958705388,3.138153306770774,1.018696288909571,10.036888893603564,3.717435756410243,-0.4632989658195696,-4.661671022465988,0.1955879279054025,1.8677946175512457,-4.882882038959574,1.1976889303504703
2.1154567385081933,1.3662095821391151,10.306359109227897,-0.3201141885164901,-0.3234539179395101,0.8560939070766262,10.208257015936342,0.2521710699166036,-0.9956204415164008,-6.801414322293343,-3.170289842999378,-0.8158803087548512,0.8800970629089508,0.2765769668020313
2.9440662743023367,-1.892024134810102,9.461711170783389,-2.805569633188015,-2.492451429225647,0.6300726625332924,7.58709725428379,-1.956763692111678,0.3331907673815594,-6.937416456711693,-4.457325437285731,-0.8406219388077238,5.04731021820944,-0.3573027176900415
3.8488805659297487,-2.2067830619517004,8.238581177957197,-0.96361275513128,-0.6348213652832322,1.3443914078285222,2.8166076649755167,-1.0922579929856986,2.872067613004414,-4.238923252266808,-3.162375187754426,0.5230205738902528,3.9401623008792863,-0.4950515975974513
3.1378026290643284,-0.6625458407357261,5.891639963996131,-0.6910140859981735,-1.239387995531272,1.346958933350117,-2.003677047558627,-0.3933900203194936,5.425005470936127,0.1901984129807452,0.3670928855228393,-0.0971698355105209,6.091317219177704,-1.4548244155569534
0.209139897840938,0.3871542914538644,2.1539050782145583,0.1686800809617714,-2.980171950849816,1.645272469511026,-4.504707120710787,0.8704641228142521,7.0425772689357045,4.1108283895675655,3.981925331742429,-2.7702943649069005,5.529976830608453,-3.0793019579687257
-4.047382095901238,-0.7150752620839533,-2.144208415280188,1.565688541703285,-2.989825981884932,3.3232684938736687,-3.5648134464003665,2.68287016345215,7.688918413437383,5.85363237937517,4.552900304747662,-4.123486825496227,4.684257267255802,-2.946326320548571
-7.860963788008172,-3.6863104687174566,-5.443539402243507,-0.4514350098870274,-3.034128319860152,4.272683794860983,0.0029250993341598,4.012814705557661,8.069215856914452,5.561883226261841,2.1092752884331074,-3.22458532112323,7.653481237274693,-1.0773002565685603
-9.597871997084535,-6.630759836858408,-6.53581872767718,-1.4654871312454725,-1.240664978944986,4.606814107881307,4.135840089919057,6.447089416027835,8.909261485111177,4.975042849108698,-0.8965072306651145,-1.2002026142738311,7.676270706965496,2.072826347831497
-8.542043307242412,-7.545746721183171,-5.398155180912649,-3.3466487264005105,1.958617402440792,4.438739812271404,7.02059378572987,9.715840174306582,10.706543920877207,5.933950962642088,-2.8581073604181597,2.2303267375784577,8.436105355658711,7.1322403955235565
-5.1755789089157895,-5.806795889862825,-3.068835128891033,-5.504426787180671,3.0212297820069662,3.238806659542796,8.19448808782807,10.562825897990404,12.04120879903313,8.816175346036054,-2.4422026426293497,3.694004877019268,10.103929748032236,9.86576596548738
-0.9772740587150146,-2.5679862682056056,-0.7660497533457118,-4.184717751984955,1.808188494522686,2.284781954872518,8.413182444420691,8.139205947315697,11.3928319471089,12.164326776821351,-0.3323245395074048,1.928188856100442,9.167117308620634,10.067040727577288
2.19803670830349,0.1271081632375335,0.8742147683602912,-1.364638403064666,0.4214993855991317,3.3917628236363355,8.521549424345357,4.798540378853099,10.44404050881487,13.8019583807332,0.947390207242581,1.0893440743653298,9.798462976778676,9.277085446845414
3.0275783497550965,0.8038379590239124,1.8055485175266988,4.483665466609236,-1.012526983122706,4.631841232623839,8.406297484240993,-0.5687842596499333,8.916714537490172,12.523767420579416,1.0427904461350477,0.2510040361229205,10.251150249332053,6.376757116965169
1.5193698410640626,-0.4846922379165099,2.0561003617722644,9.134763419900152,-1.5153482025062486,4.109314471339165,6.995516821422518,-4.1182580839408125,6.818980948234617,9.00043084987246,0.2145798785913835,-0.7186950465458017,8.952649606257204,4.285762615935024
-0.8870468762848533,-2.344341488135374,1.4590231084294762,8.020061585292783,-0.2292516973868315,2.457251271556935,3.3241867730675008,-3.4788482762448103,5.721336013560042,5.221260709546458,-0.8474182346497973,-0.519381556657846,9.581069334532128,3.089474006377373
-2.211545780192327,-3.1513358474160995,0.0028286165950666,4.555859696207164,0.836177722265796,-1.617948566080445,-2.262697007726147,-3.420852707190718,2.648893169488421,3.012541491552824,-0.7163121637504402,-1.6537034788613445,9.599411410701435,2.6475973197993588
-1.364806874156061,-2.211695408232392,-1.6884850224201724,-2.087711260589619,1.2158921596241643,-6.095128641095653,-7.849849957845187,-2.29074288712085,-2.5456537111368567,2.870434962763337,-0.0993207440012797,-3.503548028728898,8.302544470512082,3.7625669032051663
0.924484136055538,-0.1318483594313164,-2.536968315266509,-7.553435208274082,1.111634792354432,-7.125786351492152,-10.97182994017814,-1.455810933818183,-5.557983539552691,3.9576690126367433,0.331229585452487,-3.4616878594482743,8.65173410776579,3.537995368631184
2.5246267111729828,1.7632949352317993,-1.9400500927322235,-6.101140991099378,0.2502708113334617,-6.046756208598543,-10.224940082663403,-2.7316092028430696,-6.134882644234111,5.052048798330934,0.6442640462893235,-1.9426497456322709,6.849441364336672,2.097949661942034
1.498838941739229,2.4048510107997103,-0.563532605296194,-2.5286492637166877,-0.4576373873239391,-4.2363929259494,-6.283711972147486,-2.8738614476513518,-5.359589700796504,5.487085013913665,-0.2209604572594619,0.4559738097457922,3.505003547816125,-0.5335388804317684
-2.29144328869309,1.596911929735084,-0.0246657260869742,2.050183759735957,-0.6446148744084746,-2.138185023132685,-1.5296946009078507,-3.0776384601150237,-2.6558225606239563,5.320160241520397,-1.1642181696737015,3.8731749159946216,2.0619887543768254,-5.059443739718319
-6.885315383065597,-0.0556544846163689,-1.5322426226532322,5.833005211582953,-0.4988268005906975,-1.4080636456043192,1.5015577734594547,-3.1843145139762754,-0.6513966345577218,4.815232992585464,-0.9773859916139286,4.874401760391248,-0.2027156944344359,-5.833324819171437
-9.558105239868564,-1.666553732179242,-4.688900663927953,3.8796123342255777,-0.2963534802639432,-1.4886414230397986,1.767772643844996,-3.191060880576078,-1.2067504869182608,3.958535616344136,-0.2402186739139056,2.607529095380326,-0.8711162198187383,-2.6624610682097045
-8.79886757683489,-2.565607268317116,-7.649655062112014,-1.1402901505713974,-0.5567213515270347,-1.033281854473161,0.2627838252565535,-3.962356573285201,-1.244828012625033,2.556469659423413,1.2797147958898434,0.593644729513437,1.035743501219344,-0.0375959569173916
-5.3651777228775535,-2.5047527118992914,-8.581000145666973,-5.405682879472566,-1.0971210195024546,-0.057974306833049,-0.9529415997145224,-4.05366672755193,-0.059344384805122,0.7283548396252524,2.8185087496242534,-2.0587640126771825,1.3469947698717908,3.2417657895556875
-1.5760632106111387,-1.6165424884364814,-7.105483821382254,-6.936154255276177,-1.1801278248098437,0.5180211374130471,-0.4892162374869606,-4.29604822844071,0.8068722400162966,-0.8843948419817815,2.6339762099469493,-3.3058004133558816,1.7618136605494628,3.3865157347773533
0.548719251491649,-0.283096234235229,-4.432645845079463,-3.907465615202133,-0.5168982460196995,0.836626342452837,1.2421365778860274,-3.715260946429574,2.2047679218255585,-1.5813326744892071,0.9651044160220732,-1.1693634884159254,2.4869972364634045,-0.5605283013428496
0.7494468225626907,1.0088797308216506,-2.1456730766310663,1.7605937721698317,0.4586006654825419,2.155935872063764,2.423807327660848,-1.8289439134910936,3.80311246911833,-1.3419703503953269,-0.8434938082235522,-0.7180021403641068,1.7799484917673043,-1.645727038713875
0.4116157655425603,1.8311324881428772,-0.8596375872397211,5.313134140282471,1.438038631677632,3.451145516363865,1.4443084363232686,-0.7743557439277999,3.492669952490459,-1.0109454728770242,-2.6255054717804525,-0.5315920069131884,2.255800947654019,-0.7077587444536185
1.07501229393867,1.9762863771706023,0.0160995667355159,4.625710166063197,1.4983213373385265,4.0281301131459095,-1.6082465508880404,0.6155730499423467,2.281008549367558,-1.5537228430625376,-2.6349608181391537,0.6416103829842522,3.1718603467382023,0.3568136891810399
2.9391822638065044,1.5449806856936237,1.3278778955618158,1.4322341113876802,0.5616643915687325,3.836263567079663,-4.824783511903497,2.0230618093900574,1.9854767384540708,-2.9787071964997907,-0.5987920644249771,0.5583283821017148,2.797865856285155,2.782550870502061
4.683603626420172,0.9019127739139208,3.086790652092226,-0.978073903885238,0.1447365631951122,1.8349644515056047,-5.850098189262901,2.4142381568716806,1.8739484591813769,-4.018641796026657,0.559828124867175,1.7930109079078398,2.941082228939273,3.3645883885759824
4.712138324768446,0.5137689012919076,4.3200373372672445,0.350909138502666,0.0443310456338769,-0.5434580422257457,-3.653552225688831,3.77036968896846,3.0230240886440054,-3.079770856853827,1.4165796972856617,3.4604392353727302,2.9362398894070503,1.9061437117997064
2.6626111079363106,0.7280996171331324,3.9629673439722097,3.7390843808941217,0.2317516080888766,-1.2217686637507543,0.6768649832669773,4.608160160093003,4.818120393563525,0.2482071815185591,1.2389197031929,2.678086638577088,2.5869311928340144,1.3721967623048374
-0.180903332776154,1.5697568337762249,1.893937019394592,4.733561405987305,0.614068466628926,-0.5333386203031526,4.655763372211577,3.9341513963983417,3.815845301490685,4.4976884890444175,-0.6359829220930735,0.2854111792121451,3.06917507421516,1.1127766460940427
-1.9241164899090608,2.66320864645126,-0.8643561876612509,2.191837042083211,0.041402171584026,0.9932244289938594,6.012605906387897,3.599999589249006,1.3647133071895068,7.207776251210141,-0.0995221546156579,-1.0542163798220008,3.388247869498761,0.4845051256373843
-1.605565764685451,3.392209030163144,-2.928777232721089,-3.944311115853078,-0.7864490710583608,2.2307637104342644,4.034212750316833,2.264271474029929,-1.8015264942797589,6.745751402963201,1.2739143897333305,-1.9766398146749664,3.5539237753014308,-0.1262185807991354
0.0984397826595291,3.286271955396849,-3.582761776519451,-8.849527531961943,-1.173813548452658,1.8010865805882803,-0.1540315926158832,0.4528486760817904,-5.239960319214589,3.528261024261994,1.5253236176268783,-1.9199509041928455,2.4815821440297587,-1.804506382195451
1.5508481545735862,2.395821751575017,-3.151660010593172,-7.479030608737622,-1.074387271429167,0.3772108324528435,-4.363740855907487,-0.6225695963195957,-6.1581732309605375,-0.4092857729681718,1.3753224775078017,-0.160679589555485,-0.7030867420509037,-4.652192041051235
1.530116299056271,1.3115243212720706,-2.4964919769264817,-2.683954519347127,-0.255759983625604,-1.5732462072420064,-6.589740822084124,-2.5012914140737594,-6.603535183191971,-3.102684661701719,-1.4112976248922195,-0.6540088443091481,-4.412201078170937,-6.7933747014362895
0.1074366519591123,0.712692536472467,-2.196812994971797,3.1678903040155677,0.4194952428971417,-3.132081743307598,-6.026838458271662,-4.798339793600323,-8.281195294244414,-4.135765528603141,-4.882203466488496,-1.9401907537080656,-9.505792651852058,-8.379899222572137
-1.596921890179786,0.7753667129885962,-2.1924664225963326,6.479321569198633,0.5389299948216766,-3.308143912240358,-3.3768628013255864,-5.971331400106108,-9.55105809486451,-4.6769065766903175,-5.218501617438451,-1.981655866410532,-12.568028346438982,-8.203402945654497
-2.380570387100004,0.996461383329855,-2.120733319232865,4.645916004274735,0.4273650848354238,-3.2515811885295305,-0.3298024126752032,-6.003938197071979,-11.188621832212306,-6.158064054367667,-2.288399544339121,-1.016472239108666,-11.621211103004605,-5.704161946097371
-1.7755755748613566,0.6699981993120758,-1.891378086758678,0.7784933936990762,-0.0388979678523544,-3.2034011033406946,1.4776742921668389,-5.705643551036692,-13.50269819449488,-8.847908757713764,1.2865568000278682,1.3071700173693632,-10.695568649854426,-3.943847796338724
-0.2085620815406237,-0.3926416152317493,-1.8663160066722853,-1.818721317473658,0.0443986476409011,-3.7088841296129,1.390161567498474,-4.520582110284696,-14.2724893525391,-11.582752986071974,4.456092762556232,3.912017594175931,-7.977253811819065,-2.586128543120845
1.351930212038404,-1.6235723000679734,-2.482749106451422,-2.434736111169705,0.5231568338310211,-5.256370385169513,-0.0728949211541802,-4.294416286096698,-13.652077134213576,-12.826866811612431,5.051718618552331,4.535486584349166,-6.407339372656353,-2.375174477724551
1.881247547447149,-2.2532460224111333,-3.7534525798515865,-1.5947822518292347,0.4735876913258547,-6.3884585164450005,-1.874979518521492,-6.5297948554698015,-12.632848851185262,-12.052625837433553,2.02065952601275,1.9005062539731452,-8.454887923564955,-4.029535314387175
0.7495326594129068,-2.15930561945628,-5.182602624459783,0.1385817008588588,0.278358044788921,-6.901052375572969,-3.4026772086944064,-8.60961161179492,-10.136326181647387,-10.199368008950591,-0.2407811434099717,-1.886800524219098,-9.327878824308987,-4.837899904912447
-1.8848992368930304,-2.122321071797053,-6.175762273559599,-0.0067586970052458,-0.8584982423380233,-7.090727451468208,-4.852775603287963,-11.151260803996026,-7.81532279419556,-8.842339368370034,-1.707707925001079,-6.15565274127662,-10.965297822251737,-5.124445233623479
-4.939577457046219,-3.110918471460206,-6.506471641099758,-0.7408434070473545,-2.042419907796301,-6.625287250262499,-6.716398980041724,-12.152791081805676,-7.354425079426274,-8.854958251982032,-2.2283412361630037,-7.688927860542535,-11.21914648062558,-5.184068916811227
-6.850245893791126,-5.191792562874186,-6.365786803768398,-0.3392240895204538,-1.7251322782314176,-6.033935427446511,-8.872757651188763,-9.046330640180113,-6.412353630918905,-9.738678688382786,-0.8563843655424375,-4.468444299200088,-7.897276527827548,-4.503906254203326
-6.5317861184506505,-7.135454700616652,-5.978272175664845,-0.7381213494837593,-0.7516606950902353,-6.235504450478958,-10.233425615959362,-5.357272666966162,-5.205760807337836,-10.123178868367727,-0.3828801856693514,-0.0489464843406397,-5.294411809029342,-3.689427713000963
-4.164467730383693,-7.235015959378891,-5.228450645227351,0.521950448873125,1.3029722001366846,-5.805318320752095,-9.408627045690418,-0.403439414184039,-3.117199377218248,-8.89162584960933,-0.4406941638090231,5.213594216938913,-1.0598258838594263,-2.608152002341139
-1.0386007006578746,-4.742276871668429,-3.7347748196761854,1.9093221153879496,3.0599043450285484,-3.941350746121422,-5.8971107177904205,3.7643109904790593,0.9467730689327736,-5.936178817401226,-0.1764827275223543,7.465643816352112,2.3679606092104657,-1.1382261131174851
1.504743242216513,-0.6949519999438974,-1.342777509610312,1.4033177169265352,2.6102138447914065,-2.058127065185098,-0.7423497123049074,4.428662009935024,3.850473145023972,-2.038430910990441,0.2289927612475205,4.703030116938408,2.28036372954256,0.6620657222165179
3.0604557741258764,2.634899478567977,1.4518422959405122,2.168273206072863,1.1965506073905754,0.986444832737921,3.998053606610828,5.650720714552416,6.737069402517408,1.7977677066056588,1.6340250383086867,2.376250351847736,3.690670629358449,2.311051940726719
4.113531719632268,3.29423248980126,3.6420109823798574,1.2972703885266437,-1.0510841870305234,3.9271584709104657,6.608574012980178,6.541677898232106,9.948217420788495,4.892177791402375,3.623101177690397,0.2822406562343426,4.04325642755304,3.7662145635047257
5.078028208236121,0.9995895628175732,4.407283538098183,-0.8340462531049101,-2.869386251081117,4.107226656260613,6.825328437888055,6.651243849643426,10.569128172215889,6.992062804468082,3.809380755589269,-1.0094421643972902,3.104293715098833,4.16552877078548
5.537754755562231,-2.742288898031473,3.806152629931056,-1.010735445358824,-2.3526258983981645,4.219898211608226,5.841875938294059,7.763917499327433,10.862114556340748,8.117997252588381,1.3032359028043816,-0.2824302114597609,4.645779592849115,3.2581123025988736
4.5881766807670985,-5.78484609017719,2.80234445760983,-1.824833236672618,-0.7051283299451911,4.924130656693062,5.265056472794844,7.736030431518123,12.049003589030894,8.43478758012158,-0.7053517832501177,-0.8495239635633032,4.520625326330892,2.9309211794362957
1.9444011820139124,-6.832352616754129,2.4980271021523954,-0.658504337844389,1.3036945143049656,5.694762006023205,5.8810872914029,6.667041374423319,12.19051273468318,8.168005974932797,-2.3442276840788234,-2.341037203736361,3.0499788428216523,2.991139413110008
-1.4013864855509297,-6.126670680464903,3.1974632646205983,2.374707150760519,2.7280939061238394,7.159995157377117,7.157921196758224,6.550484520007418,11.58520156688411,7.451490257458596,-2.7639138381824866,-2.372603973461349,3.875061552072289,3.351267112091331
-3.73241795453216,-4.860402687337892,4.176051942390885,2.553197007419521,2.015561217780961,6.728637701397831,7.779484717048071,6.461750065162584,9.545902267629344,6.18477464637364,-0.9450024702844564,-1.256582398399306,2.603044283866057,4.410523288454461
-3.853928229615704,-3.878936428693393,4.452657618256957,0.6313414110077746,-0.1617613448978081,4.286781561003427,6.73230248843425,6.075189875814769,3.686955665839682,4.153956368725268,-1.6501338865176902,-0.2789763587416315,0.3407407842894371,3.1278219304453767
-1.8337599735043,-2.826406186393772,3.89718145556202,-3.955088266959277,-2.268220679724997,1.354175145435658,4.11555190628588,6.292578998645894,-3.921554806880095,1.4466658148281937,-4.162371516042229,0.6144615406532503,0.3762845812724355,-0.6156065712397981
1.357831486674396,-0.5382282245632766,3.5811798516712265,-8.173974254333261,-3.1504958963753724,-0.3285317679246373,1.097301681955937,5.291495875354109,-7.527732921482847,-1.2449757218355373,-5.276427485471272,0.269694898142401,-1.7922656395649308,-1.8136521078094765
4.746534545350162,3.604271927686384,4.8985148525742375,-7.297566263757076,-2.297001715266541,0.8362683110990283,-0.9400059253609284,3.506775993038648,-6.785156354227737,-2.895880697925975,-3.813841040556097,-0.7383141113130096,-2.645801454865385,-0.8541430616571096
7.801073287279284,8.588818290984612,8.152406999924882,-1.3192602784775065,0.383244748220492,2.7178446040618,-1.4334722439663068,2.2095242414847824,-4.116157933226031,-2.913534267628737,0.270623761226501,0.3676657618326214,-0.8043677944189234,2.793296194710738
10.127703531881975,12.094753412810071,11.905963798926289,7.395920376571098,2.722993384648644,4.0930551982205206,-1.0537347625230922,-0.3490638590619967,-0.3691202583142792,-1.711687233155402,6.007233503797801,2.6070410340735464,-1.8877091562110944,10.36199581282002
11.04183710789824,12.158483209322384,13.793128480446782,11.369632491999146,2.727261668647864,4.342234168672645,-1.1072143160223291,-2.065520265982434,0.9846617413664128,-0.4640521736552045,9.062349323313972,3.6693595243623967,-1.5994009786758596,12.014386939630574
9.75836585185214,8.80766983826792,12.19711386555344,7.454971744007962,1.2257218281725657,3.1462115228886267,-2.3240063688579724,-2.4383597032133726,-0.2706971339896428,-0.1696833754848512,6.173592561560165,2.1942370484831253,-0.7727740974889374,7.572337944327619
6.147304204739676,4.148907899869279,7.419947116112439,0.3130278097360439,-0.7423833934791326,1.7832545562599762,-4.027189802551085,-3.903521801033578,-1.0585919098206371,-0.8590638360866478,1.4065766796725423,-2.126536854576746,-2.758894710994406,2.1945623973104658
1.2267477602152042,0.7000754333604249,1.4126149856546206,-6.735795488059607,-1.468567879122706,1.173686799908685,-4.512789398256501,-4.23110336176432,-0.0167126218903501,-1.6531828586845876,-3.5762759582414025,-7.530869065464965,-2.0248938901012785,-6.394560915621559
-3.2820715452579634,-0.6108235640119588,-3.625276158300743,-7.766207153555929,-0.0487095516019367,1.3405595981702532,-2.496672401741975,-3.35796065502674,1.9016061061026623,-1.5756364482901049,-5.933450200774949,-8.846899517033542,-0.0817120149301972,-8.381683632107075
-6.061815186123418,-0.9734920358664994,-6.570996777289111,-1.1352963797102027,2.060713211840054,1.6151343167976735,1.5461522856000016,-2.829976815245373,3.207588406424497,-0.3401159174893138,-3.2916940176171767,-4.256673055639638,1.7067715854867318,-2.614525386646226
-6.949852649422006,-2.2639715679628125,-7.621928584273306,2.7036577590847792,2.023914631642448,2.1174309954981223,5.422352130211671,-0.6772139502297828,4.30644321181952,1.5470042274037257,-0.1758239488676523,1.2762507998310473,6.357042718657186,0.4349750134167099
-6.617986735633714,-4.993588150004364,-7.475780531625553,2.6379435252316727,-0.2265931612732861,2.18603531877887,6.800639531553969,2.603119703119968,3.1646539818687507,3.319339938133844,1.3191373710507903,6.858235096191783,11.154524795926616,2.996384720803814
-5.560899864179227,-7.576094284210583,-6.372833184925398,1.000280275504919,-2.544819482003255,1.401318744412034,5.073108757162615,3.682472275826688,0.3338864106133845,4.52328427903155,1.2812175623258906,8.561577445396198,13.115710311963523,3.8806639895740913
-3.530745687389228,-7.630129944840469,-3.9319132219882102,-2.599824426269872,-3.5034022307842245,0.7829267619616341,1.8597571407266005,4.161870784476252,-0.6046099035210382,5.1505323646369305,0.0660753935603789,4.354446371021312,13.212044716134196,1.350179510663437
-0.1091199198427972,-4.1472819602730056,0.1164362541573496,-1.4169443059430873,-1.7322333165591357,0.5968342819810042,-0.33887380051803,5.179942632637742,0.0249594239767814,5.383149752872086,-0.0058273425689454,1.7072404669471506,12.423884558358743,4.853927961542763
4.164903885054585,1.4338880513423078,5.090085771633298,2.973407727847761,1.064905600084889,0.9437764440316788,-0.1695835512415442,4.272320878769871,2.3941947795668743,5.3470875940914055,2.4972332893519726,-0.2149053722727048,9.7951751052843,14.14223374149598
7.455469777398179,6.196075902024703,9.33698989879548,4.705597206137531,2.3695184381231367,1.6456141317850506,1.6396252218193157,4.461452548760301,5.936667974490618,5.120927470829514,4.389331756915865,-1.5316616030684482,8.469814925809906,17.399522256921838
7.754160028344316,7.883613008190807,11.209540268529068,3.0804800759707973,1.5706651835116625,1.917888641388404,3.1659124071426703,5.515731617472641,6.802383545994749,4.87228213595705,2.890496267261239,-0.7241906403947757,9.41678526701975,15.839937579110384
4.600282771823785,6.388407043179399,10.23421410414791,0.1452217537838167,-0.1359674900872068,1.1735973904814114,3.0492751865452874,4.423156834090626,4.395498385973932,4.849904787365716,1.003774143216331,-0.9997865146156202,8.762535544778801,9.806262109372597
-0.2861247899748775,3.4545578394005503,7.429871779129741,-1.5188555184367871,-0.0291149073338801,0.0008474409355155,1.499152057379888,4.407613207905292,1.4804118073578318,5.185185237803637,-2.059317605910184,-1.338711778424572,8.511583796076604,-3.302290295302404
-4.25002733213239,1.075464367824523,4.468731180786762,-1.7501458993858134,1.0469432551884688,-0.6010615760848628,-0.1862195615634618,4.282271558007048,0.7053510588035175,5.740056616081716,-4.66171672394024,-1.0532066957000918,7.651513468406658,-8.626984563638441
-5.797309691213556,0.0701143522137215,2.427613232116272,-1.1216270092416796,1.349242599044822,-0.4021512626190839,-0.8821873589343738,2.2640164044589985,4.2264575011598895,6.222258671163857,-3.603691310572992,-0.9089313257190208,2.9286993013795186,-5.96962120435042
-5.604838909339293,-0.0733442937129922,1.218276065823403,-2.430730424059648,0.507376171383535,0.7834104869621757,-0.4336373307148164,1.1537486222371984,10.753673943631902,6.479056185347346,-3.354052149979466,-0.9081808890733511,-1.7143117378546182,-4.832702393656964
-5.50980004619224,-0.2731553325938023,0.0864250572153366,-8.088147635170182,-3.7794150888553695,2.183335200341554,0.5416042203569731,-0.5937131866438676,16.546849194175213,6.640059401205377,-3.6997997643461176,-1.2314879037331428,-6.826526065210505,-2.029557965763779
-6.496110216015595,-0.9166423115197944,-1.445054807611328,-11.08564808627452,-7.067016551603852,2.675796880323735,1.3383163685240476,-2.2621681200065336,17.393595174189667,6.926652273139183,-2.2351842023580297,-0.8720462031022482,-11.294982446124042,-2.7348414533367524
-7.651273226919258,-1.7244146186188445,-3.125265154032185,-6.846597143738197,-4.955779417909996,2.279007412325118,1.588349528649701,-1.2891451860424914,13.207737466401484,7.342402240364123,0.2822828987905676,1.0932526754725944,-10.35432749151143,-8.322296497323208
-7.088063497852502,-2.2723784216535634,-4.323693461164829,-0.3354348815095647,-1.0684702368578542,1.1062192198905527,1.2580328809742696,0.0073646987053161,7.953434821861374,7.636879369151813,2.1219441515621567,2.0383115594234207,-8.216960341634373,-9.789945233586286
-3.919974875607679,-2.4269659746700825,-4.664179311547919,10.48685322778106,5.415689931864208,-0.3277100268227193,0.5735884437367176,1.639011100425288,3.435508437629229,7.623454013273786,4.442527478296111,2.3601943605338045,-5.789520472635417,-8.300813508759425
0.5878974855731585,-2.259556556262311,-4.287034745371884,17.035204933771865,9.396839438206028,-1.0987874879852682,0.0636022587528302,2.1876558826014763,0.5447568148669699,7.438219401412233,5.066758568134743,1.5238714925911452,-3.3908903677222915,-6.903706416992833
3.7576885334844894,-1.742770853918394,-3.63766323194087,11.596836799387136,5.927127017004982,-0.8787379954343368,0.4265463391796515,0.2685280406217398,-2.1741395657598,7.272956854529404,2.0369714698074755,-1.803143463791904,-4.548741564434063,-4.111772104033419
3.490903338940768,-0.7771483885655286,-3.1835279282552804,5.5575946529387,1.9687212422985676,0.4741439207229246,1.955719995857052,-2.0423846489199966,-5.9333734115113925,6.709262958064556,1.0297482887201466,-3.2047183897201386,-6.153654210682405,-3.856968743343634
-0.1310036914162324,0.4258704363006416,-3.345129942287599,-2.761620624385852,-2.276094522403993,2.2538740860159945,3.909342568574033,-5.349080422830115,-11.321380467411752,4.448942018929692,-0.3242557495160206,-4.381832489249481,-6.802201568501781,-6.605424933592683
-4.850152022876628,1.1868051990342607,-4.453826440474003,-9.142099022892594,-4.406357464442281,2.9786807334603727,4.660986812986614,-6.902555604698256,-14.882224643101274,-0.8766161019069187,-1.9227497586996876,-4.419069138704547,-6.7787144952296,-6.710450177680331
-7.74599613906625,0.8743166345973883,-6.437735198140203,-5.932218401368747,-1.2527476695904214,2.0831894729188494,2.9200551602556075,-6.734458988860043,-14.324471422442986,-9.173770656426829,-1.1528367422644012,-1.6260417739140696,-5.4903405750824055,-4.89211542584426
-7.111473979159143,-0.2829835524487016,-8.404393906128494,-2.878713460919114,0.6890673112172515,-0.6059204636928106,-0.8863004784485184,-7.484083784998813,-15.454598847224862,-18.008242340315256,-1.856321033656404,-0.7315819650826751,-3.76784868429841,-1.7371283006761091
-3.424573651822019,-1.0367488967229157,-8.739544565288966,0.7268223199309971,1.384625358793136,-3.751319018038168,-4.518626340412231,-6.411744789209116,-16.117048415948755,-23.570812252845386,-1.304927892255224,1.4881344845180853,-1.6929449338885163,3.847224488721424
1.1356943236591288,-0.0808378684259603,-6.070860906023589,4.38328514658567,1.0018855938034366,-5.418308113157771,-5.595048805203827,-6.191206802063816,-14.26484471900264,-23.13960835769902,0.5691931424704467,3.624953711319753,-1.077338136610586,5.631935739367892
4.202883936759487,2.576029622392719,-0.55203709881902,1.9937993150037692,-1.7707488816510215,-5.686565308124203,-3.7445265702566233,-6.83450908516548,-11.679636626744264,-17.14015288923151,0.8943009104757352,3.176924788706824,-1.1803604288589211,3.401221950934717
4.707147814057764,5.188846304140267,5.683604532120739,-2.642749813464801,-2.984053269728641,-4.529805558493387,-1.1950250877246609,-5.109949181625438,-5.058953848330481,-8.94996061572191,1.0768291931940543,5.526036647177516,-0.7489994685981979,1.7150869470063526
3.342980587963321,5.464468136166765,9.584893389619417,-8.500748511867616,-3.780775404289685,-3.794524358506664,-0.97640593118593,-4.610242967772284,3.355807644584696,-2.442916900329536,-0.8422886648581501,7.046441997867131,-1.9208260975877025,-0.7786079161738647
1.7673743713930854,2.509664778021669,9.161028441771236,-12.382058568058312,-3.6271859581942905,-4.581805336603703,-4.173356777512776,-4.000873113401262,6.427161741628115,0.7073469658691565,-3.665534296393442,5.27130901202764,-2.0364538037251947,-1.8249085832332392
1.200478584785401,-2.173450880945637,4.850661196177597,-8.987926114367417,-0.9172360874139122,-5.484777924535179,-8.75645390968453,-1.8938272060126768,5.060313284444591,1.711744863779998,-3.998401441756267,2.223613243672618,-1.043962959108401,-0.6926499169428583
1.5382041576980685,-5.649046880165052,-0.8577960094481725,-0.7980478566256841,0.9618764554947,-7.222906399459946,-11.219773245238969,-1.2253848094735664,4.072158603918714,2.944647001592905,-2.013479020739263,-3.2038719591468223,-1.550023359683138,-1.2132074419972871
1.6574685026580411,-5.765823619661212,-5.24791548408669,9.63615848678231,4.650264018618057,-7.960473251630557,-9.63847823352583,0.3149422193821246,3.7148342050716354,5.603924621087835,1.8550623789160705,-9.334438387016338,-0.8446680890058437,-2.7930957329364725
0.603119942459287,-2.791957764542019,-7.121419238718616,15.684674002204726,7.015215236681755,-6.373894573017743,-5.342638865313575,2.2220981470813945,5.304309346995913,8.916166342126331,4.702920923944174,-10.302940946453674,-0.8388945118190576,-4.029063570099338
-1.4029359917635702,0.8925407874005344,-7.109644113979499,12.683439989851989,4.043662500594632,-4.472947156371655,-1.6304677894976862,2.031775382493443,7.372511072107674,11.330340645881536,4.264239719984381,-5.455387276961439,-2.641682371279958,-5.48015714186667
-3.051232950768366,2.733233579012719,-6.555111898455635,6.437535490240623,1.1495162829254348,-2.02734386195396,-0.7263687131526098,2.245366320186122,7.422198513964234,12.150720862836296,2.385866319936711,-0.111780092673181,-3.5260957032660563,-6.81024437543905
-3.110366292089367,1.901511628072285,-6.21590343304149,0.5221741262608189,-4.856317855916448,0.3573915572159928,-1.852004909941129,2.290586353122003,5.885067820296754,11.846417472977578,1.437330653190977,6.331005625063063,-5.597703298838085,-7.882326436254969
-1.6777709356166213,-0.3703919603759118,-5.991673446702237,-2.7745840908864,-9.292003071095492,0.8050834720595319,-2.205700544269078,1.0489839720512442,3.678155694809355,10.933951395517724,1.7661088905761966,8.776371490448923,-7.372768442380007,-8.955296745800577
-0.3600393047611732,-2.111751409357524,-5.65540153514165,-1.3892425372728512,-5.674944238499249,0.2486875407952644,0.1328610753227508,0.4419526257901997,2.7982290908701213,8.969428169370815,2.7704811118136106,4.599536359401874,-7.477515425764883,-9.909020628849143
-1.0645016940472516,-2.287642738096394,-5.52208911663223,-0.2884359078747772,-2.0968437991599407,0.6146085421183898,4.155545549855447,-0.5789233981228175,1.8717667589561555,4.991624076492798,1.4749518603119942,0.900873223885522,-8.535511817917264,-10.958306410703038
-4.283527862574289,-1.3760537517063085,-6.186961136566907,-3.789614706960252,3.87994827531372,1.051072044145343,6.663736882915998,-2.9020493143392647,-0.1365295944993909,-1.024468882362811,-3.7655043315401664,-3.249343434406566,-8.864406398777284,-12.123126463773604
-8.318135866374945,-0.5312237442358594,-7.638162192574214,-6.773840842511611,8.65968449960595,1.3259837199208486,5.096320686205104,-4.112953412651458,-3.094140604151724,-7.466345848326398,-7.324416084394908,-4.739138325023669,-8.620876133382811,-10.885110017876732
-10.244204943937774,-0.3066883826377022,-8.843813992088656,-7.0133546300250345,5.273562134737484,2.086824459478724,-0.1250587305084138,-4.880186783253918,-7.866624211525954,-12.207623058790348,-6.1886098325192895,-1.4958713710265037,-8.892627746997041,-7.05120643357428
-8.001244325478751,-0.1762903196568856,-8.425731510613389,-7.434335008185293,2.028128608634363,1.3777964757397037,-5.779861313684648,-6.269370168108308,-14.612858379336751,-14.592833694110908,-2.6430965243427447,-0.6720910955399638,-7.938360277344114,-2.069343828655767
-1.956883651407594,0.8090404148317134,-5.807178614231901,-3.826820843732544,-2.093394495879626,0.043386600363203,-8.322908677917383,-6.591714646758159,-22.039276672818847,-16.170219183022397,3.104845570839428,-1.2551704244332846,-6.685730764383559,4.727620747820716
5.35602678480231,3.0020993588554745,-1.6569405507564738,0.0772966696549979,-5.772217400699994,0.1121778369630944,-6.5159629060443365,-7.226546043558621,-25.22292567549812,-19.17379445168342,5.688703378930644,-2.2148404333338245,-5.301552502528728,8.662037299828294
11.109923880021398,5.796408601258747,2.796950364050076,-0.6787371676247219,-4.105095554756009,0.4664688866903532,-2.142306419106376,-8.065183501905182,-24.261073010744145,-24.092869545511174,2.408569939953579,-3.951266776355001,-2.550012516437353,9.23531759716825
14.061961778937471,8.170735752845303,6.785251077928393,2.1861100315370074,-2.031595269561945,1.4230633369460697,1.554356978163753,-7.716569129863512,-21.979741043339818,-28.785584720192418,0.1808840214162516,-0.9804550347770122,0.3473072574376992,11.613439832088035
14.895608424926678,9.476270500752122,10.24295980146789,5.662439285161389,0.005590753647915,2.7321597242699305,2.299695870899398,-7.771551167359657,-17.70813046407881,-30.1995338373404,-0.1161048032190123,4.531453000251381,3.835017485098261,14.761291012468382
14.944625210873824,9.680322355272864,13.14147247304848,5.685285327567979,2.106490977602579,2.939975146290972,0.2382964775485447,-5.939074404126233,-13.706817588529704,-27.15097636589664,0.3681906973620496,7.138338549304676,7.138232715242055,16.101039678363023
14.699518474030157,8.9846835540975,14.879288650441737,6.20412185402213,2.434471267391543,2.810581282521849,-2.473130476507265,-1.5480914963717298,-9.600123258952756,-21.434306239645707,1.4904446086294014,6.085862892222571,8.039866582037,16.204324793185048
13.55857941505522,7.423103593403283,14.64734668839654,4.4082101222529,2.68548940990496,2.579572116718692,-3.3811165290469205,3.0391696385636258,-3.3641165777363025,-16.085250143534438,-0.9436751770449584,0.8329280717874084,9.03241982425138,13.540772226797303
10.911860314278044,4.949351152591447,12.477189000888616,1.7770117683654996,4.040317056362,2.431741413546691,-1.4120342881870442,10.077308329913455,4.507293280089923,-12.449339375217818,-6.677036998495489,-5.412561687960093,9.927995536443431,7.507578897363662
7.259636048133785,1.831018354379438,9.709723882721562,1.4663720820025732,4.024928054348855,2.8366320034279147,2.5975117440135023,14.734113056922418,9.276748040148904,-8.97308219487249,-9.32319621064509,-7.542802641312869,10.907794689307982,6.231187099112011
4.0842417079020095,-1.2701238357935836,8.097975169906022,1.8533401894371504,2.275809779725852,3.1533634423527044,6.695164453053565,14.62763781631285,9.871592229092126,-2.986727367191748,-6.94727469989389,-5.335770768348978,15.448371576307292,9.800930327749374
2.550499916761879,-3.775808676699512,8.260898294506148,0.0269714601531572,0.0155260514762879,3.349092075601108,9.20770130078128,15.411720931835116,12.220248556212526,6.240852004643784,-0.632600536408112,-0.1765196253151523,20.482198839425767,12.993903851158262
2.3675988791840723,-5.736987828799926,9.078508258625844,-4.913392635312394,-4.347851242364342,3.1851020200851625,9.71322575073907,13.774527537434944,14.00818605689501,16.227393477913466,7.752738579485909,4.198006036939765,24.979668960085224,17.577107524522244
2.0098873028307764,-7.756549394805916,8.778779008099718,-7.923128329351661,-6.252923220638273,2.5482920985713715,8.995109250640013,11.747858559713912,14.520238790828069,23.12238977719801,10.955146388275448,4.868890075621408,28.185992816294917,17.86223839566485
0.1402161617014883,-10.243792934508193,6.702023087250268,-7.246020887630276,-3.9039481040823936,2.1741899831268903,8.1756699091967,12.542722049487708,15.06506576274763,24.93880076433615,7.906765980695362,3.2852761852789785,25.925108976603937,12.809424161980523
-3.10161568280435,-12.744741950864054,3.935306041972467,-4.844066308330149,-2.62318338890549,1.982357428220996,7.797469952255497,10.886814868229738,12.055092030528073,23.08936000326834,4.889873716857268,0.8299443610027767,21.548335063237595,9.325172028839912
-6.141457039520759,-14.113125793977956,2.1300939688465945,0.4737961514016888,-0.0470829686450751,1.9044360921067105,7.562600715904168,8.506584169348598,7.693051276458752,20.85172850297363,3.030031588895162,0.6330480180197217,16.482018234120687,6.011679506718979
-7.284821021163438,-13.44948857172244,1.7335124439883884,3.692418569002441,1.9513486468207688,1.775614812847096,6.833421247199013,7.230560044040023,6.892298707055693,20.37608943781132,2.475825377947715,2.0403623823456574,10.408875348439768,3.0247270705122906
-6.122369093303519,-10.92869342235852,1.5102502705663312,1.7201455134345425,0.6327364492212543,0.9200574914925396,5.353336703209877,4.955013018537173,8.857622104932203,21.1033182498652,3.2651074463240484,2.802826380808828,6.007515336442408,1.4742037015627558
-3.8659922344595534,-7.728449567891531,-0.1399439499555868,1.369960439671955,1.8666171344022584,-0.1509237775380323,3.49288544263198,2.5744620573731747,10.724582529155958,20.846164406500563,0.3469303161358789,2.002881225006056,0.8285092809162796,-2.268448463582131
-2.4551176604670104,-5.158874390640058,-3.509884671724649,2.076203410788257,3.3181601620597223,-1.0426267899097843,1.8027790216101136,0.7094724056739976,12.083247303804953,18.12812577745129,-5.654850488945566,-1.983599125635056,-6.538408178065518,-7.964281941378863
-3.246857759342223,-3.826350375195004,-7.385918753036597,2.192903828470333,2.3962105776075173,-1.7677863352698808,0.341151195772408,-1.505557018749075,11.690024425193013,13.407682896661637,-8.087927573075858,-4.737837385952553,-12.0923583934628,-11.5115777587232
-6.251862049593795,-3.507840820971631,-10.5076085796217,3.546311824422109,1.3936736392955151,-2.142237023212918,-1.4929444608349494,-4.374555239375998,10.074090180587689,8.302310445031686,-7.368460580756312,-4.301317673541886,-16.1586850530908,-13.319470049011867
-10.267519947761537,-3.623384227639225,-12.981652341739904,2.6171519753861614,-1.3370614672474068,-3.3124486524590657,-4.338750249100364,-6.744485985055988,8.203836001245797,4.034514193191303,-7.065282726748827,-3.95963510865988,-20.20796321758858,-15.736320421858736
-13.596800144333365,-3.675192154288808,-15.944196651601615,-0.9187590185914516,-4.8406314865798254,-5.60146932177578,-7.987281935972305,-8.906723367896513,6.107650685551967,0.821834829507047,-7.116190672740257,-2.7696984335333226,-22.055335820368445,-18.07470242257242
-14.853730123274048,-3.2803371696903127,-19.74709399280645,-3.1090233936374627,-5.176799375414674,-7.300054451910647,-11.142621990755714,-10.866197402729144,4.747708429753475,-1.4394448593088924,-7.069570258843601,-1.693793247516864,-21.28706260037729,-18.78814282626357
-13.562058091502308,-2.0522700316345066,-22.760429689529914,-2.9302265793259976,-2.7144498860893265,-7.57035086341696,-12.258807776154685,-9.99664668322621,3.953532027512926,-2.3390078305218083,-4.726886883708002,-1.2127699490964674,-16.61593536697723,-18.0034874124268
-10.42424540113069,0.2157531670133323,-22.4329137969082,-1.2061169120395538,0.0964234891263392,-6.29850451196615,-10.859790730684068,-7.926696023361419,3.7158186357600487,-1.098913616294368,1.6226813828134763,1.3141158022124118,-8.413984674718272,-14.03260507732158
-7.107507651086621,3.080965305928686,-17.840137828557516,1.2797857032821405,3.707100983883124,-3.526262723732695,-8.148923157066037,-5.837120201456614,3.792074618666093,2.451999662921253,11.122875532872293,5.450879274249637,2.697897481235179,-6.308306782579371
-5.425138614739581,5.2764491376000535,-11.11360570545665,2.175970888401787,5.322039075517722,-1.0413722499230411,-6.199097560052564,-3.4323469265531843,2.867366079979125,7.212077428230373,15.159208570065887,6.934496382810366,9.35444448270404,-2.451916077688888
-6.1653963478352125,5.330930513348505,-5.982050467687344,0.1656619212976675,3.2783723441452794,-0.2940273609168731,-6.2666738277027605,-3.648566011701442,0.2858785099484827,11.2262988982813,9.837242740378848,3.8794693105011424,6.659509543841125,-2.456337195624276
-8.321631356360115,2.7221107003005613,-4.518453702776696,-2.4547753242990424,1.3342395092018653,-0.5208891492475534,-7.6637791894882525,-4.789248233615255,-1.436783443415183,12.814736925427669,3.5176174611480304,-1.0522553942934685,2.98063626545545,-2.3857272520596435
-9.496859485017012,-1.3890540763748618,-5.181377680885646,-3.391187388968007,-1.229952222722868,-0.5881631433462527,-8.255248485299717,-4.746010300700081,-1.9478035587444549,11.398463863779057,-3.860268121460519,-7.729045981677166,-3.5475842400215543,-3.944402018019349
-7.478443929951425,-4.640261358560508,-4.203908071158367,-1.838508276827942,-3.201873365606029,-0.1612254941812048,-6.2472817398983125,-4.263843979221776,-2.134590371453481,7.46040230293238,-7.38749462597729,-10.516239734490258,-8.52400000215447,-3.325123327481812
-1.9292681343055165,-4.985428823232155,0.821008757167931,0.9771324690631704,-2.243636909297816,1.596715897020484,-1.7497953578641727,-1.881063314715774,-1.5729469986207296,1.9642257403630763,-4.396436607567772,-7.1093574948351845,-5.511069508797105,-0.0027769909737252
5.178618435212968,-2.120302739886029,8.534629598466495,2.412953733543584,-0.9313866324285336,4.682749289752705,3.270097025881228,1.8839572930699884,-2.37240054408575,-4.098037985937992,-2.911622408990985,-1.6453970029165748,-4.062713800190688,2.116761963524712
10.859967064749071,2.3275368452997327,14.928018525902589,1.5599947046052485,0.5477462909965896,6.954411841127094,6.638324237765175,5.350026097187207,-4.651028200588394,-9.766326837543488,-2.4515991034781424,5.263813088652351,-3.002134435939765,3.92137394900624
13.17320418237989,6.006124946996351,16.959371086145552,-0.5530679709627322,1.8278420945426608,7.625731006370537,7.802779860001351,8.595637737335458,-6.087781605887883,-14.073921646018675,-1.464302019865507,8.522817344522277,-1.2022009318193003,5.550357235991364
12.388602252171722,7.468663171440653,15.24585623118992,-1.2496912837726128,1.476230320074107,7.058885826469927,8.241965001150788,11.755274038455369,-4.955425975114256,-16.265432046275464,0.4298650303283553,7.448456618170457,-2.967140726370057,6.452075235873848
10.38210611566285,6.956765646454869,13.309047750386071,1.324150822925731,0.6475468017197523,5.719618747636986,10.080306350170533,14.801681830450788,-3.2907364579802616,-16.20599285537321,4.693004475802298,7.483480965829065,-4.167840901880942,8.325468960072222
8.903979012501736,5.847163586070337,14.169665374678516,4.853587029364402,0.3879487502395128,5.162455140438004,14.089193737533492,18.04124392782517,-1.136663210306888,-14.55199826901503,11.08759225129678,8.664823525976328,-4.427784913763969,11.110744940595554
8.266257456427638,5.391834930629102,17.549506563981367,5.993011176838575,0.3942114614337034,5.555063915424481,18.78219366785379,18.520941357702377,0.4572124392263039,-12.38867184490357,12.81950615086808,8.273671398542124,-5.019612654241088,10.347970744223996
7.46383586318484,5.851992359676387,20.20439387372062,3.737256597406048,0.7442915984385914,5.637659565200615,21.37999103789753,14.598568445021876,-2.4905165057896315,-10.549283901892068,7.853199710076351,5.699444607204612,-4.454148060133586,5.995554329828915
5.381372055127713,6.6025815948828495,18.850132216835163,-0.7921316207308642,1.259700788972364,5.564600232580333,19.855479549082588,8.852566354018293,-4.368120723657444,-9.183423686810215,1.001037137204475,-0.2214496009215737,-3.909474486317903,0.2202790083238038
1.8602112672812157,6.864920362017188,12.83886047922192,-4.327362383221915,0.9448116163234972,4.606793612112997,14.40294705391284,0.0583835356896375,-5.161490416644869,-7.947475739820675,-8.445732980384067,-9.48483170779187,-3.345660583549616,-8.033357911147293
-2.2481979444874014,6.294886410060258,4.321461234617232,-4.353299698751182,-0.0959966875032006,2.4054774103493086,7.206487169848287,-6.760310060960916,-7.335936117712266,-6.603717097955382,-12.92629898602792,-13.477200663774926,-3.45848067489226,-12.53405147357673
-5.842489431737022,5.01001353892002,-3.778327893319556,-2.534496187300598,-1.488261681672801,0.2435317699134503,0.8031887864121927,-9.088572605083147,-6.7993155335695485,-5.417669294979987,-10.124149008545048,-11.009705165105542,-5.512682068778355,-12.636012561698154
-8.267713914363753,3.281363935965942,-9.786052552694969,-2.23674487644,-3.366320356096856,-3.13497052375159,-3.582928648493976,-13.049271769304513,-7.495342226040154,-4.9435389935044896,-10.020553247634124,-10.333271450627697,-7.559625274032433,-14.85646020556681
-9.364635186319164,1.3523139851739645,-13.6243646565473,-4.689855689826229,-5.425360925895756,-7.454250526644217,-6.47492645523505,-15.760189159476086,-9.821288381815767,-5.40260802326037,-10.2997417660315,-9.491283036227063,-10.232714216911925,-17.797111695856195
-9.080706562522892,-0.4660585053195518,-15.779573194106604,-6.56408381893184,-5.214116147641113,-9.17190067900876,-9.195010793069684,-16.36112999520604,-9.445746979554771,-6.267794193507086,-8.061230542807067,-7.153946411655678,-10.398760345039602,-16.77680753463135
-7.253543830796843,-1.6756358964336189,-16.354303540975593,-4.604369470277875,-2.029448371613559,-8.424043384940804,-12.47665834519114,-16.894797205150716,-8.452956603007069,-6.461870012061127,-4.527988899331514,-3.2893709340676374,-4.8639632890037054,-12.316130276983415
-3.841806503204225,-1.7221824050427583,-15.07482585835055,0.5110864254038121,1.393165209664758,-7.613773644768011,-15.779340909605937,-14.229770673605415,-8.394104461426052,-4.998699797398331,3.4958017163659627,4.504754844949639,2.108365051735579,-4.312240568915122
0.7099992824250876,-0.3322433032277558,-11.830713686871718,8.405423224546599,6.026089009422168,-5.962895786076336,-17.734837607483314,-9.15169903953478,-7.953739304617297,-1.552343366863738,14.784785493474333,14.765562185084695,11.248049215798709,8.327030115760115
5.444366921569326,2.232079804219097,-6.924371761702105,11.572392507709766,7.695244186584853,-4.350025132769848,-17.243575611158576,-6.934385186452732,-7.451879868644954,3.3754532345670896,18.034532434015176,17.46178124693862,17.0683626691789,13.77880116363031
9.288094083080182,5.205573483673902,-0.9034172557680904,6.363739314322681,3.8015594383773057,-3.8309280844003126,-14.35027615065428,-6.293627646617489,-6.5938411573263895,8.6213536835063,11.684286666906669,10.062652849293409,15.92466775567674,11.453949435537009
11.534151522484308,7.603366568977208,5.527651214652792,0.7225636511113525,0.8044998271813584,-0.5251827171371197,-10.305226945259278,-4.830359689418128,-1.9478252105254623,12.670143829837343,6.0508578579452825,3.837541048583319,14.334411394172962,10.258524138719327
12.063332396489043,8.594065585383419,11.327794962807047,-5.827440831991261,-3.619046696983515,4.772595961482575,-6.81151175780974,-5.178310960805792,4.6868777684348215,14.100904458341574,-1.3101975198771612,-3.1752081738552884,10.169215511848607,7.504380052806886
11.284746477816157,7.834201441464529,15.166526884815768,-8.580143084484623,-6.5506885576415925,7.21192075121535,-4.947106362812292,-3.1577096392699606,8.384756400925621,12.236226437292656,-5.490788322720276,-6.492919864296283,8.385529220689076,7.284274281492001
9.969501521260211,5.645546121632492,16.1286315225276,-4.224709404507049,-4.075236970451727,7.604027978263112,-4.445074589769661,0.9106058201777392,9.229988334855696,7.759737753380136,-3.0541472333604767,-3.5111281647151187,10.258259241114608,10.95948646145698
9.026978490916918,2.88583453109959,14.598648299819844,-1.868172139465752,-2.457656676857176,6.813751069464732,-3.859311347522066,3.074956218321993,7.610404778089602,2.7352527139478298,-4.332761925763474,-4.062666839442295,9.62516136267636,13.27628457177634
9.126491089940032,0.4724555499745975,12.264019205860563,0.5495379372731545,0.7373168721260346,4.443753329931983,-1.624816663601905,7.514331138118933,5.15530927044378,-0.3287826124610546,-5.795209394695497,-4.482482127122761,11.001026371455652,15.495603865106686
10.229993205884398,-1.1659687541705352,10.876687593662725,3.4655602371215,4.334222480426155,3.326106763324576,2.657312126294755,10.27512216939554,5.753014664005591,0.0557610666910477,-3.986111520618957,-2.929720213124261,10.149188006789906,15.909677319168878
11.424241423706404,-2.236074990869213,10.795986652086585,3.805081361462015,4.1924010359717245,3.764053418216071,7.728667840667185,9.856995992671177,9.400549445621271,3.421457714221276,-2.0155567371798035,-0.766949027572312,7.45863782492497,13.649585111689754
11.40703038203327,-3.132191026638793,10.79204807569863,5.857268563763259,4.285460613391253,3.52144670106761,11.517107013548582,11.22658294287776,13.296793473782074,7.734731517101864,1.0072160631261404,3.7100274127742088,7.924392263288459,8.956726381013787
9.419456496902,-3.82306377996656,9.408845952843876,7.8011063589336915,3.5851830253032184,2.822318021967068,12.73774023811876,10.094488319458874,15.902725402976136,10.843395828636687,4.026667754016048,7.558571798775845,4.9973714734550745,0.9389474868669352
5.856368136188507,-3.792351577404304,6.523992857466624,5.482713614309121,0.9940955485964902,2.456415365839518,11.868402174166022,8.418909532485184,15.42052295249071,11.813418937668304,3.2063339497096486,6.535256339931034,3.430131776572644,-3.290006716565824
1.945786382747258,-2.742622620204884,3.4455465413790307,1.629178419150802,-0.3208350182581005,1.43286726210566,10.54622925780535,8.982325072590498,11.77099185957628,11.1241376291714,0.5029012785722664,2.5929557689095626,4.226365957754265,-3.478933644999964
-1.2423444043883478,-1.3777486173083844,1.406307151495383,-2.0579028151859755,-1.7395396945742585,-0.1336329951265319,9.892235744005916,7.134021180739769,8.59158682617809,9.75165005477288,-0.1362509536795513,-1.5153993553129366,1.2926032559741616,-2.7513488346955093
-3.500460097451878,-1.2755917135956452,0.0875431026562409,-6.538174618722263,-4.399190816926158,-1.596082585749872,9.39410305311955,5.109321242085259,6.209026045315475,8.140616121451956,-0.9309616689815003,-5.532374568139116,1.3137791209411285,0.6705498815669911
-5.238594114444538,-3.646513465838268,-2.120652235177829,-7.141900546059393,-4.700352359487057,-3.260230329565594,7.524702078454851,3.717630364349081,3.4205641007635346,6.025101805596677,-1.127828463135378,-5.151480162668169,0.1999076495086977,0.7470867140189773
-6.675414908460368,-7.971410085417602,-6.23675889034385,-4.767908403608448,-3.234076431678646,-3.794786100038331,3.540424458465651,0.6444087457828827,0.1663667062537953,3.100285637626996,-0.5469048968262742,-2.227619324802251,-6.181084652193054,-2.994798107846956
-7.491621165270303,-11.885215228028883,-11.153935024439887,-6.122594177668113,-2.765290802481389,-3.778105627516932,-1.3918392127660866,-2.5748057954805907,-5.88489449260628,-0.3317368539258325,-1.9975894670364265,-2.4524634223614337,-10.3672098655255,-5.837861031946931
-7.416888411969822,-12.699819944822307,-14.266419685806326,-7.054971082423041,-0.2761440480289318,-3.8746564235716336,-5.021340574935749,-5.830483779511526,-14.040820456875696,-3.534496361740452,-1.515776894147305,-2.3351015032641675,-16.85763399968685,-9.18012273135365
-7.028257833362119,-9.463630381608104,-13.894870721990344,-6.01711557995624,1.7685817470765512,-3.509269087359709,-6.095620561443504,-8.912441963511757,-18.044135946448986,-6.163256322872883,1.3942933356533134,-1.5613640938158482,-21.18669261995926,-9.919159982482542
-7.604062919614567,-3.850152557992253,-11.127368934041812,-4.349164852226227,0.7149573231890302,-4.517357826799057,-5.615191012134432,-11.647808986948933,-17.49810116526002,-8.769327358681519,3.5008130558615225,-0.7091770639980148,-16.677988990257848,-7.230436390637368
-9.849026435691544,0.9425395970985764,-9.02597424951782,2.173070716355383,1.095817458055779,-5.802772461405532,-5.8960107262581625,-14.03367274260826,-16.765959797919194,-12.240034783999624,3.1692662574769432,2.4197583446394617,-12.130025669786892,-5.289340746401507
-12.7254937962149,2.47490320694291,-9.705449376689623,9.272210850120118,-0.2002421701572403,-6.536877927747728,-8.259236832029178,-15.714211661496948,-15.254324521539742,-16.558876255172873,-1.4162801337346378,3.872130954561888,-4.8130304045714265,-3.248740660880911
-13.840528305218218,0.7748547985194989,-12.073206221178935,10.670150582495744,-2.1243934854225657,-7.074856913240093,-11.608211973372237,-16.470998974051323,-14.112101014848651,-20.15903234556696,-6.322781508621179,2.1833365436022247,1.4767903350131475,-1.9695799777798615
-11.385129831913744,-1.7897920974834065,-12.60364977996555,8.489743110547959,0.2133859266135073,-5.078336107688563,-13.336022210546716,-13.609898409227716,-13.013854629152704,-20.77848414254366,-6.318767692856239,0.3198148882990475,0.3257471443922789,-2.191580249052284
-5.899602810062604,-2.29551717436496,-8.625928716851604,5.993042156577303,3.5238113748819515,-2.159804218932929,-11.716624240879838,-8.454672152440317,-8.196777857042532,-17.307375687949715,-0.8496736845942285,-0.0513775000807659,0.6983994242115927,-0.9449515871170896
-0.0497586269703873,0.6578811125691999,-1.0500094977656147,4.822922906594087,9.482902040676734,0.6653541929140445,-7.473420190542029,-2.600516025819038,-0.672405224660586,-10.993358618118409,7.623424010423577,1.9852822266831232,0.4454560541113909,1.4513740220952824
3.5415616859790475,5.9986721264556735,6.124388784877027,4.636646656860102,13.052845049499725,2.6487953306185874,-3.0546085673942827,2.680380965328853,3.664378127635972,-4.75427349777577,11.326661704575592,3.9536395831040654,-1.079238196245954,2.016114242468062
4.365844834100244,10.859982071950483,9.092350414195906,2.9453980504113395,7.916383704489596,1.4881686566049008,-0.4088296942001648,3.949191167323983,3.236357953088967,-1.0376886589705805,5.572690758532929,1.8550462700501291,0.2346935465026067,1.0602018353988625
3.959394225299178,12.283192912809966,7.21343204953115,-1.491663070678038,0.4159400216214565,0.5572207299311492,0.5406615152691927,4.001371165194905,2.758216854203324,-0.0825641985292122,-2.160591319365761,-1.326774239734907,-0.7690245842386554,0.0012301958976072
3.8028123147909696,8.852370541777873,2.96580311287741,-9.00755823764148,-10.508163884871996,0.5090517215092137,1.3416254414769355,4.730503623181179,2.405097087719099,-0.1418373001968973,-8.007473016000013,-4.554828465444664,-3.1451098858017947,-1.689172988212292
3.444746350901056,1.4105050569916957,-0.7752353115572248,-12.358596817290932,-17.04031369989979,0.5883938822820193,3.127640364327931,5.482171498534452,3.545119916880177,0.5990805993161246,-8.235700675422594,-5.517701434102306,-3.623515643198559,-2.309393892159913
0.9438520599092612,-7.382010795437225,-3.250637061930945,-8.585628477073751,-11.950946550622056,2.3493709612961498,5.407681469826514,7.290757651250375,7.149215711297968,2.2850116996096403,-1.1008991894924436,-1.2649694678134065,-5.361456033314407,-1.5733593857420256
-4.708720525612336,-14.33141471637026,-5.73333989949208,-5.7101081676278085,-6.538638455836134,2.969768260165131,6.707745571437584,9.439701550625896,7.96844080565572,3.506346819448908,3.317028398913653,1.7363976204414064,-6.939597627007555,-2.6953450684212417
-11.739734389215071,-17.198161681609605,-9.306865535139336,-1.89816237348232,0.3536896765180979,2.0905181894833715,6.270326074580623,10.559886911964655,5.903656119887426,3.0777299228927006,3.663672106570101,3.137925932365601,-7.225225120952848,-5.389646033925453
-16.478047298556817,-15.663839566671186,-13.111367398485498,0.7352327180335111,5.802620360921165,1.6419925871181034,4.964444396459157,10.451256889775935,4.011141896213077,1.610928969099632,1.6094928832590312,2.951211892641565,-8.487901648562458,-6.745621147278015
-16.388454707894653,-11.276764257849637,-14.937570482203313,-0.2583078712587346,3.8311945015928015,1.030111002400449,4.455471816821927,10.483243002742704,3.199572570624088,1.1932469282454576,-1.7107653606953062,0.6456253962513652,-6.490418025954708,-7.189928548502903
-12.363769489717214,-6.426004412529039,-13.414107080734,2.837316778409868,2.797945993026424,1.3749431447568592,5.524800162053793,10.042502203138836,5.513180656351567,3.363877650697105,-0.7461785434127531,0.2523303007603317,-2.500518346426481,-6.839747654522852
-7.952716551320691,-3.0129789742454136,-9.376100821517923,6.825045051875648,2.9844481092019426,2.546736483841488,7.283754035841184,8.222544736033116,9.8031149598517,7.314693706960554,2.4361235164587605,0.1708094389131279,0.2892681268459831,-5.120214547444122
-6.166265824129368,-1.6707497905296975,-4.999694571344008,6.6342821705131145,2.085401425690066,2.7452883782740285,8.055569933877507,7.508319380126757,11.87961941568877,10.13229936746788,4.318561014310332,0.2225922093841499,3.6018033117315085,-3.67618005774978
-6.882905846909864,-1.8932986705024464,-1.7184298336854908,4.225540349344961,2.4639438180938096,2.01703953090075,6.97643490957762,6.468996737242167,10.158310371761935,9.048731311796049,3.1760436120621707,0.2484671044338813,2.6928073984126684,-2.401610007451252
-7.265677734837567,-2.684420968658032,0.8437478426068594,0.9251511166090252,2.8676044246007684,0.0594895112081869,4.691459755260638,3.8760242886848735,3.6301187403221338,3.826331094805568,-2.456458064716088,-2.03569680217162,-0.7225116252779753,0.2130989994422795
-4.645920837309063,-3.05880693212319,3.898892227006172,-1.3494590497910992,1.1862298873643071,-2.435113880101188,2.542506340884472,2.522015262750465,-4.758378174949106,-2.759032414957403,-8.985675477602522,-3.8039200627136336,-2.1600550099046325,3.948483344518809
0.9851599944652208,-2.1685351972390663,7.682445320712247,-0.0584430665580427,-0.5519626348156532,-3.4363854184968434,1.2094041724006388,0.618356404358108,-8.602555337944318,-6.775278695202246,-11.041635801675994,-3.682874751654969,-2.7042357315680072,7.075075559485467
7.16098752401092,0.5939693475381773,10.848493500388798,1.9395750809860812,-1.686187938849251,-2.9488885694513085,0.2321049554938099,-2.027567034354357,-6.708007598345842,-5.86993470582874,-7.335434757727754,-2.5879159124659035,1.3543507076877308,9.718368407150736
11.3557825394646,5.194346253746204,11.751074641615476,0.6467880077580672,-2.719678026434179,-1.878271236080466,-1.2103320538021478,-3.406949028627157,-1.6095428937628744,-0.8117798361572852,0.8825941287560788,1.2142281021680783,8.46343299622885,11.786098495053274
13.105583119158837,10.547034169566558,10.227461389814607,-3.200633936269154,-2.221318622620964,-0.7471946240394232,-3.247424402221497,-5.678998677606593,3.732630970831993,5.198403211237178,10.6023364958897,5.651333052264135,14.760406408509882,12.844723515789138
13.848805932278822,14.754236655624029,7.934616340503609,-6.537874691364902,-0.8800821392256287,-0.4363070972009187,-5.172348319727959,-7.409058963530645,5.164746554954069,8.770147981556107,13.9513088282462,6.369264737554193,18.143891286235345,11.589774361449178
14.910436590668198,16.154744560533516,6.795015835784355,-5.989773855720883,0.1803317585715269,-0.994588596840923,-6.282519142773396,-7.158259400066269,1.5391629460277154,8.41684535854138,8.824668945354695,3.6640664246130754,15.876466798644174,7.619587689223378
15.842956423055824,14.437535716487304,7.103420373952432,-1.4759349821316126,0.6349532889640822,-1.5808730947280087,-6.65900880954942,-6.872641489575683,-2.5495739471748498,5.126065440892731,0.8299472938811714,-1.212876565215912,11.29278305456736,3.035977609123239
14.83037509398892,10.81530106070278,7.261512990930953,4.18922301110181,1.050660940166488,-2.0572694877961166,-6.951502796322799,-5.498564793411558,-4.863342827474603,1.2822349869353928,-8.366700374410456,-7.8531034879625,5.3378390596457805,-2.5599485777935795
10.72642253971418,7.06289336159918,5.48885084657779,6.72208708776377,1.2662627433257798,-2.5031910219882825,-7.427248788236611,-4.037676584270821,-5.319621826528301,-1.0392615515005446,-12.169255400000274,-10.495614483891393,1.2459711878449888,-5.005069845717357
4.682675102257662,4.289338907251022,1.837714990930152,4.526565262701791,1.2487616930490155,-2.283937125022076,-7.442402949403743,-2.9752928293114342,-2.3554739421469693,-1.1662976743269695,-6.708271935410145,-6.515887255229679,1.446124719115674,-3.526794463519655
-0.2883292499025884,2.492783041889936,-1.5400182402977125,0.1136910121815892,0.9847089958768024,-0.8623129092487689,-6.061709272390871,-1.0457646529884908,1.1811057965756426,0.2249456336404591,-0.7388700008913488,-1.129495284449909,0.817891082863235,-2.3971878308769394
-1.5450092881053905,1.0812501403079011,-2.242179915899854,-3.203288464188555,-0.6700957438545243,1.3752551898836975,-3.2350543871587263,0.8666329572180064,3.561418386158375,1.925075454605164,4.762620640650919,5.773991524334586,0.5942468375056257,-0.4649589313325356
1.076762340385308,-0.3769480424232299,0.1505163370429727,-3.38229375773087,-2.1080253267692166,3.4378320717794653,-0.2054788360831878,3.259014248088889,5.363577090780517,2.9888581937256973,8.153320710885419,10.219234900339018,1.3714938239088807,1.4457963973111332
5.111781695347091,-1.916742180653955,3.61877189366016,-1.4528556297695987,-2.1200306881817466,4.02825393553112,1.4590159943671637,4.7308120154811855,4.743577076770472,3.05942119443656,5.246335130035042,7.818554090223342,1.0270885297935874,2.743091108280787
7.402357089451563,-3.431813599675394,5.492217534359241,0.357197602477993,-1.473168654354848,2.417791548988048,1.3597464646340782,5.327540747460216,2.7376355168192656,2.306050672146675,1.897868025278408,4.668611075500081,2.3424309765287994,3.8568622575425873
6.466007642124112,-4.863002544059199,4.7814092919689415,0.0515578074703649,0.1043713287810367,0.0581640626489403,0.7801260251471405,6.950850625892713,1.1518840400093209,1.258521132028939,-0.1431715495600912,1.9137844733841936,5.150432161763444,4.315340761013148
3.321585205617666,-6.035102187975358,2.843491143379022,-1.0035020373002608,1.137586512839614,-1.102476720349606,1.5946618496576157,6.116065136234072,-0.1863756119167593,0.6085655798305538,-2.179744350101527,-0.6932417454915256,4.759347928334378,2.91541307859971
0.2068403938078393,-6.488129514809895,1.8114815610172224,-0.6163128686311858,0.4370044521689976,-0.1070548237808333,4.519797760995889,3.8018222462336846,-0.0663164165122202,0.8628699100983255,-2.160235215332495,-0.7766883373065454,2.5178076126033924,-0.6423574123469843
-1.5229905384274067,-5.756524989125545,2.3707819138852084,-0.0332422183141663,-0.2061450124156574,3.164743583453715,8.323203078186562,2.1176933731016425,2.4544226145362518,1.8974142852388765,-0.1531569017390642,-0.6094687694150078,0.0055223528709152,-2.5901155962426854
-2.387468800020404,-3.964118288047538,3.039667880629073,1.7179741414446934,-0.1592741954779197,6.182523410180316,10.717152448410758,-2.939157179654022,4.515764318592686,2.783393648778527,0.5676801586482184,-3.168717269964309,-5.37046454601512,-3.07026716174105
-3.873123538196058,-2.059752746281246,1.5954812999863988,2.741442444562676,0.4918248321432246,6.556561665317814,10.111406305162747,-6.236909607265119,3.839129691941472,2.2348536753589165,0.2660065609567025,-5.08770083858983,-8.121250829497365,-3.784812531715217
-6.648613503916913,-1.24183388201363,-2.766686647007992,1.1580712392879655,1.622663844965785,4.4574567651647214,6.702722271917075,-6.115345489915276,0.5135448740507436,-0.4774216509075284,-0.3251145876355771,-4.642395565160788,-9.054081587319043,-3.946163444910834
-9.698519185400167,-1.95660123285624,-8.562632102073195,0.5468057819202081,1.7410625464627827,0.8912240751041443,2.1176742777990114,-8.331792227686043,-6.057175318363552,-4.82901451890665,-3.361233543802512,-4.734312615427714,-12.024187596976638,-5.712598943732972
-11.201119014317731,-3.3996972979540523,-13.142765180199646,-0.8290604054245841,0.5356380109763195,-2.013039107185068,-1.8451450406073453,-8.52375887045066,-12.865007368551996,-9.197923323656944,-4.978117721305425,-1.976588282400212,-12.362467127688667,-9.341448854777092
-10.243800265319916,-4.069484616161482,-14.67712469300135,-2.408703099436848,-0.976094854150555,-2.421079871716432,-4.214066676139908,-7.704860650595043,-14.579892719002093,-11.840374474774478,-3.225086983521209,1.7173915016341788,-12.570152987571236,-10.073543030791685
-7.679330773394007,-2.9517265050971417,-13.249755118565671,-1.9771456050722425,-1.664785514745147,-0.9217985151178288,-4.95826611233781,-9.15445779373122,-11.830093541817218,-11.955691937157638,-0.1395168131555653,2.5348737336277094,-11.165675243246772,-8.13545298534942
-5.306065842435359,-0.3206512107106789,-10.329822033240582,-1.5390184330982584,-0.8917621713239727,0.2897004354226238,-4.5304433617820905,-8.372137224120799,-8.691181087011405,-10.038360846559392,3.2923490689479475,3.4921991714187146,-5.760273099565492,-6.043747698642175
-4.205860103208508,2.4976475233273163,-7.384953071902885,1.242526167748342,0.3097199714865396,0.4921138977458598,-3.4952068573865347,-6.81869569067568,-6.27343613196604,-7.324820588921156,4.866214216836198,3.092089309169658,-1.1235511816801265,-2.862452027417718
-3.869513981112597,4.118946655551348,-4.963690933528454,4.522656316553369,1.1952207850441254,-0.3582316713624615,-2.4729932795875413,-6.797682533226316,-5.840406123832474,-4.869527298968798,3.1688169804664543,0.7945350347848068,2.5842974174754048,-1.945975025278504
-2.9366327240561105,3.9775597191460506,-2.863954425606451,4.205543085034454,1.1898173518555537,-2.4494844932683297,-2.099833967295794,-5.8510410611291634,-6.905524085248754,-2.998787243561189,0.0081763080965195,-0.577083158851683,3.563664769293569,-3.822685925410759
-0.784224005493094,2.470996588147962,-0.9069628695384324,1.5485729442987386,-0.2195586758892537,-3.7310732581822026,-2.735900034401816,-4.500125773065646,-4.778372649385965,-1.4663887937510367,-1.2009773346615902,-0.8040999545595668,1.956141983386638,-4.717759361714927
1.6321811065591874,0.4963420782322458,0.5953270787950942,-4.144548553157934,-1.1407259275888295,-4.264726761479476,-4.1303970982438045,-3.970262881263882,0.2741704632279609,-0.0075474587609321,-1.0955135763335164,-0.7550381006866709,1.3452058146948405,-5.442639905275743
2.5541718506876947,-1.0665686057307229,1.1059411536525516,-8.338517661624824,-1.2047098641514964,-4.535452867472189,-5.491148915074852,-2.347616949840045,3.6296475625602462,1.285317734528249,-0.2426819017606523,0.2488230173679221,0.9794648711398988,-4.487957008104007
1.1024829618073824,-1.596140981910921,0.5087601087024751,-5.8937235649595525,-0.9360184691929954,-3.482301127607281,-6.04721871721469,0.2326112031492024,4.586280657687139,2.077551884959135,0.3724045622112055,0.9220709854026224,1.062363453825932,-1.1257202862228677
-1.750215345387872,-0.8266334370125747,-0.5486034894549761,-0.4939028911972405,0.6733426052468234,-2.8553835212148733,-5.62292398418748,2.2415202655915345,4.049565792620341,2.207170730848105,-0.5620480560101165,-0.1250479088759253,1.988325414274355,2.955040686599077
-3.879558454017016,0.9854579867326264,-0.9699703938280776,6.243968515973579,1.9022104254974537,-2.3432775692690417,-4.656569984056986,5.1159239580129245,2.190692033063176,1.9457751911739931,-0.8461534986865491,-0.8305174317086306,1.5369973372303627,8.382075786326917
-3.752376977589364,2.9718660393718324,0.051817720930174,9.34618937158442,1.788263170897364,-0.9195145181599312,-3.649624091905423,7.468030429504041,1.6562163585314071,1.8395852164173616,-0.4433972266042623,-1.3667224623152436,0.9011626519102028,9.93533276333354
-1.5995782933028837,3.996489986444601,2.44129309626544,4.990562021721432,0.9927578523210172,0.3913999606308862,-2.6347446380333537,7.319294871817608,3.456708970087057,2.2821359709932665,0.2366911513255403,-1.427653862297947,1.4995440733807988,6.99484750447526
1.0009208951243096,3.42416687989099,5.21696832345522,-0.617733072366133,-1.0961005100272905,2.3994092981623054,-1.2282792091129693,7.180833267316424,4.849976236162038,3.203864695220332,1.3604616539204573,0.534184949609728,1.6394888289081255,2.3528008555164925
2.59754271832675,1.708451403734614,7.043953480010032,-5.470608322719454,-3.034950696858284,5.014372631844954,0.8095424455910205,6.509991502695093,5.557039425974332,4.122114005738126,0.9944952592416458,1.981588214305679,2.022949151100867,-5.493566953286774
2.9306756774291216,0.1487286704602723,7.018314088661185,-6.614276761725689,-2.9421019549668777,6.179243766922529,3.144869670321768,5.564240729132576,6.239131610264079,4.472255938924462,-0.1515370041329466,2.1674380195760783,2.7143498318337222,-7.747268692577776
2.7245225091157863,-0.1044327834592167,5.246643407181665,-2.3302085520675657,-1.2304850092239206,6.369635434233767,5.080321802916771,6.797655414460047,6.003233023197531,3.9643084210076296,-0.3369718487745828,1.7335062986441732,2.577493891680251,-3.604545135992182
2.7254861873646945,1.0673494859664745,2.9096845178368937,1.3286203326085024,1.1060582921273554,6.702380427704593,6.217860877576072,7.873543949182141,4.917778954475924,2.778084149071674,-0.6412029580056744,-0.571048289639353,2.5431973546762188,0.9378501947019524
3.1438797908609786,2.7742966070471766,1.7194551328779966,3.539714849673506,2.796045362694336,6.705414984060657,6.870459127114202,8.306467243282555,3.6790177637955694,1.5400708960906684,-0.2561899491755963,-2.2761865891269264,2.700816109972733,8.12157193512873
3.92378180815777,3.9504135958949007,2.947017244542032,3.234669767577028,2.0886721552314267,6.802756431051972,7.742041453930483,8.323087671471477,2.401386868639046,1.0636595187925977,0.6516648452691214,-2.0752245477279283,2.4855185342385937,10.939211190391353
5.158104894046396,4.136907786480855,6.4977085221524575,-0.0281945295838194,-0.1872931375111829,6.47154991763181,9.142645679677932,5.94948977019159,1.5580169280222569,1.8678648988859337,0.2909023443948203,-1.2967509011122689,1.892956976860367,8.301446268487595
6.87196710998272,3.5562033878184494,10.679505409986604,-1.255421192665782,-1.256782483612502,5.580154528640206,10.513970896674104,2.7561705117730018,2.645726793855964,3.67929238988399,-0.2561168078600104,0.4102298096045937,0.9924997001171054,6.031366735227052
8.404174871154197,2.657122970997605,13.053268675801776,-1.2830336643512987,-0.9827746358851122,4.292327350963927,10.781048322224358,-0.6484102338695605,4.264335208738133,5.349075277893242,-1.041419469505643,1.1707875675361967,-0.1051058288215237,2.242964073658426
8.403867207259928,1.7821035747330782,12.021244999972552,-0.5952803521527499,0.3706962182092159,2.9316500329671795,9.26858040575459,-3.060416203252306,4.676830588472607,5.500615410751337,-1.7281544839627436,0.442967103586558,-0.3910371764002605,0.5668462312323411
5.9042620787451625,1.2229837933000525,8.074978662674098,1.1820230236481817,1.5331594168913467,2.655647848527757,6.364878082848023,-2.570599799969827,3.996385289469462,3.6280620853039593,-1.010095804244291,-0.1296296093664853,0.5002199698833841,1.8857029419350757
1.5707137656113233,1.3026199937447842,3.622858895075965,0.2246805827359906,0.1952119224816112,1.7511991068338972,3.313104565776193,-1.6192934158368617,1.1117539370939746,0.7595564391136378,-0.0233430291612893,-0.9066281756972084,1.8477396022532424,3.349720349141464
-2.316628469678108,2.12032923871692,1.315710399673918,-1.0447717566494743,-2.0655735790991963,0.3923084137358448,1.2688369601811615,-0.0530143365411389,-1.8654389639058744,-1.0876376790900295,1.2771706612070797,-0.6629923013094781,3.8730360141123192,6.101473689530092
-3.4744066931394717,3.211286316420818,2.070499373024056,-0.9747883147043296,-2.9898956328745325,-0.7372283714669292,0.4035277793423404,1.0386433199403422,-2.334910448925003,-0.4515332931094065,2.1638226258130127,0.5140228013461186,4.668808161896743,7.539190242951096
-1.475817930007466,3.7068647150735927,4.3974337641642975,-0.9376847070375278,-1.7747385136926002,-3.121741407344397,-0.194516767655287,-0.4360299179757132,-0.941028848096482,2.273084531907024,1.449717842935067,0.9625914145365272,4.014681240681388,7.287274076198931
1.9033490259197985,3.0768466299110067,5.643875588136311,0.6993972772344086,1.6374407636363646,-5.539770085464744,-1.726088243948109,-1.6336665783704,1.4758959236486684,5.021007030528992,0.5887311023834156,1.2731343545322045,3.720865644736353,6.032144436947509
4.2246741138790895,1.728357578468838,4.157439983894484,0.9898460704199546,5.02493614751275,-7.889281639582286,-4.626537518214118,-2.6948893809114542,3.235205629149009,5.735138198120925,-0.4254566136909511,0.8366661269469229,2.3192291161601086,2.9523894916968554
4.385649948496436,0.6912109568409157,0.5766388077853755,-1.0250500702740526,5.377651186337423,-9.422611219466384,-8.103342099787909,-3.492700754118105,2.8673436408801942,4.121828933752422,-1.1020379338855162,-0.3446341872413629,1.8803999743472133,1.2065114666468677
3.2672208336773494,0.5574945694873783,-2.7865527984720906,-2.484803564692752,2.8699530143276477,-8.867025043876462,-10.659565827605682,-2.2225484052686646,1.1625882870854969,1.8679528081462848,-0.6298600310065321,-0.9648611695509386,3.2395294884652794,0.8265661942153552
2.588057143902901,0.7616400908145735,-3.873697360204567,-3.177147394747626,-1.1515866469026192,-8.249408511573568,-11.212814945416856,-0.7052699523256485,-0.0013831301275616,1.049060173444868,-0.1523379826848442,-1.020746949348662,3.4380125788183102,1.1261752875232212
3.211723933950488,0.0738172541751041,-2.464113096530266,-1.2901060433946785,-5.341007658634095,-7.16867086253464,-9.913463036369231,0.8794044468376911,0.0338025447459722,2.161950431903134,0.1561360702453649,-0.5349192999254282,4.623679215095556,2.90188978901447
4.512296880968728,-2.0643941774752985,-0.1666331474847346,2.8993316447756854,-5.962682109977859,-5.258830977914868,-7.960188275372296,2.671526700471413,0.9947910848252206,3.636961882574932,0.220645561372847,0.6308242034026341,5.743367278251993,3.081105386632277
5.2251716167293045,-4.70282784038809,1.023928304975129,5.683468096412538,-3.0272962983118674,-3.274561001714257,-6.517254174328899,3.694393072043848,2.240900173690171,3.345867789844121,-0.1321443605477007,1.6096465189114066,4.370596606472637,1.6106375120164595
4.778005726629338,-5.993358778444847,0.3062244591787006,5.661547762256422,0.1096372081339871,-0.0582568017084035,-5.642713222503941,4.96540589686744,2.658890431859603,0.7304165259370796,-0.3305138553517705,1.4256961331226734,3.863678262810479,0.1493218701688858
3.7795299808780527,-4.785886550992396,-1.467393444728491,3.79837394023344,3.784757374629222,3.964042895062872,-4.219477261020995,6.563812851636189,2.296376888190187,-2.472025054237754,-0.333133472975065,0.9086568179793322,3.178277864268384,-1.9883755295358936
3.296215278587788,-1.7429413395843714,-2.663053296612223,0.0536250373698286,5.077316829374608,5.589267725392356,-1.0534099711714688,7.161222407492199,1.5185822748553484,-3.6688299383792833,-0.2470151710044733,0.0371737666829165,0.9359733979783236,-2.281293791191333
3.722142490087984,1.0691189344330372,-2.2193321630546388,-2.9931592775632825,2.129286030464563,5.076739142621056,3.7879827497002663,7.0099797230677465,0.6708101783739765,-1.758644612783402,-0.0687876756965778,-0.8770459040077805,0.4274175566299196,-0.3976612408814908
4.34463040696103,1.7443207121047726,-0.3973928426820476,-2.192492223477116,0.248194871460343,5.486728545098295,8.663310909141536,6.311362378191493,1.0280229147728803,1.7614675047955035,0.0857123048043425,0.0936400406906434,-0.2187370374267622,0.8210233771239017
3.969982506986449,-0.1077081651423803,1.5266091211778807,-2.1877820565469905,-1.8137625466485616,5.919737371852665,11.48640727814102,4.525518087053213,1.847352696959912,3.9694335944552304,0.3540213407364037,1.1118557157407336,-2.5574785712770547,1.94774528710735
1.99898807057628,-3.261545637123086,2.239998335170343,-1.9414117202003671,-3.570494017465088,6.191375412815099,11.367647448664233,2.86030440686034,1.879153017592988,2.940774568627303,0.5596764993033894,0.9929972662882012,-2.9071786938980093,1.6143477458952242
-0.9920310009239977,-5.890206475120738,1.2748617168867469,-0.4598257558289114,-1.8125921792640236,5.946576395215322,9.284712794488293,0.7893783058557932,1.0839806878758285,-0.7170529276758746,0.4621552811507495,0.0531363548866958,-3.343472460987469,-0.775651158680739
-3.61502525054436,-6.71471939146544,-0.7528659892888871,-2.9955389871443368,-0.6652346505219411,3.131304607631137,7.152092097351284,-2.2892084965085195,-1.908588385888492,-4.497129090700479,0.2426318875330096,-2.99339961783903,-5.06944987144937,-2.064830938075145
-4.645192257710644,-5.501485036806775,-2.595040144036375,-2.4637333209400865,0.3739668610209813,-1.037086489154187,6.161108640094552,-5.403291891391969,-5.867495848743948,-6.105018896219498,-0.1573861025749311,-6.073939462476856,-4.506374454880925,-2.626119624852337
-3.8623962864227366,-2.8986116341750225,-3.1796643989983338,0.4941115802882578,1.6253206624814995,-3.194374093285453,5.942618737327473,-7.791969744774744,-7.583078123718796,-5.143733803874248,-0.4315878839608227,-5.9961179216639096,-4.41913265504343,-2.807831341623311
-2.1864355789986085,-0.0477531687724841,-2.297726989455928,0.5335977698602035,0.7835302319611415,-2.4869945145840755,5.266763666537663,-7.903682223820829,-7.098608279108708,-3.0426683780676385,-0.2231314172523514,-2.7409845919286715,-4.718921692744963,-1.9995501257482544
-1.0455257159273224,1.8044165941281487,-0.7588890875846239,3.191431409676272,-0.0477192965861521,-0.9863190008174152,3.4648967627211142,-6.979364880175117,-5.007104765826201,-1.584288515684456,-0.1869017459448233,1.2376019765354016,-2.805281553586095,-1.9195359387039173
-1.3932416596349917,1.804579943345328,0.1328059193713571,2.2980194336037885,-0.4989890597116939,0.6397079987229832,1.0889194943788922,-5.720856705872478,-2.465410097116666,-1.5115146001714876,-0.3515717006211299,5.208021578159923,-1.7767907153639453,-2.511450323321424
-3.0116268622473896,0.0721836364473986,-0.4949438278344829,-1.9155516153346224,-0.6074891665047759,1.041844711382816,-0.820416511745826,-4.254962696303914,-1.777899031986103,-2.330470395700747,-0.4507377712121647,6.43047040058582,-1.4905880253525896,-2.39623993459272
-4.61717254664914,-2.110008287645876,-2.395317305819276,-1.953611656986604,0.1576049808340041,-0.7031980065217661,-1.9929948724123816,-4.548830783656056,-2.73297518478794,-3.130584439330072,-0.6411208217768173,3.6890497923310432,-1.1000093173678576,-1.8541223572576973
-4.804978127454632,-2.978608658790801,-4.326239627263551,-1.7842494574341183,0.5062852278753452,-2.887343689108544,-3.288435614668998,-4.848404910819824,-3.8837249680147927,-3.410768649466256,-0.5828431961414721,1.622296999350002,-1.932818420041027,-1.321865076644814
-3.217576704263088,-1.600242184720635,-4.967331119840242,1.392296447322925,0.4100983619495468,-4.760583355027613,-5.686966522624751,-4.036765209794533,-4.103041990155768,-3.212307185649344,-0.3472162784240201,-0.3730080391021102,-2.747967116891885,-0.614501824510148
-0.986891218101789,1.2317785636483656,-3.928912910094855,5.417096498902051,0.0191491750431476,-5.816087549709058,-8.941515400962434,-3.7396807617423313,-3.309033348475874,-2.760979813731204,-0.4051244025978273,-2.104003782878041,-2.7336648731255933,-0.2912377860572079
0.068898859920651,3.444180325363277,-2.0282814376912697,3.7517823952061606,-0.5506111082196722,-5.324166144765959,-11.38695275533135,-2.5852460263251507,-2.245668572404579,-2.2351967718902124,-0.7798107190203587,-2.090126458847064,-2.586558708170041,-0.4396465683814149
-1.032812169609123,3.276486015696488,-0.6197239189458728,0.4292991169653676,-0.5892546805042589,-4.015038585105342,-11.294310457519757,-0.5369573837976971,-0.9939024609956756,-1.8632943265330333,-0.7934222892633312,-2.016650009804984,-2.1655675368007574,0.3412627613252589
-3.499332787774076,0.7119402254410048,-0.5669259903230603,-4.85747833979573,-0.7754271446875127,-2.742585802988468,-8.54346988871464,0.5644453507286713,-0.6843693131818893,-1.973748400496401,-0.3337826290319977,-1.8599772968301265,-1.5715312565440114,1.997269917464578
-5.344209281361426,-2.4980305695753664,-1.6995297224553916,-7.5691754657739745,-0.4811955684030647,-2.179190023553987,-4.922202567175937,1.9200692932788888,-1.406060679336227,-2.672620900426842,0.9312598803348828,-0.6372795782679368,-0.744053001074326,2.6402025843527874
-5.082944654127367,-4.2271201484848895,-3.096865348086876,-3.066508867169847,0.7964960316699631,-3.057729388802126,-2.6079771159683496,3.22934800345689,-1.756194586923922,-3.44326071670136,2.9496033753876083,1.3811823354674129,1.0622030667644835,2.434064176152085
-3.034061415623917,-3.5734083571560262,-3.831171496917485,1.9261597061701217,1.7905225004103182,-4.0687892432440576,-2.197165544812972,3.535852212741841,-2.354185930673267,-3.3065383466255405,4.216052862484291,2.7799172991570207,3.182222482831394,1.3564997376554166
-1.0139494006224652,-1.3785301284181806,-3.5363576081331978,7.783350632680191,3.484171257514773,-4.267838929935468,-2.20469280528199,4.386743124201455,-2.5028526356009944,-1.6734064733323315,5.13207624829945,5.125610513826498,5.719178765554023,-1.0338262307956834
-0.7151741371283826,0.5828847590436581,-2.4788048440692663,9.646638367027856,3.8160961226126138,-3.829234525366214,-0.614669660248552,4.048470854807562,-1.5130455354758736,0.8525673209427893,4.108141415901558,6.076275919858839,5.495945287959351,-3.1073053066585574
-2.307966725265878,0.9178924197324924,-1.2728629483030467,3.724775849971973,1.468410321145554,-2.5787723170833563,2.946652838908172,1.4933878778326848,-1.4916628621690924,2.656300663051386,1.1189220205829975,4.064175986972771,0.1995665057066919,-4.946639317857457
-4.5380901562649285,-0.5842548269978423,-0.5571419865263216,-0.5027198088373285,-0.1338490432132254,-0.9891191057577844,6.5426954927415775,-1.2947788121613504,-1.2096167196767609,2.320980329084634,-0.4456428806124861,1.962424740089714,-6.381800678247531,-7.168679362900133
-6.094366053041792,-3.049620879442031,-0.7876327020266061,-4.902902256345899,-2.416705272293705,-0.1662149102243921,7.511779000131945,-5.713103137595233,-0.7760920265216369,-0.195078179055482,-2.325160163539993,-2.572336579247573,-15.509425202558427,-9.44689905817547
-6.810512347878035,-5.190222736648499,-2.106244783983618,-6.804703064715526,-3.731008273815415,0.0231881826374587,4.888270524632084,-8.623810374908945,-1.1743549057161755,-3.560549036651848,-3.045830445477013,-6.465110326669988,-20.45301202538409,-10.477282354088048
-7.540103875794074,-6.00586670691006,-4.236977854699587,-2.6920403210616657,-2.4340781060323984,0.9124752771263988,0.4043036431067737,-7.914504916491983,0.0849633684574693,-6.250823981958739,-2.3436646500457003,-6.797816550781523,-16.561182244254244,-10.11635243429304
-8.945180469935114,-5.179215752756722,-6.48518457741503,-2.6119330938105705,-3.2793383330240324,1.336349225593371,-2.8556903553810398,-7.5566078821720195,0.6271323407250367,-7.693359394523973,-5.661982317825027,-7.924269266570451,-12.241465872263122,-9.942073795935244
-10.504234479526104,-3.0878691524783903,-7.947773087558033,-3.378427051717264,-4.1656152623497205,1.9883364772431744,-2.887122782095073,-5.783956484093813,0.093637909142883,-8.228228765062928,-9.845414062303515,-8.294558901894316,-4.578274383808518,-9.653935343490486
-10.764749273948016,-0.5045307859559873,-7.903191702926006,-2.8800496400974915,-3.406450211671793,2.999600848954274,-0.115048725524101,-3.8899335512557176,-0.160888013240518,-8.060308751802935,-10.362219932425443,-5.868870228335704,1.0327055187785568,-8.344381529546103
-8.614658363807607,1.8362562847619728,-6.179751879190069,-3.6116058375928657,-2.41981687434974,2.2078105986511307,3.331244040692484,-3.829213307101028,-1.5622518768793423,-6.544252820248322,-6.872249427300025,-2.62234214177041,-0.3405998420142695,-6.184995537238676
-4.401075198085424,3.5356037184829807,-3.2783181203823397,1.0372245098109862,1.1959532262941797,1.83054266472064,5.434017848762038,-2.332749633644667,-2.197328240319718,-2.8179723289316216,2.116624848130201,2.4732538556194323,0.5151441875632408,-2.252508049236877
0.0908049939960031,4.494474243445678,-0.1910074334946649,7.38928990127456,5.542160905286785,1.6571620996710832,5.419735199029601,-0.4764244694202645,-1.7138259302255467,2.740941528697107,13.613285221926422,10.265463352348243,0.2437775556837766,3.718861416076156
2.7705703248026614,4.632121832225162,1.957177145984332,8.91875684724973,6.525035751197435,0.3273773425031903,3.4691180472014587,-0.6167718528173108,-1.999256200194708,7.863253430893984,17.18651143446375,12.723831181842264,-0.438890860266764,4.922009175697693
2.5799132599322125,3.711874559226901,2.2748354320804043,6.497851904638663,4.860027586144342,-1.1621087477447296,-0.1495778303193842,-2.5518334575607864,-4.339775056090852,9.566014797145863,10.757226445932243,8.192251960056396,1.3004048936541386,1.059154882286397
0.0626515860724596,1.535940856575711,0.3968353976948857,0.3911560816039885,2.561443818830586,-3.526349851881223,-5.274873827624028,-5.511526855874471,-7.524625528187924,6.387179247984348,2.148130689193538,4.177457937139555,0.4503120808919816,-3.3395346393152847
-3.15359373623248,-1.6495178039110563,-3.324428576000721,-6.045281721782586,0.2915674417961038,-6.754857397241396,-11.212892417243856,-10.046220106583254,-11.480361138996727,-0.2742349929320672,-7.480219291423623,-2.609620945657416,-0.5154365465507551,-9.876365865067674
-5.50599590595871,-5.008048958694394,-7.821182183462358,-7.113557848542704,-0.5926870028920562,-8.012744966924796,-16.325330610353674,-12.39805491883129,-13.67172724267409,-6.993390731800771,-10.885178860185189,-6.717432079862585,-1.241388476580007,-11.84071440029805
-6.442691726360854,-7.491424129444926,-11.646850920183496,-2.8887057986460234,-0.0630235084409928,-6.796982721870398,-18.780716885566594,-10.44718579504974,-10.580590093922924,-10.692736387825915,-4.686878385793134,-3.062990212745825,-3.113348503211512,-8.197613469557036
-6.532546425003413,-8.45462422449228,-13.62099125039381,1.2698601264584355,-0.6979308269321266,-5.82657678634232,-18.0220613763602,-8.53518713388984,-7.492123694660299,-10.584355710130472,-0.9244057679745928,-2.8735672787006936,-4.149591568110607,-6.278972301865625
-6.716181284062256,-7.924053917024161,-13.429170625260609,3.0018091999919374,-2.4473621096570524,-4.8753160325476514,-15.432930479997683,-5.208549855961579,-4.647180769997069,-8.183021312602786,0.7713403415786007,-2.606588051591607,-6.092058279115383,-4.438995681502584
-7.312292514187773,-6.287143102579258,-11.694018539577112,1.8430541841950732,-2.8357120911550315,-3.96070120036468,-13.248615946586272,-0.8399055429610149,-1.0092286273455011,-5.631631959267506,1.7248799063970304,-0.1642392621960059,-6.037179327547986,-2.56089875200791
-7.610252132265445,-3.819478107449124,-9.371127721861257,-1.2640906778099197,-2.182953093506346,-2.998747025665825,-12.516468459775597,1.7553902745952203,1.023341058363966,-3.933470097591578,-0.5797662495760807,-0.7348431856166573,-1.978910818711634,-1.7047275900655732
-6.440902103248769,-0.6545252729443529,-6.927359722109505,-2.022827429493096,-2.0684825474713664,-0.3248719334395021,-12.036386667651058,6.0355337102823485,4.912255042797684,-2.512642029839382,0.3056395945910524,1.0875094566903607,2.447020782883923,1.3832800491835742
-3.284077287218345,2.759791279630197,-4.039457255669991,0.4561075566944969,-1.8425761882777665,3.902791173891643,-9.421679787094064,11.994565525186152,11.592714993803504,-0.1834028062529578,3.847696047873355,3.629477624296499,9.471560561247257,6.541951902434634
1.0627155139389792,5.374326344269253,-0.1436395590572479,3.0712884941485648,-2.121007288812845,6.7473685530279655,-3.4005652626826937,14.225147275188272,15.34579701927239,3.5459610087907123,4.381176123528597,2.3875289953761323,12.753495332506226,8.171498817979131
4.910937152297577,6.037894077504939,4.620823097384469,3.4246977517656223,-2.475013415346176,6.599888356463152,4.760853764040647,13.9874947864703,14.80968440227305,7.933335902366027,1.9450425769718749,-0.1119434084616733,8.918595064635964,6.46828847784592
6.8833574167849045,4.51537819406058,8.959874495968029,1.5062591889209216,0.3443167953354914,6.40298568991173,12.028557861584815,13.283191263453432,14.695650783636312,11.45112850291353,-0.8651776901924166,-1.3522980737954673,5.506612216066602,4.6377590367185615
6.8304173653510265,1.981587935813427,10.987505462626167,-1.9863676428566304,4.599888735018061,6.466388974120831,15.836955402767188,8.907679300791777,13.17584229434476,12.662312347756062,-4.290474209720793,-1.7166767641364609,-1.4809623556667044,1.5423727541565198
5.666549132891662,0.2686404165597906,9.474868103266951,-4.387500390925602,6.4473638289009765,7.244542536724411,15.80631846032759,6.721461520687269,10.745149104650917,10.901328021685172,-4.760554530727433,-0.3758780866812461,-5.267392806425772,0.8944428854126648
4.4004396932089485,0.3959738796741217,4.866472895650033,-3.237089055839742,5.271349098721333,9.794123773519429,13.62025758896062,7.06060521009742,10.381495652547096,6.562966302877816,-0.7080035600282589,2.1226895999944144,-1.3470542840361817,3.33622109135004
3.4223691879847493,1.7868673066995662,-0.7072365258259108,-0.4271703688360142,1.5614122977064877,10.377321170013206,11.498650507009252,4.568385329913558,6.3327827887669175,1.0742716481135377,1.4854000292533869,1.5291433621720094,0.2480339333447345,3.9568283941804943
2.762083462073045,3.010164714637419,-4.476269620323447,2.131616531299892,-2.727040515021845,8.426087612941737,10.751337217003936,3.876008229570538,-0.879130564760299,-3.4729632983098284,3.2018018014205527,-0.5278754885397426,4.7713483429355845,3.60692907749962
2.8697567291432016,3.3431064866691944,-4.489050798751256,3.3377345621086274,-4.058016108119353,6.156152953068941,11.404253928685138,2.600602466297281,-4.271816708315901,-5.134356098250822,3.7687954374704096,-1.858129956341104,8.778505542705572,4.310263179039082
4.775052279364401,3.543150706686717,-0.6144634281531793,2.377526011399146,-2.042337395507405,4.4086519773911865,12.68175457570003,-0.0632456884413402,-4.442560257979201,-3.161337939184085,1.7642127642935337,-1.7342549424954312,7.161483429525895,5.411185023393513
