AF3,F7,F3,FC5,T7,P7,O1,O2,P8,T8,FC6,F4,F8,AF4
-11.534627948085978,-15.958657091834503,-8.41022435846777,-14.24266179551781,-5.499373764028613,0.522982836186447,-1.5366980302010462,-4.3942488123355865,-5.736693449035084,-4.3454259202883945,-12.121083656882185,-13.118273327005276,0.0694640554230971,-5.986600307600993
-12.918879298119895,-16.290992434916184,-9.467428347260793,-12.423679224168652,-5.97661419707617,1.9055082526415528,1.5966654884512568,-7.250476767338174,-6.032887820460108,-6.55998168895815,-15.104896229169606,-13.28632835499242,-0.5984634713761281,-8.793038299108373
-13.673810056553435,-15.353559677550685,-10.171112231044669,-7.932768336303078,-6.410970414373098,1.064919133867722,3.873316424717136,-9.311906009256628,-9.984889396290992,-10.015978546048135,-18.718457071741952,-13.687039631465725,-2.124715720294798,-11.811959545101407
-13.270554165420627,-13.57541839169102,-9.996237923573386,-5.984124491869128,-6.499724270697329,-1.5910515819815745,5.695620689564948,-9.04556701982457,-15.762456827471777,-11.611261505128695,-19.53218289358861,-13.197570704086694,-5.691424368611168,-13.70193330793992
-12.080311933282454,-11.804571342263555,-9.48546050505128,-6.166463705957202,-5.858860756110758,-4.092686233620768,5.697081740514686,-5.472282357215018,-19.925494261388103,-11.257351960060866,-17.406569922839594,-12.198653524162388,-10.951818966738468,-13.333442599286467
-11.156104401783026,-10.722033351915268,-9.668678587062814,-6.480083086270392,-5.039358658360858,-4.641474633572599,8.777704855718929,1.0746946878300605,-19.76755357249918,-9.88738208530082,-13.82024468791422,-9.119441471076096,-15.933995321040824,-12.87250164368348
-11.356444030311923,-10.398520815672256,-10.90816903435822,-7.939069135061588,-3.8156445412482896,-3.106555529444318,14.839269584449916,8.720108630571048,-15.362542597485508,-6.687196696828132,-7.877340587181317,-3.6758066872522974,-18.468142021821585,-11.605460686067824
-12.547043408398132,-10.20809849505742,-12.296603340939956,-6.731294176860457,-1.57887257749551,-0.930092298497037,17.639827145047523,14.910348944512524,-9.539588438559411,-4.372904853402176,-4.27082022890666,-0.4941828573885896,-17.90331400294095,-9.70840026191453
-13.651225430626386,-9.186913084608854,-12.290405021815436,-2.4624306419976527,1.725264062496936,0.3797232778584067,17.793612282104913,18.004715241035402,-5.665659182661319,-3.01763339512397,-3.381480645788088,0.5347504239274615,-15.554415362014243,-7.348545681160671
-13.547182130595392,-6.6893865349031465,-10.07931369008545,1.6409637252394276,5.557622829535297,0.6952873596642632,17.77603956518162,18.36436377257424,-5.043287781239791,-1.3956200100114289,-2.7410027138967235,1.4156013578426052,-13.44465530298041,-6.606516274724164
-11.972207883329643,-2.927110422388072,-6.4042006140227485,6.4952238250924434,10.074982957510487,1.325635717274082,16.435371029473767,17.942808609104663,-6.126368505714915,-0.1474586673172485,-3.5887707601030683,1.1313222853538882,-12.493192011691947,-7.808451479212176
-9.58207149174424,1.041239131802076,-2.9908212845599103,8.9760491317969,12.769584421177,3.699348878055528,15.708462897784296,18.635443098785217,-6.154869096664804,1.217465627624566,-3.31271340011964,2.417958733665377,-11.86784537885358,-7.024074834294247
-7.169080926295155,3.939486353512663,-1.087481525832782,8.39679675590748,13.323857820186197,7.918055756349151,15.860995976705611,20.73745184247548,-3.659799289647285,2.725051821777732,-1.6754000394879307,5.544873432769776,-10.14561440973922,-4.626641185636566
-4.878218454610487,5.104193208531505,-0.4724351631562449,8.093325481729453,13.506838224128858,12.442740018695194,13.38671288002858,22.746784729588622,0.402635754485491,4.584476544372145,1.5074567284778708,8.246841787323179,-7.140162984333269,-0.1414016024255658
-2.214327886792894,4.917983032556428,0.174023831119868,7.182434736243724,12.62268948331475,15.116172991735027,8.566999978068502,22.58112056808516,3.7521883451136766,6.940307312259111,7.066529590570026,11.16564796808137,-4.492252332337582,7.355996430929786
1.2173070215044923,4.544332062737709,1.974800477181084,8.758015203381348,12.349033825639845,14.63061309455017,4.903211522025091,19.153870678775057,4.927122534162265,8.460619887069207,10.1121155872028,12.25758377582282,-4.249858799213293,11.111033169409746
5.062445333601961,5.188029147022988,4.926375325502239,13.539715384414007,12.943715714799351,11.327880788817223,1.9441216626217583,13.11966444831523,4.498434286811548,9.150683597391428,10.677328189835832,11.054779851013055,-6.691780824040613,11.071753672026231
8.392392395335506,7.425055055236761,8.152123371524805,17.893099101368755,13.259880519645838,6.880046777631126,-1.0144815783598475,6.396708695062813,4.467918253893824,9.058794216266271,9.466513418555037,9.807108555890364,-9.57202906704227,11.928929703303735
10.589804149822438,11.03359551727668,10.921238484238753,22.68244516322908,13.765497474859718,3.24879532744238,-3.3065347373933096,1.002692246648202,6.65175711884952,7.825659952569519,5.236554467882985,7.935092082954499,-9.74216845534831,12.2820449804839
12.06396170819196,15.331373458182531,13.299747893417688,24.56470602672366,13.972283847702782,1.6887526053860211,-4.631806705357639,-1.9366901726521704,11.484335020269594,7.488757303173782,4.622932914789932,7.813752460643257,-5.827225665335918,13.940169656138686
13.984623272460304,19.63512957636851,15.778204312408953,22.701492403907324,13.786776386995555,2.30604312987364,-4.797969983889886,-2.5059060869029715,17.921104341298854,8.066691519522948,7.798916343460913,9.96715580662126,0.4785689228625465,17.60522933726047
17.11950177034629,23.42163430683472,18.33059161429529,21.58250737551944,13.49228860842054,4.185393787898992,-4.032022479009719,-1.7027002100567348,24.07109676791211,8.84245216617285,10.78827697607468,11.151686196384532,5.7190232020369045,19.141289675461937
20.79387617976851,26.132215794854087,19.965082357265327,20.292966675645285,12.949125580828683,5.824139691277022,-2.1327142111153274,-0.8653597331746798,27.948705771075176,10.30831188772077,15.086187349558948,11.972462433066452,7.415798994807334,18.966410345468432
23.05592840195306,27.01011676225518,19.35894184030474,18.44181933318212,11.211451368321406,5.687111832423593,-1.977082078216485,-1.0852778737152846,28.17969990197846,9.707224860557638,15.002654255922412,11.432615851753429,5.79893854910488,17.379748906377
22.142013203588427,25.422026267618705,16.10751160804218,16.688935043622003,8.17747387298974,2.857420145905275,-3.8013635368782186,-2.728851492469534,24.703691056728346,6.835729186525812,9.696446709433848,8.888165632649391,3.1266131612336565,13.52171660142203
18.09675276056713,21.60652085168649,11.461969783738144,12.279600377854331,3.591182607175996,-2.3364229553671496,-5.244442972118432,-5.223690182988433,19.13787767598098,3.1163972688168764,4.174297612028019,7.126089050594358,1.4547061152979983,8.169204097625322
13.083497393342268,17.140726002908544,7.7748787861272,5.154752004898565,-2.903785008142,-8.143881687812533,-6.996449960929765,-7.346030224792004,14.205058821080598,-2.1717403170566034,-3.056829021948357,5.813949479422165,1.0043618594145602,1.0151410067903457
9.945423474545148,14.36136899745427,6.933696500222439,1.844309355166616,-6.51416668977564,-12.135825506989574,-8.689971673936972,-8.051597004650283,12.21777237078167,-5.25548939627457,-7.037048265164039,4.020451660079682,0.463224847170439,-2.8616709571898418
10.121442516268882,14.812252484948123,8.951291370104686,2.243729353301682,-7.026383822730264,-12.73769282135859,-10.028811530647488,-7.390642407547784,13.646188061907225,-5.7676548996617525,-6.740488787227434,2.21291653159766,-1.3852004898405568,-2.935035978270182
12.64956928094722,17.870419738662115,11.84873653678944,3.23493149708442,-6.85642580345667,-10.528912644720217,-11.767089280293138,-6.716234585983272,17.01841055676934,-7.198350065501505,-6.913971022520853,-1.278955527855633,-4.439351975593375,-1.5294978431348742
15.067205874987897,20.892099233863657,13.002122773818488,6.267805656397382,-4.801917195389848,-8.056245223866986,-13.74209713678356,-7.778974392587063,20.287739489959343,-8.67128931133467,-6.137268320257254,-6.637302100583495,-7.551731273448687,2.8274558994742733
15.369832109256972,21.07508251637061,10.974115810503465,5.750764736760785,-5.168709311488772,-7.9331478681405185,-14.99939797387632,-11.2712714417703,22.390343501794067,-10.388932913439213,-7.235386195774572,-9.78661465162443,-9.783997212283408,2.6217044851266573
13.33750678522205,17.641622000658767,6.452041926173804,1.0550136782275232,-8.382684675818334,-10.602164045992373,-15.546035613091934,-16.05288631453169,23.58278979317576,-12.835253315120466,-10.97451511916407,-10.858689593725758,-11.241232622403292,-2.7087460591055232
10.223024671673544,12.4488244534596,1.6030090498314662,-2.152005166195964,-10.399249644602277,-13.763363969604685,-16.067206447717155,-19.85514929566379,24.51402830923177,-13.639320749218369,-14.72412617740625,-10.800669528242302,-12.686494489468826,-8.407878237723546
7.291756959797784,8.382588229200163,-1.6127119321109036,-5.148617686299332,-12.19847871238617,-14.235219121914293,-16.36202718275952,-20.9649745959527,25.35059528536408,-12.849645888964927,-19.37818741736868,-8.649451751239434,-14.49127068347877,-16.348416089343853
4.616477889880332,6.864588789173467,-2.8506678317220038,-7.409686868375088,-13.279797961594028,-10.809222438182074,-15.371114873866963,-19.4511821246592,26.04100460676245,-12.197963659313595,-20.86441863005287,-8.436793283152603,-16.14203668602131,-19.38712983347084
1.1451177919476967,6.666109413647403,-3.463228245614527,-8.04810369375272,-13.03478123543192,-5.562301557222732,-13.06353822117988,-16.8883583825172,27.20789134666146,-11.246850111352568,-18.57027556097518,-10.30035877693785,-16.847233601366487,-16.5475015975972
-4.123030791873208,5.093558405045461,-5.256744450531576,-10.891053018922396,-14.252561539602572,-2.2999797926592027,-10.394161055357346,-14.917816332555486,30.086581139796,-10.510263236769411,-15.903544970905935,-11.784101419672828,-16.534299391484346,-15.142422128381778
-10.919657734849704,0.4916827721970058,-8.918797777642272,-15.737903684960129,-16.777777660273788,-3.361073658296342,-7.136980799776092,-13.99975097620602,34.83583150556699,-10.280019056311962,-11.763530463429143,-13.80128562218284,-16.057633840108892,-13.448465516579985
-17.479969168672856,-6.15964053393466,-13.31930734832634,-18.058768835566557,-17.909334931843738,-7.564641168928625,-5.2189768259106,-13.392843809710795,38.64827900756357,-10.22451462260907,-10.761343291568132,-14.384659638441246,-16.293134620015728,-14.338909047380552
-21.53234315249933,-11.93467770246322,-16.227270363983788,-18.30657324759525,-18.0356188657089,-11.137968517150776,-4.976240537338696,-12.158806710931694,36.04292240594185,-10.60021453048404,-13.67235796047106,-13.169429334751138,-17.07375968886993,-19.13464448514193
-21.808560617122197,-14.28534411513132,-15.944011038008254,-16.614954392718086,-16.706038450914605,-10.847844418714818,-3.4208982123377925,-10.107664709171528,22.13524574335792,-10.424575148968968,-14.752598080120054,-12.29404678854628,-17.213759452454713,-20.10858241290938
-18.967019530886347,-12.986160840568136,-12.652788591850886,-11.975056873157175,-13.33028311663558,-6.635282588361532,-0.967662842905938,-7.856453672401086,-3.215994031180119,-9.663062883464528,-15.096919485288216,-11.260304890681338,-15.751209353964205,-17.946063173487143
-15.193805368658747,-10.15125595139753,-8.42334826511299,-9.52286320256846,-11.049728207936814,-1.532349241325353,0.3725244931879112,-6.137862841860994,-33.87700835976965,-8.263435860660135,-14.12732580854948,-10.755096352013814,-13.147205694437549,-15.314151336842158
-12.692865861305858,-8.493696742255885,-5.769103718543402,-9.26999554915158,-9.742415477055166,0.9620892285568514,0.9794919577645086,-5.133646616639327,-60.29041117347132,-5.936583675832703,-10.83188496900541,-11.148538838137368,-11.059726919382978,-10.769737313384775
-12.158538524050194,-9.376863672485024,-5.806451042075186,-8.32983182763793,-7.9768291425104385,-0.2820898526398054,0.2195918235468314,-4.407451802177333,-74.95060418838541,-3.607745697730709,-8.980987781419548,-10.836829039647665,-10.718000008768268,-8.36271053204513
-12.423141311857776,-12.138044394782888,-7.488492957974188,-7.807321113343639,-6.390805396869964,-3.3621176730354394,-2.339388953868802,-3.361121393074418,-76.50700953511308,-1.191014297752316,-8.27368734888236,-10.035892961344352,-11.45520286953369,-8.467144412846872
-11.592073014578338,-14.942515151407038,-8.595140680098782,-7.566346758954513,-5.382465941941175,-5.2354109026502895,-2.644417301697734,-1.7302855293316135,-69.57605425702714,1.0751412079271043,-5.926743633222422,-7.784835328131484,-10.952641957422422,-5.873703693409566
-8.750900892654574,-16.260921871747183,-7.679819753267442,-7.413244466881668,-4.949081744466544,-4.345700465023692,-0.6852290973746054,0.2622909406608205,-60.77704563313884,2.9687223962055427,-2.493967016779842,-3.6746805017102737,-7.126107410553901,-1.3300944755575472
-4.812891344244113,-15.850002789871931,-5.283279028717908,-7.815408586384285,-5.028581401514496,-1.6718381877786657,0.9175061129836852,2.1220757851100327,-54.31137817800432,4.917704231945437,2.2069332950766047,0.9755376865526868,0.035332144541142,4.060834998396556
-1.785274074203711,-14.742827128850886,-3.3250067517754616,-8.723110574861344,-5.754126752034346,0.5341028580631209,3.017841071862582,3.443249180687131,-50.29938725234845,6.776530763467366,8.674062147259512,6.523126159093234,8.339146596462509,11.204363092670375
-1.0933687987893457,-14.472530792714448,-3.2389089328954235,-7.754399928968036,-4.8441697628235705,0.9397587748669736,3.606542666943624,4.156447341724819,-46.45267879922388,7.832246014901304,12.95795110415922,10.162025876389794,15.025683978570504,14.025486953188684
-2.397970459752859,-16.048560321753747,-4.586004257848881,-4.758042698801773,-2.1222627142608,0.176394140132845,2.228649320723635,4.5152894784321305,-40.98730987155152,8.038384800706629,14.961861285287595,11.455702307306147,18.68941742499732,12.071204472369027
-3.862231603620293,-19.16864009960748,-5.412724096342261,-2.6085731494345605,0.0479522690451513,-0.0692659308855958,1.7890486781815882,4.844741039597723,-34.1753781824311,8.41892749082448,16.564291731712647,13.004316444006546,19.96255804264501,12.345451400331616
-3.54514621409123,-22.0806122066731,-3.958381536755958,-0.8446322122660912,2.158201880084045,1.1979157952022137,1.8024891154910936,5.247256314327435,-27.63557985875996,8.845925680411467,16.817582875401854,14.055212613653971,20.708010840202533,13.646965497521922
-0.7112846586405528,-22.387374686157056,-0.0882303214984494,0.0385625443655932,4.2711108616442015,3.4812527302851564,2.9868224813523336,5.52604213678695,-22.54806763137367,10.41036851932262,18.40700691842872,15.33637302225709,22.64998477479505,15.39711667335685
3.895096165647312,-18.63800866216296,4.781315354200098,-0.5468609373146434,6.018131717712511,5.580690153710809,5.933759967816932,5.437272372816919,-18.611089024858742,13.436910124975856,21.59139267557898,17.203342322174656,26.4600840914642,18.79664105558293
8.735198758884799,-11.815385179115172,8.972722759376826,1.2519293165028371,9.699401776647242,6.9349900524218375,8.317656195100827,5.094800915676517,-14.515104039858368,16.010260936750566,25.81157186228161,18.401522500650643,31.60956158489224,18.295733086942853
12.317607967950792,-5.457406476071845,11.683562733734751,5.378425644809955,15.381683261477772,8.021232213109254,10.415806267377068,5.152897450128343,-9.24526717109976,18.418831984435577,31.867865708161496,19.174302931423124,36.735970774511074,13.790262291171985
13.597170434241743,-3.8094039286885177,12.99607964916012,6.234508123832404,17.741621146009383,9.467715773188964,12.03765577975772,6.504985400191165,-2.971764666524632,19.82509930784974,34.7922352252908,18.964276749254868,40.27756756970275,12.828613035370138
12.059453354344772,-8.919477902715201,13.090037785263494,4.266310081110537,16.898128131831694,10.99388082384936,12.696068917149203,9.616109892360246,3.1151214104934484,19.784590103726664,34.38469016328891,17.517027185267054,41.279883121186266,14.625569561392014
7.9383412853784625,-18.759374358882354,11.757055294040882,-0.9226115330684386,14.079430423144116,11.470737780213138,13.451097021850016,13.969594895215735,7.718377588804196,19.51295166122918,31.36337233956159,14.47258417911084,40.10743682065572,16.716810277447028
2.548871848543338,-28.046264741988168,8.80021917131787,-10.692808666073224,7.988387650787082,10.140828582644115,14.093283361252052,18.136430926299376,10.3322712792133,18.65995914247244,24.330250361705,9.503505277358348,38.499355815999934,20.5151534626784
-1.8963759951851136,-31.486319011013578,4.777140070423104,-13.622881197820751,5.570703013735505,7.7064603816093875,13.720822176860644,20.571420147647427,11.564694714418229,17.865989821022037,21.05378323173001,6.328443220100386,38.58869133025512,19.86950894223332
-3.443768658107344,-27.176994176746334,1.0825762882445042,-9.403948522883644,7.151782756264168,6.019110843920327,12.396614866655357,20.64931283550044,12.78172567201936,17.318043392809564,21.728654861603943,5.030653680495441,41.29440723344805,14.224570308636284
-1.9365970896892577,-17.646614396080142,-0.9400638149534508,-4.501234401962862,8.123031561931938,6.479819799068488,11.828694973494654,19.13640035338984,15.306421453859972,16.796654275200613,22.81949061196177,4.644818840172015,45.23277441663619,10.190009650659668
0.4870448658776523,-7.816344787527363,-1.0830862478056318,3.739757150107374,10.085906246797322,8.607194511084337,11.965943801926326,17.61032554393131,19.564652275822567,16.549550862546877,26.18999595731451,6.147955789988939,47.15828901505446,6.467621546279585
0.8307610750953187,-1.5537491621128758,-0.4614139219177495,6.728935483943469,9.354467423740328,10.193908761468704,9.917613505813016,17.161641081028442,24.64123633800016,13.902102984236292,23.507420374161697,5.886555316077544,43.85885086827882,3.37356964005676
-2.2221400266236517,0.5604453212741118,-0.5221239638174557,3.295247494711792,5.183852187011039,9.053404342670373,5.839399456841831,17.3929946987686,28.607513719772925,8.667284892200616,13.993444680064805,3.774612197199117,34.25344567361184,2.0300128240646447
-6.833733488825066,0.8343418612638107,-1.7501541731461805,1.9365510393761995,1.8698647299727813,4.8775260052281135,-0.7281513809466191,16.611438423810405,29.57981877756633,2.1879556047488693,3.724460066301044,0.0918615013810061,20.186910717864865,-2.276076893991379
-9.17651906448904,2.206117545265576,-3.2866051730033874,0.5702172373509269,-1.5312479670647874,-0.4316983364944415,-10.557419822962787,13.160014339625,26.91146727162344,-6.243797305926241,-9.371550349308992,-6.16268147835903,5.3436786919902985,-9.36077350291879
-6.553894154221116,6.147120614065927,-3.8433276975493778,2.2615671099356165,-1.2734822525962437,-4.254134002617048,-14.232222717128794,6.843431796906573,21.680246404164023,-10.391461212573182,-15.993429419595016,-9.439206450421503,-6.923902125065911,-12.00105822716352
0.1253017856656981,12.172611262025198,-3.049766399784735,8.470108093682368,3.6622108455856073,-5.248271380433876,-11.345675338294956,-0.7141490734649305,16.048956256754703,-9.64846348962054,-14.695479171295418,-9.662782483144232,-15.321256426904792,-10.620050516621502
6.765232039427485,18.796651675258705,-1.9116390560592755,13.46020527350751,8.127421798355849,-4.113625366679678,-8.795072969933345,-7.04866937181583,11.926587908871326,-9.376135400293354,-15.237284726770074,-7.889379420456815,-20.795734975095797,-7.643974770905343
9.168561375804122,24.689041763158198,-1.8824432105296651,18.23862956329112,13.181637652893514,-2.561130074356396,-4.450377950115689,-10.359236266732276,9.92343179725508,-8.062132284369829,-15.28303398025172,-2.672971180038048,-25.27730797285802,-1.5276668716222874
6.202199364445521,29.060850878910667,-3.4047619263189257,19.18292597855634,14.702739375432754,-1.6012510333761802,-2.466429937828945,-10.417426103572549,9.33951197778682,-8.349644409160302,-16.80492968471315,-1.777904559457043,-30.06370644304947,-0.673713966912833
0.4114893402499524,31.366421462502963,-5.355055254654069,14.951365983254354,11.472226861679452,-0.8211298368555242,-3.973660530205551,-8.400247036443071,9.056502483562168,-11.12541254235556,-21.34714211654808,-5.471660281857184,-35.015777673441065,-5.766339499299237
-4.252890366655995,31.084061133896853,-6.009640105675686,11.08756685751644,9.91422116728888,0.7495976586633393,-1.553619537857824,-6.020746937786751,8.486330679134015,-12.05984852049072,-22.5633701699478,-9.031112485276717,-38.9602410498305,-9.63784685280821
-5.469278897311504,28.038145189769057,-4.674895511671786,6.426269398015965,8.886527429051121,3.2158828013152565,3.844133918019281,-4.642317366488207,7.801013707365566,-11.88550808604198,-21.12729049774139,-14.235865866126773,-40.772282729928506,-14.228515866316751
-3.813899908719501,22.926229647674734,-2.43127093755525,4.414670278046042,7.897859078791788,5.407425534802738,6.122653901680819,-4.775719623865772,7.405399648643187,-12.329981700789991,-20.547082939117978,-15.410544847968632,-40.2237394090524,-15.352824965251754
-1.5654826334677114,17.341620516714084,-1.2392902376703363,6.237579022923247,7.993643199179773,5.960958052506398,6.143429751832293,-5.99577555579261,7.299081113039551,-12.814214833478962,-19.85747001061996,-11.672297150090742,-38.01880153475784,-11.705805643974315
-0.5085773674563994,13.025624159717948,-2.198764173544405,6.702476113433392,6.359735722773089,4.784828044785341,5.047501557843133,-7.235236641164623,6.982732094489598,-12.94875993673894,-18.53030446242267,-9.300724881852588,-35.14042534111702,-9.17830782461476
-0.7227941336128803,10.862328549816771,-4.545272226476184,6.864771984729812,3.112251532631616,3.345299437236465,1.6883454318863058,-7.434798252149822,5.949319585955768,-12.881970207269044,-16.976553339340313,-6.927259973555678,-32.13110015345589,-6.546647686867037
-1.0577487577957465,10.448850372556407,-6.261137628860899,6.664044742978405,1.5616401563673232,3.368530297199788,-0.3230848499611753,-6.33121390395555,4.207039759379927,-11.696556084822614,-14.804481976892705,-5.699512677763736,-28.896870067593632,-4.788471092496251
-0.3983869836127676,10.604392232993415,-5.691857753538407,5.292787543241546,1.3729350008819106,5.138279530068606,-0.9090498453343054,-4.848342741256476,2.28518555738992,-9.246742018563928,-12.015484092644884,-6.677364299832713,-25.125712998245067,-4.900243020638997
1.5622655682103377,10.374829423556616,-2.7339633664294487,4.183110265525454,1.1265901384230956,7.013877856274125,-3.380907751637509,-4.600149404837241,0.7424487000247884,-7.307209907519945,-9.736610125399617,-5.946462494172338,-20.86456346791334,-3.567977342750145
4.462387132807202,9.69058185577736,1.3075632406478794,3.053460741113172,1.420148907559551,6.684085020646013,-7.074181730055666,-6.641328473584848,-0.2740934128682755,-5.726798364903353,-7.993594654688851,-3.967603023176264,-16.667459180294934,-1.2370476472572165
7.763113398086483,9.180988690751434,4.840217576443315,1.7217725035214717,-0.0368509316282131,3.099048140860482,-9.065963279380965,-10.34676956004131,-0.9353299259884652,-4.623447201802136,-5.898650949207976,-1.684957586941738,-13.151428267745722,0.9657755060876596
10.92826901125954,9.395864245618222,6.99154720019348,0.3736253000190002,-3.553296738039119,-2.563633133704873,-9.602459613702344,-13.409698287407496,-1.2240434271046556,-4.414594230733635,-3.691542194074899,1.591624589152396,-10.409805466324194,3.555016576790239
13.262854117927244,10.158723639777024,7.763335229905127,-0.7849641769911488,-7.100013480227768,-7.683760410009144,-10.160078517329282,-13.165642522613728,-0.6482147475363629,-3.288979603985505,-0.6385246680300579,5.698591123321413,-7.9280500398709375,6.049692470902576
13.89572095661686,10.600649210450923,7.517742523009192,-1.6910120105716029,-11.259830679331706,-10.047272640845922,-10.18007892404008,-8.373806197910483,1.3580674226791811,-1.3244026505362922,3.447231515856989,10.726463962643834,-5.155463462461795,8.356933491787204
12.218292151623023,9.806690579156442,6.515620270352727,-2.649064074551465,-12.89320768540265,-9.264014445842555,-7.405944226537366,-0.1532393388032398,4.621737856629721,0.18264376005377,5.966525027443706,13.633215267151163,-2.166649583151676,8.639958609887511
8.497393822955818,7.504600920929716,4.956694232634697,-3.5881730500412097,-11.453941310957555,-6.7132976104696045,-1.71254490872531,8.620638375002407,7.855693707088163,1.5436208197701642,6.953330194659365,14.143184295435836,0.3219230628374561,6.545377748318835
4.04130992974452,4.236469730289315,3.3049685637841906,-3.9727863899456177,-9.724646893384383,-4.227995739730398,5.92005981610641,15.005352088793083,9.30399276212306,2.340716496857934,7.33468723097374,12.91311165588513,1.6630071873113526,2.890473820016165
0.5916867174444578,0.9131326691183768,2.350436616449866,-3.7899148332350414,-6.825655360008919,-2.71320073238568,16.12154281447805,17.559907520587053,8.039650569236796,2.341011092420706,6.504300703747438,9.003537215190917,1.9760604038741088,-2.962100592163816
-0.7295563798536531,-1.8430513634766377,2.76130070582603,-3.3651276162142887,-5.689635840549881,-1.8237770869868652,19.39678361256855,16.787207815919604,4.807580362363416,1.887075654629354,5.594332706164799,5.877086354954162,2.030614459954095,-5.432040670463931
-0.153182836802709,-4.013079792010014,4.468369809420643,-2.5709156961566504,-6.872801390120842,-0.8096857396836463,14.858177166173586,14.346575092778975,1.571246124555341,0.7783623455046397,4.637343951790324,3.5260571003473453,2.3798627089399824,-4.095273296639197
0.9252473307778504,-5.901482834628484,6.4943415756783125,-2.496087717624509,-7.533037286891368,0.4116506782670179,11.955110503795504,11.777876715652091,0.040041668205307,-1.3384755512418876,1.919180352320167,0.7225510161188049,2.687211876735979,-2.20788812912288
0.9828319385461493,-7.527917305452522,7.511012706539988,-3.270795076248675,-8.477866385418944,1.044777468133565,8.517340825252344,9.655689460017232,0.4065827435152398,-4.528730077879575,-2.428079695065022,-1.735347592097243,2.073186482606495,1.6740948601222094
-0.4922538544725476,-8.278668007435753,6.760971719423496,-3.4535115894985893,-8.485024222228267,0.2721992866940232,5.618297849987152,7.598309361276208,1.3782411316960237,-5.759476959668816,-4.576848891702734,-3.496748678457264,0.2283083754616885,3.459515912510674
-2.649056581984461,-7.24678618273838,4.61185151129035,-3.269890205024345,-7.116961737536385,-1.7015522271758474,4.74265817567207,4.876709691528665,1.4301591010954628,-4.864193165633939,-4.537545332445207,-4.415429712371819,-1.8752687886681445,2.6562229403780564
-4.02608181434217,-4.116497080345111,2.271076258719418,-1.6565664044640829,-4.883392159281007,-3.5286478930398157,-1.1345890014854283,1.0439022348492235,0.1091985150349392,-3.1930864756503285,-3.172489172805933,-5.421578424436166,-2.551518574934506,2.073189293639423
-3.838117568999121,0.1116471005404027,0.8704954082719278,1.7659166966195166,-1.2812455464624035,-3.7616428582071375,-11.68826007297248,-3.820522325329204,-1.7765718032914826,0.0582836867386432,0.5042329367610451,-6.392325661492053,-0.8531282175384955,0.6367458904247557
-2.749719972278967,3.29087970573119,0.6476760252620646,2.180350005898559,-0.0709373813433767,-2.1488095642180056,-14.843911129227912,-9.239921265569317,-3.1507621464800044,1.0776828063340564,1.1516066303744847,-7.379638137048367,2.446789705086234,-1.4997672476133197
-2.454934184690018,3.3018487121346483,0.8537315988755423,-0.4045481423510111,-1.4755827088517954,0.0467740198573349,-11.07711302141284,-14.570924669285812,-3.7813519882440936,-0.4398801928029432,-1.4603908042730862,-8.573198944536552,5.344355405753401,-4.166976158548079
-4.35164087732556,-0.5094998619821061,0.4058079521164792,-4.445257022063179,-4.49294361196337,1.0699304720286134,-5.789554475659494,-19.123662771201744,-4.399291517553052,-2.430264495280176,-5.481437456856212,-9.653814264270055,6.198439145404333,-7.844418111566671
-8.356003393221684,-6.713357774702581,-1.2743763032261453,-11.112833663479442,-10.17964875301038,0.1542387287496751,3.596209736280028,-22.21414790033188,-5.765968875989775,-5.888176481291964,-12.306326395657209,-10.705748430557891,5.006348453818827,-12.49119393795841
-12.804735892547138,-12.548977916738185,-3.8734968903854456,-13.396701724660163,-11.96840867482054,-1.872047804471096,5.777322582854574,-23.33015125808342,-7.726096739548264,-7.26163658386722,-15.83468608651932,-12.024969295848184,3.2110388233629816,-14.6441019633356
-15.518523322653351,-15.572539343949815,-6.462790175560747,-10.809422591370144,-9.514772295319244,-3.394570076484025,-0.4779555689016794,-22.453273885860646,-9.28349783835005,-6.186900255591099,-15.725222834460313,-13.609116422486906,2.2250992315127096,-14.050175437072491
-15.197599240540429,-15.039543626301974,-8.13872529157764,-8.265822059055356,-6.862072371814404,-3.467752434208684,-4.95040987037833,-20.29469941663194,-9.64622795681096,-4.831463518179072,-15.047088779736852,-15.290286240517956,2.029802095790181,-13.524769748337846
-12.127572116331612,-12.097125286196992,-8.532276274504465,-4.079539629859574,-2.434977460955876,-2.560362006341336,-10.345212906562788,-18.09800901358927,-9.138153400275293,-2.2595644872725797,-12.273115387150732,-17.136814783725846,1.1663105342818727,-12.239273515601466
-7.785793940634202,-8.789503049945466,-7.881938276375766,-1.400933415440087,-0.5187971843457811,-1.932905058287685,-12.25872532046658,-16.938644973491307,-8.975380671796515,-1.2643278662239943,-10.454910408035932,-15.950869140208445,-1.7919941794130505,-10.75267812805778
-3.7786795464690033,-6.707966840672071,-6.714232467763202,-0.9498310193905894,-1.775423379875802,-2.316327146688984,-8.968287456343575,-16.93875985485752,-10.071582211529323,-2.1913189375727864,-9.881506023391392,-11.395020847301955,-6.550463724197174,-9.428670546493818
-0.9290096478117637,-6.211482902568877,-5.413133050079512,0.9657959125528884,-1.9984401873533737,-3.2198706018445167,-6.814049147248577,-17.04621276346181,-12.049589031509964,-2.812843547308947,-7.3455125893087745,-5.236967565623801,-10.75959672949531,-4.854896319726032
0.935596660217164,-6.562546481549539,-3.981021069571944,3.508587498038394,-2.2629466011595896,-3.52870518344623,-4.3543023923493385,-15.675137692998415,-13.44473382079138,-3.8377730600706927,-3.4680778550447764,3.4283871060906126,-11.539482494319593,2.9936481092412426
2.527088646837865,-6.649978931338077,-2.140208872496172,5.012841100464835,-0.8874200870031738,-2.711878631875052,-1.2615155980473431,-11.789100248784944,-12.895584900283383,-2.1434344905982607,1.1694897640073196,8.30100685842395,-7.749708056148999,7.342311069063371
4.413122446866831,-5.721386819678887,0.2954886486668631,5.832900587434042,2.838499481868516,-1.336969809153222,1.6196159158211794,-5.579453765747644,-10.179394783103072,2.7967974804706675,7.040226722370992,8.76789227708501,-1.1021362585486214,8.449267146576593
6.560971053399491,-3.751010400222292,3.041389805601436,6.636093420193551,6.833657696655838,-0.3517024347853446,5.93433834436513,1.7856474066068395,-6.191551038583169,8.289310902675904,11.88291299315651,10.922763781529286,4.971084802976797,6.626942002386373
8.32811929009058,-1.3870249074878895,5.270781043226404,7.187062198198621,11.711588359074389,0.0311711330631404,11.528510161830942,9.03124708201271,-2.0620623057667085,15.201236907435614,15.542819396929486,13.316234339054777,7.918162784639621,0.1540048956869523
8.861244141246107,0.4037905674046853,6.000641456574327,6.251026908301272,12.750178109711907,0.5275309579817806,12.757868233881831,15.408270751977671,1.6222985236555107,17.97655777902833,16.518816550248793,14.549409092403735,8.010106141196792,-1.1855767017253591
7.678176379659492,0.8332920221680151,4.751586152403368,3.7703000438555327,9.261714197268557,1.7327927966530576,9.376551024008268,20.544496320455288,4.7964961287646215,15.805970314429713,13.955098943206565,15.334189752482052,7.924296059075507,2.7331288468880968
5.096136024090916,-0.2759724211590288,2.0246044872684634,-0.1151450572778179,4.135751053625717,2.9693318398746635,4.740704430930599,23.848805798175967,7.3231697751170275,13.54623751536424,13.099084410661153,12.503111834365356,10.250815644006735,7.814210294178511
2.1910054829447763,-2.366492377729772,-0.8260442598270505,-5.781274793645066,-4.019952412329619,2.4732796835283963,-2.5360766285850613,24.332079969164557,8.615658008976286,9.715817942113649,13.574265586980186,5.676773224764376,15.055926873454574,16.374847083754315
0.2229489870483125,-4.453050404935985,-2.346599104590833,-7.966574556872778,-7.974577004821269,-0.9479654515693684,-6.064728929939348,21.288501643380197,7.952850152891415,6.636192421168532,12.756910322926853,3.0008788474437327,19.665188544867323,18.35040144844528
-0.1339610553227674,-5.691332073498525,-1.891560690216972,-6.307253019744515,-6.998319280642489,-6.303986354254668,-5.047449794990839,15.298858465491517,5.184461527528444,5.027579962220188,11.595988427176737,4.241020685682732,20.89447292723853,12.882348533589855
0.8068047214004864,-5.806039862243975,-0.0332400940294604,-5.132508369542819,-5.6878563901820005,-10.597688827136928,-4.215070841478777,8.494327164045497,1.1068316117391055,1.8620158341986504,7.023916622859195,6.0290542041454325,17.76206407260372,9.20531402433352
2.054497861228489,-5.074248393808906,1.855022498159673,-3.220670084627062,-2.1341961822161197,-10.963749567400416,-1.86966870768284,3.561549739200797,-2.8885453296473997,-2.177837326961793,-1.4877211969144029,10.153936189728848,12.281807676913507,5.061276585274455
2.7360337806387327,-3.944256768103581,2.5612322071410905,-1.972380847427836,-0.2839760084775312,-7.030326960355971,-1.2202840976140437,2.113578865900958,-5.596845250201466,-2.786612821506546,-2.885442564042013,11.66158351495174,7.709755749208044,5.006978293450199
2.7339977384786858,-2.681970540024073,1.8532821632759504,-2.0336768320495677,-0.7115470986014999,-1.3879273950044304,-2.9202597550251985,3.706876321595143,-6.5441354405318695,0.0512652849887927,2.849604123932148,10.106025757730343,5.94280856082247,10.776621840988058
2.66113198114666,-1.3496432761914632,0.5772024196193448,-0.7702734637553438,-1.2327392707332754,2.3548472722102805,-5.317210094045177,6.299215339974804,-5.9119312755279285,2.9042637546911827,8.678375702156861,9.487738510419767,6.43415620171888,10.24571227574036
3.231208793362193,-0.0369004783102382,-0.0120097176520417,1.3835112704962853,-2.970451241998325,2.3184446044425657,-9.436462340350133,7.762800601354806,-4.086995878761819,6.668124808576202,16.965881772714397,8.655650505973256,7.388831162543973,4.33070009570831
4.559523365794536,0.9973157829706394,0.7938840176368682,1.5282954699007192,-3.419740857963069,-0.4064315049005613,-11.062360982047364,7.248602292015407,-1.4024482084045298,7.38096628415592,17.995878618603406,7.130456474968463,7.760796563105011,0.9804998626985788
5.919497563148474,1.465555423346495,2.562406231385946,-0.172245107495012,-2.376443100929704,-2.9802340679464883,-9.911930895037496,5.432808917565204,1.6808745542533394,4.183220587979133,10.141860090287668,5.308887509512788,7.949751197202648,-1.7880148421626023
6.097233743001759,1.3051251348434365,3.88992808017041,-1.6314944737170665,-0.531808791019985,-3.3017297660303377,-7.779877605646891,3.658465768782436,4.311725746388088,2.102400795510375,4.499185737328113,1.9930812430359264,8.665944490470867,1.216836524960691
4.107155372739838,0.7335989991639771,3.266151245235473,-3.3752623887814512,2.8110252303492635,-1.5645895883856396,-3.553224018264168,2.811709983529467,5.4563037561626135,0.0947200469385417,-1.336635982458357,-2.901498619495441,9.469294600949226,11.672097811186124
-0.1172957029854533,0.0502062970344683,0.1348842262084204,-3.689420136253772,4.008225118412389,0.3214273333028843,-2.575439177437558,2.799145622446708,4.6154684827444425,-1.360198193759045,-4.731506565613774,-5.6192750541631264,8.804920354739533,13.395565190040177
-5.418687527396252,-0.5512575060805203,-4.523596596795161,-2.104100385299007,2.8975026873227496,0.6744380989316805,-5.252587316475988,2.851790889933472,2.3943137288544207,-1.436430729157539,-3.745613940780045,-6.139927525477489,5.625356962505167,7.0443185052000326
-9.749823608918698,-0.9210017824275294,-8.560071471464868,-1.1989108782842035,2.544517037901451,-0.5331670743913381,-6.941696916407014,2.222557560322997,0.2280226886270675,-1.3841794164415724,-4.256114064755952,-6.275751050257061,0.8264349902669359,-0.8428597268191268
-11.146685748777545,-0.7717488292255066,-9.88809740484579,-0.5143642586956663,2.1813651839677184,-1.9556180493343425,-8.845355927108368,0.6837750057703564,-0.6475399554813794,-0.774445147431177,-5.132734580409802,-5.151263481526466,-3.1941299067499145,-13.683942551519184
-8.914824380945952,0.2577074031814366,-7.865615689387146,-0.3874024149387259,2.467205517892196,-2.352730460082478,-8.349733965793467,-1.4432753814824313,-0.0715510595237418,-0.2527262873942256,-4.792112510803151,-4.583438499289797,-4.573908240677605,-17.394803523279013
-4.268645501575676,2.1797589714979413,-3.862248706003831,-1.2932198591181636,3.885099684386971,-1.7270927175622948,-4.586893488956423,-3.581320228687522,1.1372883763361088,0.0462239734539182,-3.987332780795796,-4.767824260011303,-3.605502675858856,-10.609231589282832
0.1740417469948063,4.270945559441579,-0.4870019712906561,-2.3538671658386345,3.0697543303933643,-1.102730098016993,-2.8178213911119205,-5.201632171068892,2.087791074724148,-0.7640231136782009,-3.5158309192567243,-4.5075181188873,-2.3204748021423462,-6.864120624243816
1.8967140686264208,5.268310235128354,0.1191486476984291,-3.8234498631614,0.1000063063107193,-1.3332623934171188,-2.4105498052523044,-5.947278993544142,2.554204644638366,-3.0130434326089643,-3.39269857459455,-4.260665313935149,-2.500123435543987,-2.9769616554124307
0.0347891623602372,4.209259824638833,-2.242279788082042,-4.338252408108183,-0.5716433667507909,-2.1763162528994435,-0.0098409050388216,-5.594474381213658,2.8290861127876425,-4.022150244646746,-2.551152039446813,-4.052954578652106,-4.116444282117673,-2.186300556310365
-4.129476205330075,1.2840605018094635,-5.693574622506684,-3.678217770201969,0.6355348813945406,-2.4558436893601616,3.653076773874343,-4.000802595273033,3.0168401394744784,-3.95864096391676,-1.1485033410712304,-3.821307671930608,-5.63268654175911,-6.747835882906615
-8.09035359022489,-2.084187896466954,-7.651919666119323,-2.621499606403624,3.726053708412251,-1.0500425111850331,10.5061865270677,-1.1742452802668346,2.725661035663972,-3.219851302395463,1.9135575371754865,-2.120858729823407,-5.642444418233982,-6.208597252340182
-9.767916909833176,-4.105885871703045,-6.70925653232082,-0.7515342423150608,9.714855197472696,2.2100863094932635,21.301899547097012,2.5328332888452927,1.5999487378580746,-1.2052530670724548,6.957150817812054,1.204803575475862,-4.115505287875372,-1.5419230444899374
-8.695344496142468,-3.798578917233778,-3.5887887673906835,0.0501132054796373,11.655505611848882,6.391085403624938,24.561405531434787,6.266084342247975,0.0724003458493349,-0.610940263680926,7.612031687801839,2.43372053247556,-2.1811617195447117,-0.0547050092764281
-6.0127742547916725,-1.5855613874438532,-0.4498465177135493,-0.380982221332127,9.39383352704073,10.015634588289132,20.03991505185012,8.78824418801468,-0.6595154686801123,-1.4911667362944123,3.7073153469598856,1.6805185996318746,-0.9823923431988532,-0.223422448359943
-3.485306223455908,1.053672638525299,0.8611306134189718,-0.8089992420501435,6.46252004044397,11.846074649244514,13.698967535640056,8.976479832113956,0.3639554685949662,-1.9579660097986924,-0.0374885632264727,-0.8379079965467081,-0.8948139468568392,-3.4454199913375487
-2.381372693639964,2.5271211888307192,0.1644506010015014,-1.7095699551877974,1.2338375147708152,11.447424942563956,2.8246837259715467,6.478973247493553,2.794724321056375,-2.577214430615412,-5.0075910651351645,-6.071549545960505,-1.6974521945574228,-11.091691441173836
-2.9091855168080265,2.012930119597783,-1.1668578553011084,-2.020542639014105,-1.109146211077677,9.333882689783325,-1.156863814441194,2.058321884332342,4.965682841134605,-2.7091574341964204,-6.826573554101032,-8.03212439823772,-3.140384914739672,-13.184867753736034
-4.324592442744111,-0.1527575793540379,-1.5683184537090726,-1.5644818406565748,0.0233798745627224,6.689287507819505,3.044967770204856,-2.7378887915507084,5.108036316940232,-2.083158654426033,-4.516923382121334,-6.578897890216729,-5.097547169018003,-9.802088545174191
-5.41506892164727,-2.6572607192041344,-0.6190275206216178,-1.1157937525830972,0.4359652238863012,4.7689284935702565,5.823868823626381,-6.4498082434151405,2.7773425602007773,-2.1324372562753777,-4.107843398450994,-5.156400801774353,-7.240006461654718,-5.380506711028263
-5.086234302668837,-3.850423964012496,0.7879009389586411,-0.3766873556151693,1.4133497540932338,4.238241871569858,10.010008611226464,-8.513573988781465,-0.7719004762642552,-2.696592360869379,-4.497524747548232,-2.4014949402821744,-8.86661973432883,2.317094992273168
-2.93668013964529,-2.6413961829427013,1.430211568252842,0.5136134800438716,1.1113969223652318,4.809485148266194,9.744859468220502,-9.397472334654385,-3.5872477408418746,-3.2131396203504234,-4.701642601355951,-1.691165231495274,-9.32658911314932,4.665821762377365
0.3640300647477659,0.7367123149847394,0.8618671686916812,1.5013770568608242,-1.0776637413535783,5.432180777522602,3.4020714158054157,-9.989993602848978,-4.507492988466836,-3.9226058896733154,-5.638126263374657,-3.556095148754556,-8.664215058439863,0.8046446258297785
3.2592116699624185,4.65114137546956,-0.3420105032103731,2.4001821005906376,-2.9776725921645792,4.971180970148753,-3.127987823391935,-10.772413014257433,-3.880393429557799,-3.9727922359277086,-7.080244557154611,-4.399936331039225,-7.72697645144617,-3.449318790270769
4.2394905980064745,6.988953798582218,-1.220824155914757,3.1348083747225,-5.169882150048664,2.9778454815491813,-11.681083257754777,-11.439206274372856,-3.0063772709138643,-3.2478732062554463,-9.20116687819532,-5.040512445898593,-7.485188424059991,-10.306778577875164
3.054189179951326,6.638093502819913,-1.1585639259920164,3.8738347044143153,-5.377271694342855,0.0780288997341855,-14.074344789985272,-11.201206274584418,-2.932008173239728,-2.5104539553711795,-10.133371705027631,-4.1243013063124,-8.161081749049739,-11.206757727212056
1.1865328263151582,4.431235087391936,-0.0494067990524129,4.536905855325702,-3.1140039415377547,-2.293032801793384,-8.933672039676564,-9.450672144228754,-3.689190492815325,-1.5447933051361875,-9.761969849608422,-0.993203716739383,-9.0177953596667,-4.935439354233629
0.9297356339023216,2.643657614446745,1.989937100259972,5.859825112420911,-0.42899360256081,-2.7096525495652344,-2.1258674716181614,-6.27046414666993,-4.530375126867366,-1.4725708602642256,-5.48932901772101,1.8752440906235504,-9.033974143596057,2.118759598202524
3.5995327710232363,3.2577094146334,4.787659040325895,7.916366473803379,3.3564532546983736,-0.6923308968281194,8.741661255703374,-2.4968114732081244,-4.75672463028477,-2.4949607732727035,3.533767703796157,4.943722982896873,-7.837802682544291,12.292226455437044
8.37343245585939,6.353852769886084,7.918264103682389,9.77322896586152,5.098130355340029,2.819276567704064,12.324402671820364,0.630142903209773,-4.288013382908662,-2.4441796945568037,8.090809266585051,6.243930433658646,-6.038774015686499,16.613509212995286
12.871591377984124,10.0251009124762,10.517652614864016,11.579291987676728,4.306626993069164,5.857343826789245,7.2354130391901075,2.037496926842332,-3.528111565226121,-1.5168018194632238,8.451995265194146,5.171888695296557,-4.681552563871307,13.754062369046624
15.05328875302988,11.94681794537672,11.597387076462084,12.578610047844752,4.2790601954323,6.577909324992577,2.1133045923327183,1.3967643153372276,-2.8229529089074124,0.454921236627385,5.52277137648892,3.9452482345010473,-4.351147295679995,10.88398884482978
14.742390726601254,11.262927720868156,10.762473931990222,12.519666335115645,4.224209903933597,4.49096615551545,-6.018504176191567,-0.5627421935419079,-2.1286330076155373,3.975462902496505,-2.9978970252058192,1.916517769600624,-4.732304122154135,5.572474186468219
13.415617735297396,9.149424834971626,8.649698020213044,10.742279659309329,3.2093533092262443,0.8741600777553309,-9.533741375873602,-2.2980947595095778,-1.16932111484806,4.652382434121253,-6.0462166999660285,0.4871912401095356,-4.966274616295397,2.5489458610761666
12.539701352231312,7.614439982519558,6.535714980269434,6.829676034016135,1.590329638848166,-2.066816094207152,-6.983701030307828,-2.316311982122116,0.1715524330338098,2.3593276959238274,-3.52911099768376,0.0270309167408537,-4.428067889191961,2.865626007014946
12.111352841505912,7.672032830939017,5.342770795454053,3.586547248327527,-1.0793842431330862,-2.802178114098524,-4.75046297766538,-0.2189219057212099,1.6449459004776656,-0.0177958127630721,0.3928766871060697,-0.3811050209414554,-3.222247779087878,1.5565829674631235
10.793313543474206,8.517458991364567,4.903956149498768,0.8669783920641844,-4.941047329694131,-1.658641453591347,-0.6606576232985952,2.859378786082548,2.758240216569892,-3.463908303181568,8.344731182194902,-0.2570673695841027,-2.010467841952339,-0.0733167930913232
7.436522062206286,8.335744264903852,4.168268645569249,-1.1024808626425004,-6.377134325224534,-0.5720709731426581,2.520112271953521,4.923531128044672,3.0563308957430664,-4.0875447842363135,10.267935490011364,0.1160855201499623,-1.395854234484457,-1.6748554052983151
2.4439124452919625,5.9021986596485405,2.184379837890919,-1.613526763889383,-5.204838868344617,-1.4754546217360982,4.0216880731935625,4.547839881828782,2.3635948719610163,-1.2455197149558808,5.460536469778588,0.7425978426542041,-1.436402463271719,-3.813589674212775
-2.3488248891119827,1.563601470074058,-0.9942049330642444,-4.606463996498224,-5.132109693018577,-4.547372019095636,5.0742049538997085,1.985110639772163,0.9284999845339144,0.0934042816352794,0.1473408442286673,0.4328931198199976,-1.6747860249939528,-4.945779798010098
-5.120528198223113,-3.092171618714712,-4.242752913337853,-10.026016567464795,-5.427281343799185,-7.799290711208911,4.688608190643267,-0.9778193230714294,-0.5604248164587311,0.8317807248816503,-8.134302453862581,-0.9904305196602764,-1.5819208128451727,-5.077020224240038
-5.44979170420287,-6.396228773861992,-6.145565497025419,-11.277114019308286,-5.795045303785276,-8.489826577689142,3.6559090375722496,-2.353506968253045,-1.2092378451668022,0.546068764816365,-10.82745946094958,-1.851300830868696,-0.9790256020085336,-4.213303222337472
-4.414325375071501,-7.575259946097219,-5.942849333923153,-8.722991361191752,-6.820255604649247,-5.34615988494615,1.803352102966865,-1.415264797260054,-0.4574006839712474,-1.6578924218303672,-6.740649414134968,-2.4121363883556866,-0.106908819260548,-1.9510694772789468
-3.4745479472023746,-6.937903347312634,-3.9382832834681896,-4.531506022170166,-5.913867819981247,0.1900516513090053,1.5025787677342373,0.8720728410159104,1.361295500359173,-2.178182947182419,-4.042253683751016,-1.6408334499957544,0.6194026236088259,-0.693244437350003
-3.300659024941737,-5.398390801936237,-1.2047067354633183,2.721049022272452,-3.026389051779818,4.7801373383275205,3.0757457863451663,2.724521164247939,2.9846178221571265,-1.2314066264910124,-0.6045626898456579,0.8815503668921997,0.8870876353462602,-0.4589411916737738
-3.570546526471759,-3.82617395595242,1.0544736027146795,5.751545561706134,-0.7599502464872715,5.519244089575345,2.905786148619146,2.926162790221724,3.002804412018209,-0.3787668792167368,0.5813296486349003,1.5301501552263663,0.5995909250968836,-0.0579058250613682
-3.6845519270938425,-2.5906506439542483,2.054312566643098,3.9970041950982313,1.3457680096956488,2.007543923095735,1.461983417606239,1.6216731769513275,1.011684093531315,1.065558091981306,-1.817297388459015,0.4484666594031529,-0.1034249940024985,-0.0345471263047552
-3.486282124360274,-1.4404655016590835,1.7085306345578246,4.393920898786063,3.51301078691311,-3.400458687524578,-2.103934169790709,0.010782229827674,-1.8322743632119565,2.064694511271429,-2.024143439160094,-1.5934926688277058,-0.7779929587805086,2.0205380253801857
-3.2686796966267764,0.2384737122849376,0.6352834735447104,5.356052244014737,5.298955740904773,-7.289198797175391,-8.61225225575484,-0.6506141397416378,-3.495545777054918,2.454813279959958,-0.9465711223278432,-5.4329832698074485,-0.6317591612084748,6.378126042350711
-3.2554386016206536,2.8374814121497067,-0.1504569596656271,5.845818704078554,6.758752920945301,-7.486639393548804,-10.03679266668843,0.0948636975581305,-2.5873352883457112,3.232547567636927,0.0259010737048092,-5.8941237690716095,1.215835320072003,7.831371673568836
-3.3053376515476085,5.925266414584,0.1386285235328301,6.773156891176404,7.729089623617132,-4.322328088630101,-6.235797767193846,1.7547164832142812,0.5140050591111276,4.147505822390982,1.7930560706619316,-2.6988979635121964,5.062121405611672,6.650121308525768
-3.20519996792752,8.166680778058797,1.417758623140621,5.995173826258267,8.240871120841655,-0.1101192211757453,-2.3362106610139786,3.3848469026924644,3.918046581044587,4.626990434165241,3.225044974124505,1.013450599616477,9.958842124206065,5.013099407990735
-3.1050060818095915,8.064718156522602,2.632773959666931,3.446012509249205,8.199248620579905,2.5535557043384163,3.4305932846107337,4.269047860572366,5.676724407039952,4.741500326007907,4.286920775930995,6.492896234913723,13.805755039694576,1.8491773556702225
-3.4244356716235345,5.131571079728424,2.51199071785759,2.2792168496339715,7.345112738062842,2.394770819212086,5.048304840745311,4.315455166161714,5.204373137735882,4.05595169314904,4.639954630669687,8.266611559393226,14.531462217654056,0.6165443932739022
-4.230212356154439,0.5220258509259592,0.6830926100673498,2.222096555783347,5.598861370413064,-0.0088708260548973,1.473567541166356,3.988285968756076,3.4993841041646085,2.3934740218530983,3.9535507179328033,5.615663740249299,11.693697924800558,1.6843152387855325
-4.844300829758495,-3.580701910193796,-1.85310061569138,1.2908674636942852,3.984395520528326,-2.8757932317200474,0.1731716083228863,3.903664932125035,2.107010884648824,1.7239063662980028,3.0711777706358974,3.908696100808114,7.161859683912507,1.3940714159049523
-4.318611411621072,-5.493829828290815,-3.455742659494735,0.0080935680680953,2.484602894695547,-4.403416209435899,-0.2870100641200097,4.38696646404836,1.841912354606132,2.0302316141971994,1.7944048230190166,1.8093623039680768,4.038613295012109,0.5013290322363321
-2.4293901257428665,-5.229198143513,-3.2055927914754605,-0.1632944714456528,2.4157250570862128,-3.686754491882316,0.5987371554408423,5.275276633756734,2.3639961045945155,2.4134689304578747,2.2599837953507635,1.5828417111673403,4.436769321472511,0.6204936587151663
-0.1139129578194109,-4.2828602923717725,-1.641277520393814,0.655858147800533,4.1872685973656525,-0.952112383254879,4.112735392266901,6.069436920138175,2.799889900051641,3.3162470365154366,4.796266141280322,4.174227687269258,7.877554198079784,1.3385657980465002
1.2713827532868462,-4.185917371095308,-0.1868512312956358,1.9603041882097187,4.781243814607597,2.7871513723119143,6.514023074021041,6.301916990964864,2.664043246753618,2.78570307749927,6.248719842924023,4.902358373465411,11.723904503074472,2.838324416335852
1.2355411428369178,-5.148445358707148,0.1346265768368155,4.06385027829248,4.4892881455054,6.259664558470338,8.224890095528586,5.845061309402752,2.212725871184816,0.6201131640745289,7.070648043331342,4.398856801378261,13.345012854947877,5.3910106660260135
0.6565514166457334,-6.052596124775056,-0.5472192920079095,3.627543197291484,3.5255832472949957,8.355008648173625,8.316100891508924,4.955537071395904,2.0369198714382613,0.2149598256959864,7.182161589865593,4.305667701103621,12.15671221197163,6.5622217826987805
0.8950677995967844,-5.754951958000053,-1.3445471219835792,0.339274100523919,1.250086276573133,8.412231909719809,5.941620162422344,4.072288062730372,2.416848376461525,1.276818487435024,5.9630863654440285,3.8813406743294903,9.79784080106947,6.288393363073936
2.3492156545319887,-4.390305499179796,-1.5804288015976908,-2.608100630033252,-0.5742609608542751,6.473948718166552,2.787927758198361,3.5612706737513875,3.077040467317044,2.761154205333517,6.120310144746503,4.688920664257774,8.42153778130336,6.003326011300356
3.916343546691282,-3.383356445292325,-1.3081890564661975,-5.986868878784367,-2.057490052733531,3.4272867723335203,-1.695350254663746,3.578355963877732,3.504810336081537,5.337054701455228,7.577175430648347,6.956427395803897,8.770984783278942,5.147404064302695
3.958038840853407,-4.150328378995161,-1.0069317513634497,-7.837580567760976,-3.703704398011981,0.7412244229273774,-4.285217519480483,4.065712057493981,3.464781265210771,5.934111101385232,7.85413635686011,7.615074945992755,9.76598751461646,4.266287450553924
1.8708923147990344,-6.726896770807571,-0.9855375929577797,-7.517016929126408,-5.162068539047731,-0.3483550191413389,-4.529285677342448,4.79292146810984,3.207637933736745,4.3111489122200455,7.383640548332022,6.883731109528949,9.772982712616248,3.496569166922189
-1.2245384528786245,-9.584616980813747,-1.1839621553580173,-7.880191981595007,-6.415262907206536,0.193132561011442,-4.991580549094384,5.403311487053632,3.182262793146764,3.591514721656037,6.786317548453072,5.631085961752338,8.178851994225838,3.0356599310354797
-3.292354372035085,-10.750996490867596,-1.442377465361366,-8.339565921955153,-7.40799289665012,0.9154047101745872,-4.798517073893705,5.524022105397449,3.5211756379261354,3.127954979148657,5.67306616455751,3.2203545435408087,5.816992740534723,3.109226717609324
-2.9153788986506903,-9.215905519812692,-1.7532580547218115,-8.408757008158336,-8.430599561926678,-0.1756190205519434,-5.847866540881759,4.973631275283994,3.80320016026511,2.226058299455233,4.790972392687202,1.4853143248577056,4.0850275137235705,2.415097206137115
-0.2395622666903438,-5.522578030577446,-2.1553640658693665,-8.474523414209541,-9.460431120210895,-3.9423286184939386,-8.535738012227494,3.9445581073280978,3.3893025854409338,1.3109378748698186,4.18914300459027,0.5054793157696734,3.787044643016303,1.0096456581406776
3.28345503549672,-1.297313463933346,-2.4864619397804706,-7.679740818916266,-10.630215580752004,-9.078394985156422,-10.821606077925528,2.9349332665779637,2.097439103042335,0.2956255700620106,2.4126537691442187,-0.3506236684584454,4.690024376492085,-0.4556831477119253
5.885169773977138,1.6965153732525131,-2.4366327989608543,-5.993193601873269,-12.019661242800582,-12.81011176574846,-13.21393714809776,2.355771692897754,0.5628698278295747,-0.8110939149199091,-0.4684107913225059,-0.6171294821809489,5.847316711227108,-2.236868150008997
6.334701173667627,2.297922334053858,-1.958425669960275,-5.708789965690976,-12.08381931147877,-12.984683570040794,-13.409179207563431,2.0658463386332064,-0.2042544384963953,-1.7881709900475666,-3.2601910299747985,-1.944118468192816,6.110450086323512,-3.7453518349575856
4.2582496120668765,0.2627737190948096,-1.5735033234373343,-6.822007731577018,-10.745345655327252,-9.821271750058138,-10.90559264003104,1.2793806745599046,0.1859322355398287,-2.6127022781524927,-6.206019564713482,-4.409356843801397,4.505167774545608,-4.8810694742633896
0.1189658150016264,-3.707553779672619,-2.105498653198403,-8.83463310257719,-9.64079875117731,-5.723795288953044,-8.711427281996285,-0.9288276429172262,0.8722543493285162,-6.241143398589469,-10.200110552220483,-8.424723349716603,0.6448876520703015,-8.982575161949363
-4.88559811975836,-8.144618507079253,-3.929454216855012,-12.335350453986058,-8.464464794236077,-3.249481737163362,-6.226868923661805,-4.81552694773618,0.2424596945775139,-12.90228361858772,-15.134904791114096,-14.51877210567583,-4.757597606534098,-16.182987119984357
-9.09310478470476,-11.295141132965371,-6.389413410346135,-13.374553381883366,-7.781501717711693,-3.046748960090678,-4.283087069782089,-9.516803008749037,-2.669562237614347,-15.10521809523427,-17.208020822315003,-16.275601769334926,-9.797510971184083,-18.5308058701636
-11.005144119558013,-11.88906560649048,-8.00728817810084,-11.741374851694884,-7.931605531498697,-3.609932698218973,-3.44498368261274,-13.4197239212886,-7.077295968612207,-13.038311241098953,-16.228960242826176,-13.45547214015896,-12.278718549219182,-16.216140937074165
-10.080873049692272,-9.82279568492647,-7.466971479163943,-8.939122458618476,-6.290510254951886,-2.9609913578260727,-0.2266765139291961,-15.169646733836029,-10.724267238722785,-8.466616418373503,-12.943273364335784,-8.74979700258791,-11.282138505970808,-10.17195687849062
-7.108110630569012,-6.252381116467678,-4.664220198060427,-3.920554506458334,-2.9264331246573496,-0.5762569800819914,5.202712032625525,-14.566668541492383,-11.48052254115451,0.4131945180577546,-6.24664229750081,-0.522018482303097,-8.112005154707061,1.6234334082000996
-3.761755296905818,-2.94761902380254,-0.981954445617724,-2.0370443867266594,-2.684632635240257,2.2091192286124457,6.536685871686255,-12.66199109755408,-8.973109997378854,2.869368154182821,-3.743695928336445,1.080210209417359,-5.5698004908822405,4.211807912364248
-1.653888051063058,-1.3272426020753834,1.488810453611471,-3.654472257300185,-5.381646564338924,3.481226171059994,3.9822770522200743,-11.012289827399655,-4.888153723851337,-1.6784111420485532,-5.787900549479078,-4.798788190504486,-5.968729448618795,-3.064131834282487
-1.6156543498300433,-1.8158681152722664,1.2595429379259908,-5.3698475514728745,-9.76678572413703,2.317119720602093,-0.1790580496904384,-10.698670805479583,-1.7052780094769415,-4.792941170625403,-8.21259330371648,-10.794080055235144,-9.526418898013814,-10.637318425967973
-3.609752834277028,-3.828705265749706,-1.6234125824077044,-8.495715862698214,-16.970054042838147,-0.7373129825948954,-7.372645141628546,-11.81670992332178,-0.923296515438544,-8.866571572184622,-12.87457698881433,-19.409126862000004,-14.418504854290532,-22.004183641213164
-6.971430891658697,-6.174410863811392,-5.624353261698392,-9.028372712234328,-18.05570221679938,-4.337089884009616,-9.237677899420929,-13.669544416308677,-2.167387760595936,-10.02571498964345,-14.752889607161164,-21.367034686752525,-18.208586887059784,-25.294301111129464
-10.501455187276257,-7.508848832803844,-8.632481785715603,-6.365789348986462,-12.38888673571166,-7.181480211189236,-5.076467201716001,-15.338780022183014,-3.748807796182943,-6.894166105867581,-13.236241494551578,-15.11248903601661,-19.290756109017547,-18.624381459733826
-12.505731845280126,-6.742888433702229,-9.111140626834858,-4.114459648880145,-6.457702927842874,-8.341190698479272,-1.859617457702066,-16.149771734950477,-4.086571036710534,-6.05213062166565,-11.230653479927966,-9.177638910590716,-17.415045846718712,-12.981110331657415
-11.362874401174857,-3.533305063758741,-6.8350411493473135,-1.2386440181195226,1.8886933342347536,-7.328638878080385,2.374901306361118,-15.810914322971003,-2.853976541322041,-6.414618673495412,-7.362459079904688,-1.0644705046732823,-13.529592930281964,-5.249648389640732
-6.735811244849415,1.2483542955319962,-2.9220456395728807,0.5839105321246264,6.025458091877922,-4.42951911669293,3.5173907669607893,-14.341488749612978,-1.080104620851957,-5.791238758910378,-4.881606783566442,2.953646344462123,-9.53573877064376,-0.5121000387486875
-0.4618354344081155,5.608265740348074,0.7623640574248736,0.7864501862625063,4.705148204919968,-1.0731694267164915,0.339042027624364,-11.99478503018123,-0.2729079200665563,-5.121716499406035,-4.126874979354632,1.3319520114217889,-7.845347602834478,-0.5127987931493213
4.158914609789798,7.522351874483071,2.5428433991668395,0.5613244875078087,4.206250854717658,0.5971617491250409,-2.374686993398449,-9.236274118606826,-1.271240822984737,-5.362707173971254,-5.134130200231479,0.2705770180686715,-10.170180894650423,-1.4756014119507463
4.689866280058855,6.561947644157122,1.8172293224406388,-0.7153335695619158,2.7026726453305017,-0.7934379323102263,-5.895536639106577,-6.665961466810089,-3.619349462214656,-6.483807078706621,-8.949467658980762,-2.119565713373702,-15.848093374939566,-5.290118694475378
1.6952862396770438,4.672258472573679,-0.5680430867063126,-0.5992047373160929,2.8341292135852045,-4.404534633956894,-6.675653528254669,-4.7736044599407865,-5.8542202478434415,-7.877760540362547,-11.351318187231072,-3.611857837991861,-21.35421596078546,-8.296496654957645
-1.4576253615462529,4.992695900308325,-2.7598301762154875,1.1141605147143068,5.536060493384821,-7.3378876937832676,-3.7882449847380544,-3.594140582750885,-6.509281630998595,-9.776516106792076,-12.527424839580688,-3.384981592518762,-22.42805499050564,-10.215870708372586
-1.3576312571959033,9.249006832928018,-3.014362717680489,4.730242126842954,9.23998419958586,-6.718614638471266,0.259464816020189,-2.5354396556942724,-5.194673789540911,-7.815955109130793,-11.137875886980511,-2.752620081389288,-17.880810660089537,-8.644036114770971
2.4325124007193413,15.862523942632995,-0.8132433701514401,11.054597011536488,14.975027621417354,-2.0994601970205657,6.67549199386001,-0.6639292684343889,-3.030347498528286,-1.5072834714574272,-6.014804678405739,-0.8433755602397389,-11.765199372836635,-2.2339503968311614
6.926390143080948,20.727047395091184,2.8214303333352344,14.525686146553554,17.398381395819236,3.987572202206057,9.837532475433257,2.5673287080970937,-2.048768225340808,0.847387455185462,-4.243098643027839,0.7448043697477685,-11.110377800203509,0.2410435011062054
8.400658833521941,20.394746843625757,6.091706261258187,15.1256514721046,16.149749207863138,7.963439147600857,9.19461144586397,6.629262980347134,-3.820832383954888,-0.1132224826373839,-5.51841839674027,2.0134107477308385,-20.16115649546584,-0.6660716250091573
5.8073470450393625,15.091770279680146,7.714071148151289,14.187373078037716,12.434417329219972,7.990060160552291,7.905589041798708,9.95416772613268,-8.152769693083412,-4.220330933563264,-9.26839005116891,1.6330303347784856,-35.77746212534447,-3.5788485941712094
1.752425786089999,8.856907475195715,7.748038668143195,10.313595838055496,4.718382809523853,5.215977661581922,4.458561169956227,10.964330514690465,-12.828920819453788,-13.400494205073024,-17.195780542564115,-0.9408411039651589,-48.45373686227833,-10.441247545151995
0.1581815813768425,6.492230726128183,7.340032107918686,8.744300953691173,1.608171321595905,2.541359250357214,2.809617192533129,9.462468110632331,-14.79847476761638,-13.684634223294148,-15.485041492583102,-0.3134663638818054,-48.86922178291991,-8.2776138803409
2.8164815035936703,9.807152699896712,7.636354460493683,9.595312008663544,3.4365657804218523,2.1848133792141304,3.365133603278703,7.171714780030925,-12.176465595180392,-4.656907255918191,-3.5105768361082323,3.386749326446046,-34.86995992899668,3.5508060051136385
7.955904672128624,16.241853547905,8.77139854517161,10.623924432196263,5.550818554340686,4.202328625504272,4.090705015822738,6.678473779829465,-5.666344569523891,4.442749213336511,9.958900272505623,8.274481516457186,-13.051434093383929,13.582476081767725
11.926478498516076,20.864898162604156,9.745549618607074,13.072125881820382,10.007404982486774,6.962997963205033,6.049763732753721,9.382641005159076,1.7639919734828222,16.733417600270887,28.17779784766461,15.571883903708631,6.400731547339042,24.555249421521577
12.252560158821543,19.95150610534813,9.282062004122857,13.12961959818129,11.506291893972818,8.75008813101864,7.437884151759083,14.13861358863123,6.885671168133086,21.624301226404278,35.33090466048211,18.17483332346185,17.202722792509924,26.89290598933577
9.329096054609956,13.335340482999426,6.980189272662537,10.488273830624191,9.38393158791387,8.92274678670121,8.123408239270171,17.92065907198762,8.457652440768392,17.229340137694585,29.21352265364011,15.51394233424932,20.58720632050797,17.982962474575448
5.61232987560606,4.094324384701238,3.8526307968555855,6.952162318703177,7.806571366438263,7.89515609422521,7.501122803359618,18.15366931498589,7.964452827928719,17.11811159001572,26.143646998359387,13.856172328347244,22.52795064527147,13.289004085899805
3.4718683096673857,-3.6690496350942494,1.786867724063354,1.5186895662976996,5.4312970353336345,6.445191835236859,4.975995204762391,14.780988900086127,8.221476526310544,18.78193626351921,22.253313964545363,11.583690558511313,27.701655343033806,10.350292396002567
3.6974301211218368,-7.124972418622107,2.261071565996467,0.1518557045948529,5.501836640397424,5.233493317555345,3.599283153351132,10.234867390873973,10.95971877805929,19.483457139668744,20.672837911180736,10.554187357715469,35.72218060582214,9.722674131079335
5.542848274430286,-5.823947515438583,5.211551277584503,3.3860242019991764,8.725253695186291,4.767283528101437,3.169729328186868,7.300449582691623,15.359306660898024,21.232833765335176,23.998022727319395,11.769340479448909,42.458403591362,14.280925077490007
7.631981952060459,-1.5148668381417756,8.889339832443579,6.92157008052621,12.204248387564869,5.377391296778395,4.18055113888981,6.791545339920059,18.713317796898902,18.72395142483414,23.24420215006601,10.702350634873053,44.375148805598336,16.670212324845018
8.667966076753656,2.8361629019865315,10.88600937683485,12.248878376821237,16.89271422106152,6.911271098025882,7.396957119146661,7.154273567436684,18.639262157253476,11.673231500966676,19.66790716342786,7.905656552733384,41.51108747901834,17.81592309248903
7.722040796289315,4.421429840663272,9.699218323671618,13.713631354834272,18.175409061733045,8.495933184336877,7.426046974036408,6.314867014190758,15.026247822243402,9.153974368487011,18.788979326084817,7.015051993462166,36.73848812039526,20.528066940960397
4.605729083578951,2.032428268679777,5.799729541320287,10.40136107901168,15.34046634969014,8.934713512564361,4.278350874272167,3.9510000288395792,10.204952303230458,10.541227159191314,19.489318171992384,7.495092914377123,32.80312859967186,23.69113888088608
0.4598321666071454,-3.063712368950425,1.444001830429007,8.701073707289838,13.12139795389402,7.666172802626757,0.7420915546316403,1.9422667009748684,7.2988746961063855,11.20374598638266,18.632129521114276,8.047770474803796,30.373698836914457,24.58457905966634
-2.2141488991921445,-7.603404657920837,-0.7104456209388141,7.230038390403093,10.347647468455069,5.420475181714581,-4.368507948214721,2.4937780669187597,8.077080760749984,12.84255114470606,16.864264623122445,9.28020570178029,28.61934765106265,23.12358410424378
-0.8845973758837617,-8.300695472061324,0.6823960426840134,6.484811891830891,8.470123400083944,3.7675714165660175,-5.486612775913894,5.7105370828296245,11.855420555298808,12.383132438746037,14.476959756665892,8.761744003350449,26.977100869704152,20.14038933048075
4.837950527671147,-4.201314504102211,4.7490364289093865,7.479443384357648,8.266681609851512,3.7758968559014345,-1.932270721521328,9.020653687858982,16.08953488988208,9.150271745154514,10.937070875342927,6.1994280706783575,25.85999922185336,14.85722088796451
12.08423988127036,2.380592224755397,8.926417211951186,6.497185054191931,5.713081593917975,4.981332529006133,-0.1955967609685904,9.15964168225825,18.094249913954343,7.069019629738318,9.137971523609815,4.788311773686534,25.70235414546036,11.716585770761016
16.20901799053131,7.309903290797873,10.602470998081795,3.80960753759929,1.1922148772237082,5.720520489337092,0.9514330774215536,5.008243864815913,16.6755020028388,5.37341134053173,9.184926874255842,4.035740278062838,25.77327685162133,10.961904734838267
14.194192824699194,7.542398154087285,8.768388452240035,2.2355855000624327,-1.171178866631015,4.6412464965565565,1.733908952489136,-1.27126722145379,12.673470238566484,3.834602293134609,7.684506921474944,3.7478917866315062,24.349956920271996,9.042947337169396
7.2158872490954575,3.2757309088408637,4.5632018316490806,1.2233791121879865,-1.8281238789578251,2.045902975734273,1.084654872599494,-5.824083542926521,8.208368792022723,3.0630229203263024,5.135204892125875,4.507327428635483,20.202084064627964,6.944505454984819
-0.0517198980753574,-2.3432992622776503,0.378923837304693,0.6444304668282892,-1.5951002666554333,-0.2013908485587636,4.043282186610778,-6.007159573287606,5.243737776918374,2.857483568799392,2.741783161536576,4.655875164208484,13.884496181232208,4.07693226993063
-3.065231088754995,-5.64709987856388,-1.787197897634555,0.9746817867491436,0.3621901206344444,-0.2075626986118806,10.639559926380644,-2.152435901229337,4.444515140493522,3.445944855686601,-0.035257024426308,4.278035886151998,7.571050196530804,-0.0442842897678182
-0.9617853463890872,-5.024397790067854,-1.5598500876174288,-0.4962949813631508,-0.5171147441516144,2.256754486266126,12.332707530535885,3.050378870135513,5.014022250499622,2.2402529201856733,-1.8913616120897423,2.790855923766469,3.60118020000773,-2.7682207925554603
2.9766126191371,-1.7270474425451423,-0.2200895035416135,-3.837513526438744,-4.476605480937982,5.3352540756536,9.62629534164978,6.650672320840458,5.461513311666181,-0.9243825098288097,-2.638794610755582,-0.2561851551653643,2.944482461298968,-4.218581200228345
4.199911383595667,1.404528997235734,0.3092876513602034,-7.185957253878081,-7.697416586243169,6.300245959625551,4.970480197544956,7.122763408967966,4.618216689676999,-5.4236768317398,-3.170511690802019,-3.60132617873362,4.6039553778195526,-6.903015880188352
0.4900611069434433,2.007909928937164,-1.2950172964359314,-11.128243706517754,-11.167412139494152,3.4691449840367348,-3.4916672650793155,4.62051651144382,2.168821204860293,-12.003457135172486,-3.129936517360602,-7.531407560185961,6.134500498738365,-10.428272903041034
-6.690884705439334,-0.519795685608976,-5.086320046850641,-13.778585885656266,-13.35399427801619,-2.5890900728326978,-6.527196664921362,0.2950271732896565,-1.5045094807645911,-15.77352025738892,-5.08771354831917,-10.888015603377289,4.878579237943489,-13.784702202032827
-13.825059647689582,-5.130069806020961,-9.997981927771844,-14.757604113622133,-13.601936187785617,-9.361381646976945,-3.533804605569746,-4.31570521998155,-5.770859430477195,-16.488201659744437,-9.347124225159842,-13.382010516457074,-0.6094939234535985,-17.3537711784933
-18.115515900455144,-10.09669365712261,-14.52177460183569,-16.196497363377905,-15.271853837389394,-13.91633232887212,-1.4872657538436165,-7.55805441405803,-9.99526061029083,-17.039477514222728,-15.655620952979062,-15.980294027303428,-9.543833136702183,-20.203787568604472
-19.05424253656952,-13.975896564778935,-17.451451674720932,-17.59583759037522,-17.951150269657145,-14.587764811680064,1.744503993760686,-8.100866907293089,-13.502289909676684,-16.246367414712292,-24.865448499261536,-18.30547171643087,-18.959718951435697,-22.154880157858003
-17.96380914680772,-16.08007672454459,-18.35683251021208,-18.05927875375844,-19.186633985054232,-11.77064515416359,2.7791021740536843,-5.757736848167343,-15.598319481774906,-15.341348604714533,-28.30056612416194,-18.28819392210028,-25.1506523722925,-22.71968594252321
-16.514660538663218,-16.50573467637646,-17.65240383455225,-17.79056992233946,-19.40378019601049,-7.442618536065825,0.5537297848513676,-1.977016241956468,-15.905741796120196,-14.578309341951796,-25.497051273073662,-15.758362051025474,-25.86326564892958,-21.501441938337475
-15.66966457530658,-15.916817174571342,-16.280806031570425,-16.698844335002647,-18.226348589915624,-3.852364242240165,-0.8043767716334392,0.899677970181985,-14.775028673268256,-12.276644613640654,-20.51012086444439,-13.601432369898095,-21.79864777726549,-19.766862256980883
-15.595951249674984,-15.184385415505544,-15.181246115426353,-14.61634391414948,-15.150597438850992,-2.289944689733294,-2.328028409402341,1.3830217851174336,-13.257936334600211,-8.699842923466434,-11.096125288439389,-11.419096372746106,-16.216189705533445,-17.274950489370397
-16.055114939454384,-14.939813589735738,-14.828281291780662,-13.241819118490334,-15.074564018665315,-2.693815647363732,-4.291161871859765,0.0648443803613485,-12.457253286921704,-6.841161370519539,-8.004963170669054,-10.278986339358616,-12.808807254675468,-16.245858221740562
-16.623496237858983,-15.212986669872336,-15.0773948002493,-12.63830984984127,-18.12905797597873,-4.179895338027257,-6.201247323000868,-1.0190632643978788,-12.73147735839003,-6.698850032993249,-12.180612817544665,-10.86605205680956,-13.381496030778962,-17.10802116541675
-16.649394302831276,-15.390941080794448,-15.323803424753446,-11.614475729273169,-21.366203764500398,-5.901363866392712,-8.235950288950512,-0.4764478705688901,-13.490639184751956,-6.7088834109296815,-15.013107742783586,-8.762731461650597,-16.98482786533409,-14.767864018055452
-15.314353071636605,-14.584395533196382,-14.776282695540033,-10.552826627624118,-25.90905771565507,-7.49642221985173,-10.25706529395922,0.9193704986683926,-13.8265493443171,-7.5617098462078225,-19.06926269151958,-4.186367766400822,-20.935732885063548,-9.557637896361376
-12.034731895688566,-12.210796910072512,-12.689145360675084,-8.877400973085393,-25.44424421766867,-8.867652989718806,-10.77932744698846,0.9075739776301024,-13.412919132700596,-7.348893257676615,-18.803518143217158,-1.7292527058315297,-22.728960540395235,-5.5510936392690615
-6.966295790016021,-8.428905855203588,-8.604396966123863,-6.415520553198826,-19.14087831283348,-9.712733364087573,-9.598253675208618,-1.915667550246857,-12.818545211525356,-5.828623056428,-12.735300864188844,-0.779377215362235,-21.407397861915637,-1.9468032171324363
-1.1351586125984323,-4.142153475045422,-2.70118492037869,-3.562430325378969,-12.307131032579518,-9.451299205173225,-7.388258997196963,-6.400089831839203,-12.933064940423511,-4.136899040599412,-8.744526350790247,-0.5311960398105033,-17.682880929348656,-2.785838755080184
4.015087307767485,-0.5525294266270864,3.9095001938513274,-0.116232026882064,-3.2947716311159594,-7.742131193820028,-3.678814553873841,-9.593407904795065,-14.076505879545328,-1.7487338503736722,-5.359104904491464,-1.8519611123661783,-13.14288634738491,-9.186002800114911
7.368380151913509,1.4769784131460542,9.363604082267198,1.3864896077506548,1.4985314082047352,-5.09714827513309,-2.0613642074774097,-9.363906384357708,-15.676067949723556,-0.8977578690269804,-4.878569704331429,-2.3531987332398923,-9.339001578705602,-11.30583726912369
8.634598460677337,1.8731819710969653,11.914763848344949,0.6967733270131259,0.9023259621606398,-2.86699244637511,-2.8171484429848275,-6.431885128586438,-16.82165863893369,-1.8222564811672928,-8.844098857991234,-2.0293845527827026,-7.259907053284513,-9.8674723101958
8.288234727497098,1.3316000566613173,11.06646919424102,0.8281379088267602,1.3286885987452024,-2.38241564965612,-6.035793043719222,-3.858017940926235,-17.129585778544307,-3.6343137450054295,-11.632085531738596,-3.262394432924959,-7.18206724981913,-5.111152992067694
7.103188623311689,0.8135285347014038,8.058377445213857,1.2459566126329564,1.0498429347774834,-3.85614186207642,-12.873525250879986,-4.428392386598736,-17.042589434815778,-6.9813469071133545,-14.120512407277316,-5.663612132079893,-8.68692819554624,5.237964316526754
5.7016179780956975,0.8720521256548688,5.119789875632654,2.1711859628798287,1.64163401228423,-6.013824321057213,-15.840689344397775,-8.309376709633657,-17.26853107619045,-7.8611129440469565,-13.664089578303765,-6.109710134475989,-10.792588509645416,8.989579315428294
4.393411465579024,1.2859662569430448,3.9058561290333897,4.1562033643411205,4.027114288226289,-6.92535270635334,-14.863896679517154,-13.012471810832558,-17.92863966371454,-5.99259011703868,-8.98342449806126,-4.72598189053284,-12.297614538232802,6.085681257977063
3.259669677635707,1.323749275885003,4.337799698085057,2.888830652099928,5.262149551355155,-5.500914405501868,-10.484902563696444,-15.551244318662656,-18.27804217448318,-4.147554388381465,-4.7654702627088925,-3.4083434362173817,-12.307881503992547,2.106910338120593
2.293407594767661,0.5002180052949496,4.845540065624256,-1.7223145850145656,5.933060619078716,-2.4536006955023506,-0.6681894751859394,-14.80044506836289,-17.293585117420434,-1.3572426075946855,-0.0607428198827143,-1.5286981001113416,-10.64810385369396,-5.723001601936836
1.5188948914247709,-0.7689865321034688,3.850525260585081,-3.611188733399394,6.020229329490129,0.1449290591177554,2.426815266379009,-12.117486870328888,-14.579524155253626,-0.4392105878565679,2.3562444137905465,-0.4535603351193329,-7.838462933955347,-6.773436586997543
1.10023849073409,-1.2560005722849317,1.23310488788528,-3.390695137966187,5.071972139159037,0.45611950584416,-1.4392675243010928,-9.981473751679305,-10.757001074979796,-1.8961646846743607,1.4844870520328115,-0.5033775958377938,-4.670946320394683,0.0304483918105048
1.352538495482445,0.1444604453541025,-1.4919085115320687,-1.337516459043423,3.9014561107428367,-1.65858143288479,-7.621656762214778,-10.032129843862773,-7.019948059063303,-2.5555109372919653,1.6055594714094747,1.236054571323504,-1.805448626550768,4.710209877359959
2.48833446659747,3.31342916727688,-2.451995852237282,3.869058786681304,2.356235019886723,-4.531009013668244,-19.0987322596119,-12.076324462332868,-4.299679151019571,-3.1238241220257787,1.8540367845143295,4.527201280621297,0.261801285384923,9.708452891132138
4.1739793707872686,6.651758482359377,-1.0342306971817017,5.689590224503108,3.0018920827841207,-6.034311427051643,-21.280230045907224,-14.515012900212572,-2.737308371087866,-1.662460027707788,3.771467978597913,6.316098543861652,1.028750976780188,10.459533632294317
5.372646660704934,8.119953008810576,1.5665640926912283,4.098340608848876,6.223068810179711,-5.212763599964645,-13.070077593413377,-15.485553670984396,-1.7571094410283423,2.492681003449542,8.178890001748812,6.956303190260799,0.146082111409032,5.134741949910769
4.916755346512861,6.891077097574775,3.332151203238433,3.175428634128892,8.181882153808013,-2.791150363103715,-5.306408797097459,-13.78822605954052,-0.4912153686237737,6.046138660709967,10.8445894832121,6.614124118632138,-1.93959206087426,2.311853470971973
2.5465046482639675,4.207240721553806,3.0595201247136803,1.5510483588899735,9.41590444115973,-0.2189767151311308,5.47931585413941,-9.24423046613852,1.8201196228609813,9.549207881288172,12.194212130096052,4.640042314721517,-3.5311884514095047,0.661439725405767
-0.5724540489431877,2.518458631176741,1.242134280927342,1.9036770204784237,10.356611972297722,1.7379638800882722,10.52674119316072,-2.6694556978475434,5.551482985137539,11.181875990004055,11.977890854893907,4.295081087387799,-2.351817798973136,-0.2554409919501448
-2.604992072253808,3.442538573382293,-0.4921674109492784,4.872018766847524,10.295276225940285,3.491215663434307,7.920144451855707,4.366668504752372,10.453352688746904,10.176624205212834,9.262442109805171,5.607412749286447,2.646748273535314,1.081778280382298
-2.5948252754437817,6.266164718187074,-0.7852669902026719,6.215273394985683,12.245573397813958,5.822080326165839,9.97126428642191,10.07178385784664,15.535569142802434,10.298519408890444,8.39186036797076,6.336570590934109,9.736983392789163,1.805406473037148
-1.31873765864289,8.417843214367098,0.4657260405840731,6.550135358564739,16.259353478478225,8.70955986391511,14.554977365268272,13.24125077958141,19.37754139465768,11.01178181816454,9.230487281805182,7.153614522967339,14.862156795140708,2.3031170318203324
-0.4613191870875273,7.658985744134959,2.290769223515266,6.058277776248191,16.99852131112876,11.066758156262097,16.10002791874855,13.917109543827753,20.95660219831696,11.05507912064213,9.37601113278277,6.733149759488391,14.328199916201818,3.3547855676494938
-0.8339442869232485,4.125262863099524,3.628653486469169,3.948959252672004,14.756634724308269,11.68266030409011,16.189148346497092,13.29567102755665,20.50408734600317,11.014689402336144,9.680374647598423,4.693796561125237,7.839920870616467,4.52667249680168
-1.4911819318989288,0.3572032218749097,4.114170418478423,3.4019917038929632,12.893628891282304,10.402319907916985,11.67494482818803,12.794504353561663,19.593165845282783,9.77212121994378,8.22870682824855,3.606209878063303,-0.7321144804831405,3.857857662322806
-0.7769676503799818,-0.7883817388030243,4.053825846808596,4.3730620896536685,10.426565248229943,8.322151284006127,1.4743310959455596,12.983500636071668,20.142895103263168,7.167873707848819,4.629143851509681,3.176261133433707,-5.796499173790993,1.1358963909892903
1.7320136888648427,1.4825186567118145,3.8540757931833696,5.319718204969727,9.263983375919702,6.784857041779474,-2.456435342460038,13.302452038684091,22.986025973345814,6.8390136204336045,4.806151842289598,3.7580620485183553,-3.937898237339267,0.982017487308918
4.504810676591672,5.352057477169096,3.626948639242306,6.914231684091194,9.998486384118497,6.18086270434366,-0.3151780993839982,12.799105094900565,27.16694675938725,8.781909699696518,8.647669335108482,5.924441088477953,3.7804554876646144,3.180274847716026
5.490528376981152,8.115912591691412,3.3463638572248198,7.199698687471434,7.179916483896243,5.747989780766133,1.1815642453409665,11.164449489550694,30.620276633753903,10.273992886016218,12.15214969735955,7.200989724142188,12.82864683839691,8.020213452697451
4.334384720560262,8.541166884488511,3.234037432794024,5.92305147295604,1.075841362757785,4.527880407050313,4.536346217463124,9.087109559155373,31.733913112367823,12.046670558655237,16.488977275925404,7.745598139488518,18.529902198668648,16.696045644321202
3.0256569140579934,7.689002743351438,3.779455028516804,5.2634771860980925,-1.9735896530474653,2.457702162820487,5.514580060641923,7.636822372982458,30.541034934711583,10.702268055123891,15.51141001463252,6.589067262028352,18.97291760620591,17.718096993711754
4.1163034455544985,7.548739875370074,5.215785036875973,4.782502217191787,-2.665965547421118,0.4736591483469343,3.21301240981965,7.300045084201239,28.59614690161577,5.543714757448631,8.12516227831299,3.0533819649881915,15.478918253953765,10.65616891531916
8.12704704373732,8.910060100408794,6.9353559163468805,4.774945320478198,-1.210909732236927,-0.4305126759531141,3.3126067866762128,7.547715853622277,27.681739557145853,0.9170083275244028,2.3473732294759126,-0.650915623517667,10.806336220905106,3.377084585622616
12.684462718588042,10.548068332753214,7.55610575206998,5.621210593319915,3.7643556989134304,-0.1372347114784275,4.809276917517907,7.267198848395344,28.429708269820743,-4.048276482310276,-3.292664817202928,-4.947811068058974,6.986359894126364,-6.725393570975176
14.344234835326322,10.452054232325407,5.861305207191847,5.982188822630131,6.156237440638785,0.6887827489624279,6.021359239110738,5.650269300573875,29.96519566509673,-6.005312216934569,-4.717798510286364,-6.161002585962265,4.52122716156725,-8.870536011358384
11.519181662886066,7.854029640061713,2.001206667034946,5.999596752725748,6.028486191912948,1.584269126019063,7.756392166764442,2.852527011364492,30.80082290457505,-3.9180269212925554,-0.1467956353192042,-3.5645071636420957,3.100083406921152,-1.2463825608319037
5.901946964802468,4.110429724220664,-2.10483082842196,6.835509627105147,6.811168456946668,2.98092137742489,9.651609941846358,0.0024733939737604,30.16051198720497,-2.92966862638558,2.9179357431780866,-0.1992388260776192,2.6129630550980725,2.6650412181620053
1.162322555073921,1.6504675166226486,-3.7866448685087857,8.331930519669658,7.24335816195729,5.671382867601373,11.611947705289444,-1.4134702382167357,28.55926231561716,-2.0792000567996567,5.7970058335871375,5.048413505704311,3.2924552898205555,5.416076722658147
0.1077938679085992,2.0078487952663284,-1.5456894263074217,9.135813586702811,7.34103620698088,9.46894107443646,12.031279024055095,-0.4495537676773473,27.126466118990813,-1.9311760579722737,6.901152033648433,7.289877516894738,5.022671718801531,6.023743298439174
2.701609589953711,4.680842370200706,3.5739245651558056,9.350531642040256,7.352573580745239,12.539651708885213,10.625369934259956,2.5962649414739447,26.310902915989843,-3.391828443359997,4.7957217507473615,5.836797265551359,6.867774576772332,2.141013702830557
6.403858002432253,7.668169118068082,8.436623669248917,8.232900640888394,6.934707260744283,12.431144089688322,6.848261149742091,6.127702119328109,25.22122073432476,-3.326808929001101,3.3404686795919223,3.971413640023621,7.611592167824549,3.096921632258762
8.268719307910331,9.020699281402552,9.967847652895143,5.378264674216998,6.140242522373569,8.169382922559608,0.0263786621905889,8.029502149700825,22.31310217918768,-2.044631021577266,1.7290391804860106,0.3178111918570274,6.871152978627974,8.354581798970989
6.947177969908667,8.057986940188373,7.376486709126749,2.887864505059804,4.27367009984897,1.5456749777069394,-3.7683275900222126,6.945922487429133,16.849875528723565,-2.002265741658639,-0.3851370685436431,-2.8723021248846106,5.532019000940275,8.806394604486478
3.153926334708471,5.462647898457238,2.600155910600629,0.5433124172742626,1.2085757744911838,-3.800423191886473,-4.461369157513103,3.243633483122891,9.74787031675236,-2.790332297042061,-2.480047639587753,-5.262107714145623,4.842323974107611,5.719724813865348
-1.3689719285357786,2.5088212484019943,-1.4200407168701772,-1.9620118823170465,-3.0472072743121967,-5.003237762680119,-3.171620843955798,-1.124149937009876,2.925570232100225,-3.3635539658301403,-4.211140185156025,-7.11538391040794,4.97051886271584,0.0822459487210453
-5.2283114311187,0.1955900370807999,-3.1259605454536645,-4.212944450951376,-8.75779601599168,-2.201128243324881,1.7018601977127332,-3.920094945854412,-2.2995657200238,-4.084805990706214,-5.379615436561425,-7.698341076000611,4.590661377051324,-9.86308213503225
-7.997345828681082,-1.1932921096552018,-3.3045553302324224,-5.910840727653125,-10.969315420441848,1.5334108815389396,3.9928348054221297,-4.211917919075583,-6.261805885320486,-4.087261168394283,-5.943153339323612,-7.147458342027586,2.138068764987847,-12.759797598273495
-9.898661288541737,-2.0558609733130258,-3.8847325218825386,-6.88430413639411,-9.326106402657045,2.6045156714238296,3.66899198309532,-2.99271562980279,-10.43068053765942,-3.176377626274921,-5.66327537120387,-5.116837519341982,-2.392646078573163,-8.105487020553284
-11.164512606568188,-3.1164594903208345,-5.83131616333907,-7.43451370366548,-7.8960293347306205,-0.25987860660757,2.325438120001427,-2.2317180571839703,-15.817106529463164,-3.832429224481188,-6.6835633780587145,-4.792154267442901,-6.986856756191095,-4.381674033959901
-11.718315572564954,-4.8789734703611405,-8.14964919753739,-7.391779420656561,-5.516372139383709,-5.009048109514743,-1.549506483908557,-3.047386571505484,-21.843421790221136,-5.973103770727205,-9.067621734149093,-6.308597906184404,-9.159805954708412,0.9325057788829556
-11.304014260567325,-7.108791830857184,-8.844551278888238,-6.725791201877095,-4.634834584077223,-7.911623100084178,-2.103459809967484,-4.550719670917312,-26.78224660646029,-6.479030093661556,-8.825803770376519,-5.76526540993713,-8.147040410427087,2.5286707921432243
-9.774302189395192,-8.748002377198771,-6.81053466081106,-5.413316745152342,-5.96586122658911,-6.518021376846619,0.8501283232401562,-4.48123711850695,-29.365976424928444,-5.669533157129705,-6.174534258904698,-3.716154672258728,-5.590024244442333,-1.059799708255309
-7.2671415577298095,-8.549166040305213,-2.8707895694098475,-3.3170601594428004,-5.372768581967287,-1.597925405810381,4.466296985145382,-1.243884023911802,-30.050792562370475,-2.8619952594315725,-1.5802123284576708,1.011264545019923,-3.9613860039314943,-1.777792657867231
-4.23510863955439,-6.131869789010711,0.8725719620111132,-0.3933243545438527,-3.4709041687905167,3.442363201990048,10.132039474242353,4.387443908673983,-30.730267219953824,2.7112293071274083,5.902830091058618,9.310622263609346,-4.2036512919780495,-1.006936305859951
-1.3773047256391262,-2.600432204277864,2.6470114101677407,1.4209521470307616,-2.4863378552239968,5.1547013890158375,11.55003458351128,9.517677429739468,-33.12028772991101,4.98485157147086,9.177251927775108,12.833046806560366,-4.88039519340591,0.4020422855298268
0.5692055240993135,-0.0156930595311326,2.16779914033882,1.990931787375288,-1.8707061584265197,2.604139125520753,8.073037664939243,11.296861014984326,-37.24206535949749,3.949321991012721,7.910968678837752,11.532529913534209,-3.690462318542812,3.767479388028936
1.2166084060938689,0.0410468542542066,0.5792591108415159,1.779064598761714,-1.9662347404623344,-2.054463060464448,5.120950051933682,9.197563709025816,-41.33346561968619,2.0412989538049238,6.5835538429109,9.816141577114603,0.114280929679678,5.1938007646405575
0.9029522791206546,-2.328038110877557,-0.4865372859863353,0.2142917244862737,-3.148642371912006,-5.309104782590911,1.1784258555619245,5.3755725339595095,-43.24964158716064,-2.1612848880002087,3.517723480424414,5.808550927232434,4.757935158821304,4.729535549601768
0.6732179562250238,-5.4220634322247125,0.1008377419958588,-0.9217301493814548,-3.651422688333021,-4.895239826295445,-0.6367429049277153,2.7485152064961405,-42.13847589791576,-3.120048662136153,2.309972229183419,4.651611832174144,7.366858792156904,4.192222639407068
1.664672530922573,-7.275595648425256,2.46506594239937,-1.6476825771318115,-3.57788146818574,-1.2944073583246016,0.6238960794592963,2.4949621289241186,-39.01118764111181,-0.3923534116224749,3.616181407516173,7.040124267920256,6.439835475727179,2.763639623832199
4.208269422569376,-7.104357431440224,5.738836863170938,-1.047829585953532,-3.44898993908642,2.846967624836097,1.0013897415546058,3.2121612761112672,-35.84834259741615,1.6149394256804053,3.6082964814479936,8.221728269675248,3.0490294285534567,2.5236155671654763
7.332976852412461,-5.674033463380955,8.460482513822004,1.435337594664131,-2.8986532922742656,4.732797903964123,1.434739447334492,2.432769204844888,-34.10543385782155,4.190081208413675,3.1988691383489107,9.460758914373748,-0.2654540415226805,3.7320510715691246
9.177454716392443,-4.422972337958765,9.253240326933875,1.7183887542663483,-3.3526749163113507,3.275212334704573,-0.0471058569728137,-0.9556121107939894,-33.83583968871139,4.124220801562902,1.577405314150912,8.011066780105441,-1.7350948991087627,3.866179246536899
8.15047702390881,-4.244804558561164,7.575440354812496,-0.0448038208659898,-4.900026093883767,-0.4554953089292937,-4.179275478421832,-5.616674768174221,-33.9475606700444,0.6049978669450485,-1.8635620033114797,3.00888360942112,-1.5939107618218706,3.3608012508209595
4.074451274877763,-4.977312497786411,4.091470541628787,-3.238995529192316,-7.015303050369959,-4.266659043753201,-9.76039833956608,-8.939191625100356,-33.142614579252786,-1.0999942671666334,-4.581002666215812,-2.307774498436463,-1.306619754571262,2.293958868323453
-1.5035956101672774,-5.842753287289124,0.2773096725220689,-8.83381801421345,-10.07860159737256,-6.413326723380653,-17.59623374867126,-9.347286328870693,-30.73221272955218,-1.7534488330004814,-6.845174214108647,-8.811031188862584,-1.820288132682489,0.2253918719952316
-6.101954397969951,-6.225208469889299,-2.5493626790079382,-10.044285081069225,-10.573441436125067,-6.56205018195973,-20.623320846486187,-7.660809939589274,-26.889626712024157,-1.4660487788777872,-6.973502381323741,-10.79453730005523,-2.707062642514952,-1.066578862068832
-7.717019720933351,-6.046012843079932,-3.995936248102176,-6.545221815609144,-8.211240427248166,-5.6259882009040325,-18.27070679616177,-6.346420033660348,-22.40963803505688,0.7572555156562085,-4.260958936959375,-7.299038254320258,-2.9559426158390707,-1.6080930591792575
-5.961329300519626,-5.567534317966583,-4.490639931867943,-4.041922820645082,-6.204279120822785,-4.8184419061568455,-14.832632772737638,-7.362333898796887,-18.20952431954345,-0.3333963450487199,-3.6567289473401856,-4.583595960100136,-2.368521767701264,-4.047015696498124
-2.220268219033965,-5.02273483130659,-4.498591119499629,-1.0760016282167315,-3.748898213101143,-4.750786287317474,-8.479579377194298,-10.444611978768895,-14.7561323555448,-4.777027269649836,-4.8082121804101146,-1.183513765260405,-1.933872997198236,-8.191818115493442
1.2192397608094154,-4.493867104161254,-3.993542126989993,-1.4902712291708908,-3.7576945747376183,-5.214815208148536,-6.864828908576523,-13.242981975797406,-11.679247443319513,-7.270345839419263,-7.005854200977749,-1.2622939332579188,-2.768334713452376,-10.780788148147067
2.450426012204101,-4.070570951411874,-2.8577227103812675,-6.435232498830379,-6.960638917326024,-5.653968328159145,-10.911991646066715,-13.185240882626651,-7.957759959330296,-8.717781934792649,-11.332500262283409,-6.126141839287382,-4.8370122331212855,-12.113509776884822
0.8320929574926481,-3.993273396967247,-1.764451481068825,-8.77095972440385,-8.374908515296282,-5.782113781744133,-13.38565756911162,-9.608391468518375,-2.799200353168075,-7.096725011214561,-12.90529469169659,-8.90419954815129,-6.928746148373364,-11.698715110326056
-2.931902614515316,-4.546090048474348,-2.329171734976782,-9.43042621231613,-8.684641151231647,-5.779928743446007,-16.132230084420588,-4.521733738873028,3.356498833968842,-1.227784147653215,-11.623803533384809,-10.735677898498276,-7.958048533690558,-8.732211297853755
-7.317023153815693,-5.760126917502788,-5.902537241600253,-9.434729987846188,-8.028887127642554,-5.962312003407195,-15.478286528690033,-1.3906546712785968,8.702919150932928,0.5286991716669548,-10.970139749399102,-11.403683094820238,-8.152231111412576,-7.306538235624106
-10.620822614178651,-7.198191095206695,-11.897731744284812,-7.4695725884376065,-5.446869224527744,-6.315730097163172,-10.1100309384089,-2.75685952824778,11.24615803041432,-1.488957289461741,-9.924461949909618,-9.66681168584754,-8.737303903899665,-7.260154018310936
-11.455200894374896,-8.05747758416512,-17.40481183844928,-7.155793293142588,-4.446538180141457,-6.385540648577205,-5.946916348123339,-8.3428727939801,10.501001730698404,-4.34352583133022,-9.879833651563178,-8.581820134376226,-10.362967111505313,-6.486934784857825
-9.16612810431798,-7.606237008618706,-18.931129080484308,-8.4460779825252,-4.911516397445858,-5.6198941104573095,-1.9026144967769152,-14.98388802415534,8.195811134009364,-9.8325115223252,-11.370928323430238,-7.746845634001032,-11.96599418842731,-5.789889444726582
-4.249713469772718,-5.722197331517073,-15.090942915673333,-8.203501983045344,-4.3164849952606685,-3.8481951519698434,0.5930998380028273,-18.50365936224153,7.176892478374729,-9.785703659683426,-9.631869879999332,-5.714084183978129,-11.451356294369836,-4.74479509403722
1.519902978387961,-3.158662655718217,-7.918564361161291,-7.0342322295499,-3.2757454198687177,-1.487075807017387,0.4112611276423526,-16.321160696412882,9.299931762478655,-3.5471601676386944,-4.821211023075781,-2.9063507513665754,-7.70845996732721,-3.167273745757283
5.686722651102453,-1.2455659797939056,-1.4919307895741305,-6.0050450283466255,-1.6027923845901106,0.658248496690323,1.8386563817152777,-9.05147995864013,14.067893012898349,1.7130645021442132,0.251133026666766,0.0013293526317981,-1.993942600142784,-2.1263991896288044
6.4040070247872,-1.085104574411471,1.0842053739562534,-4.688639855830505,1.0855148954183216,1.8147528314788204,4.3212274395492845,-0.0308977598209363,19.162477985165054,7.842033684860328,6.518860979473409,3.123265074079952,2.8088514722346627,-1.544900017037741
3.628504959299354,-2.739582914752912,-0.2045669418622431,-5.126385879255199,0.7226648105704666,1.611839205421136,5.010909311627698,6.87185543725712,22.37696499614748,9.214277948794935,8.03495161343141,3.621439724255733,4.499529571445784,-1.001655174073663
-0.7863442984790243,-5.062793257369634,-2.7797203338001037,-7.612066335546457,-2.8672961794731746,0.2335475551914569,4.45006931493752,9.610194706900833,23.295573097778068,4.321485496235408,3.923652133628517,1.0599731319820709,3.3102594960113905,-0.7008931090507629
-4.340063488882183,-6.433536063744302,-3.940222441547792,-8.20348286579259,-5.765983882374046,-1.6830644747717258,2.6592965574783083,8.87015607351682,23.37287581440355,2.301839408450628,1.3260859475660547,-0.9425185896469632,1.4621256537212464,-0.7224311303124566
-5.573520768106771,-5.92193999928232,-3.017558971469918,-7.215842211181363,-8.794414714312582,-3.351948083812601,-0.8749992373764981,7.050419665536182,24.47210104449225,1.741402942314435,-1.1487605938960264,-3.0536363868107963,0.9926339128881532,-1.0691850736226898
-4.865730446405948,-3.9700634094916314,-1.4544362319953246,-4.811395994012676,-7.6940484035448815,-4.204275393964418,-1.2666445383608484,6.272551229110594,27.17439463655245,2.2448706073329605,-1.2347226302700742,-3.9168866002433376,1.9504608410245945,-1.8659983358561407
-3.774728525496678,-1.979936460230408,-1.0703588206883348,-0.0934170761385236,-1.4028643740349205,-4.100588825477931,1.725113326762664,7.006669572288079,30.27262929265188,5.461167639721124,2.472600316078393,-2.7775748962986864,2.632015731070414,-3.159186306353311
-3.610741604639392,-1.0926965271036773,-2.303875057865124,2.665198111350424,3.059362026850242,-3.2410357181280087,3.418599249558404,8.232528741369492,31.825266118007114,5.563874384545293,3.4213183810395225,-2.4879033658311283,1.520084091048557,-3.720687082142544
-4.48416099212912,-1.1557275498279314,-3.941231043968665,3.4760177259395464,6.733536594588299,-1.875815999848033,4.817327521616889,8.720783456430867,30.84790463011113,2.717687758161155,2.3102177384513074,-2.560920205313397,-1.0233178621611536,-3.485691715507077
-5.471664502213116,-0.7628323174192211,-4.302111462742033,4.962832275594293,9.261943737851364,-0.1242482759613605,4.876383026505495,8.17909412436256,28.19970574718887,1.7060229778268845,1.957487728302076,-2.189983662227984,-2.932198911609584,-1.804764372806685
-5.485968780461136,1.621695288527361,-2.6329895804341588,6.244006188887608,9.279579481001416,1.892781181593892,2.7573109111255234,7.320681110943777,25.89313371106235,1.5553443912096827,1.2770044326380137,-1.7803384304020815,-2.2624223396084826,1.768535008822879
-3.969695245654936,6.343324123722167,0.4515282676898771,9.57723107669856,12.075924188076437,3.78512721036513,2.44117702598562,6.98318127916999,25.38517042330165,2.4130371082257893,1.9221239981563376,-2.0358858068796426,1.077707407858778,4.151679484597412
-0.975903454007696,12.10202570182958,3.622326176087775,15.429191773640309,17.364383475884804,4.91277958232878,3.612376991454105,7.229896193771578,26.30095557004322,5.089482466141472,4.266886402297779,-3.0113510518979814,5.254449733696895,5.467300338714673
3.0881808714500263,16.737144179453658,5.861710732410946,17.709144215910264,19.8135755428659,4.866698357724018,4.447377039221551,7.247136803840499,26.70358694029848,5.613535494774179,5.459254574349243,-2.1677731015507207,8.067776179428348,7.198369907841046
7.586279815539186,18.65302185362061,7.053440495545057,16.649583545979823,20.133433398538923,4.020904058398825,5.657535816602712,6.0647263757167735,24.71793161959327,4.035221030978902,5.833185295780796,0.50872412206431,8.686620506873773,8.722635128231484
11.58442178614124,17.804444572820444,7.82339053624441,15.152347147035508,19.576035759673136,3.5028708653569183,6.311779509016912,3.434993584770538,20.14953524591376,2.698009781594407,6.274124747712773,5.049575352023066,8.085841043489783,12.430251417522538
13.934988066494242,15.531561008301388,8.858488701011197,11.960304925864646,17.16526796425928,4.3716402001524735,6.193534210872187,0.1507761139048327,14.738576087564358,0.7940859681816995,6.280217776646483,12.176189183653754,7.955437887640258,18.634313526475143
13.739863729567505,13.444167944012026,10.210355902549132,10.523440352364553,16.102156751514666,6.608668503949971,6.398228384698277,-2.4169617557237477,10.842918565501163,0.4178930209958039,6.099242531391457,13.678614490078022,9.145586763720424,18.79399493260616
10.925382233862829,12.273236967373752,11.073610024694773,11.305226000553729,16.543638037895104,8.885165055733712,6.686434018551984,-3.2063199052710445,9.646679064529843,1.984487567071666,5.7344168102724185,9.132695058903035,10.96771684379533,12.851121566649365
6.398807749405066,11.560709153468984,10.257830347564049,9.315072923680557,15.01747633710932,9.498647307196713,6.196763206966798,-2.152362975567975,10.337874982047657,3.3328312470258576,4.856845894158777,3.867311517817042,11.825777596450578,4.765513736869846
1.5676261097708242,10.31713812270572,7.105611510594176,5.2143306033200645,12.1095153038052,7.797430259656494,5.001561494212712,-0.2042840020748428,10.856494751390931,5.028030548748457,3.4809860995083635,-4.082576192244652,10.539938349317056,-7.471727270416861
-2.411480919638421,7.989021504596195,2.210672546460952,2.57095642460676,9.427102779476488,4.850224286873157,4.008895354804089,1.3527857886864396,9.539713164356897,4.958258498053092,2.670393685682959,-6.9263299453738885,7.257517235531296,-11.4358458613515
-5.042104983929079,4.91427587735356,-2.668216027574175,0.7496795550577207,6.502250927541593,2.681328971463479,3.100658644423788,1.8000090170944176,6.329729526245316,2.6408530599355307,2.450602607719504,-3.506280502374633,3.296487101171472,-5.884698775703475
-6.301811386183289,1.9952917425933163,-5.5339758468787466,0.560259076631818,3.768515027151228,2.6455077100284115,3.4734204436020435,1.4275629838851245,2.6459528448784084,0.0009036633442577,2.54309686131041,-1.6020050808814952,0.1645420694194541,-1.6328816862668578
-6.198478934240391,0.0127215689963406,-5.287035677811076,2.755803020784912,1.4818010419677434,4.3259353751590695,5.441239901187487,1.1331858757235906,0.1435775813256157,-3.6055851749311714,3.233014164360625,0.7427060160190905,-1.4074030546589498,4.310537973337722
-4.631528037336203,-0.809011075272295,-2.276842763500852,3.3474205177261607,-0.3942669442942482,5.919499390259631,5.856188068715947,1.4761203549376771,-0.5564710699215638,-4.695030383336598,4.038973408792031,2.583079708607237,-1.705783495634023,5.836807640254507
-1.7364812870399078,-0.7666713039336415,2.0308854308863573,2.55215700127603,-1.6172947023362252,5.771363804490065,4.903848685679198,2.018595967911139,-0.1548438096581392,-2.7579151114234106,4.997034016239381,2.8068098544252846,-1.5025624280619212,1.0440702331741312
1.7079771692738035,-0.4087469721704195,5.906868428699141,1.8273308408775504,-2.6457982450340505,3.7097011507957305,2.7262308108590667,1.6354874200704188,0.1259233964906485,-0.7893186707310572,5.384870079213918,4.67906988865423,-1.3210273686999656,-0.3029577792711322
4.409384491034473,-0.3063257819707843,8.129884770797261,0.3615541548747614,-3.387168194422632,1.0443878854946007,-1.4254922961977523,-0.3544825240031173,-0.383252140708656,2.14140661185548,5.026673021095009,7.726318640815195,-1.1376398212495005,0.138768412238478
5.342381723291808,-0.8574231646858834,8.354460358892844,0.13105602125734,-4.474304765636341,-0.6776195360536548,-3.311117811430439,-3.2124921229734085,-1.3953644384932176,3.1327544816759816,4.706006895915295,9.00125402083235,-0.683001933123748,1.007030290133584
4.5852711746641575,-2.015050129773428,7.116025327940712,1.2955963963012491,-6.037106673063332,-0.9674354710921876,-2.8728720955629794,-4.964020129923682,-2.191286645978927,1.599460559000497,4.202131941977161,8.795913414133553,0.0594623540657863,3.870412867215508
3.399908242450138,-3.09418778246075,5.57991633595271,2.60112195849434,-7.166617004895415,-0.5919619697696135,-2.3870656166536066,-3.829608271435092,-2.4980148726700264,1.8038761769818676,5.035381334178513,9.322969249171075,0.6989895190337805,4.197562647560533
3.3229732214687715,-3.036066920765549,5.018445716470879,4.527141127882593,-8.01677847664551,-0.6234920504454138,-0.8991230746922731,0.1644861512695286,-2.932450275154117,3.079190161314829,7.448237048635526,10.127538645877673,0.7844813982563323,1.958033325526848
4.936208996173292,-1.212312182648127,6.074928514272763,5.061027650139625,-7.247114172423726,-1.3492598306587595,0.0827698264715481,4.806640976648659,-4.683697611416108,3.524898063961114,8.071919655116705,10.669194138655318,0.2818666660718634,0.98824029629293
7.347320967090404,1.8035122478496888,8.20604437548456,3.924390139939862,-4.558244352598597,-2.0673110017012704,0.3114156329838234,7.0854458599089085,-8.702057340968793,3.7347445997856714,7.114628502393279,11.267483336893315,-0.3422153837227029,0.4657505054340782
8.852971747671702,4.323241636557434,9.860246346834288,3.1612957201157355,-1.288974243138139,-1.8388518959330469,1.3813961981134666,5.406247999804229,-14.90975388144713,0.4797355500385668,4.724634136668348,9.793526348165807,-0.5563585176817725,1.63218726702481
8.246884125559738,4.681832114846834,9.52705002184765,2.280409384222044,2.962875080983361,-0.3533595070672461,2.936368719554354,0.8892598712569821,-21.86070477356793,-6.798074400891518,0.1013596351406659,6.037801141480824,-0.2786965870845961,5.221909257021401
5.7021305648438485,2.5822238694815525,6.9869015636699885,1.9628390924238728,4.345482968057061,1.9098267577123025,3.3047288381554654,-3.380739485962956,-27.11917917172969,-9.50619614973798,-1.4612013940775508,3.8834811260101167,0.1061860095515925,6.053557062663905
2.569271755321175,-0.561312021969286,3.6849013825326793,2.559503797075165,2.329673119992341,4.2030715463848765,2.547466315530601,-4.645076057989542,-28.403002153034382,-7.957587439964313,0.1764762455937168,3.027816972588119,0.2948412727382248,4.32337029839974
0.3680899501363868,-2.681320666571011,1.723488841891104,2.577257953912653,1.3751073598036752,6.005576015224179,1.973232107163332,-2.491603087124737,-25.073444981403405,-2.619477766409175,2.566179654791233,3.222064277160952,0.5679747083733062,2.2606682766043416
-0.1530118519319927,-2.638515085968073,2.173504924717541,2.231160209517401,0.5761763124948948,6.970206688903716,1.2658416820826783,1.0156844757725736,-19.00373170867961,8.668100802821415,6.98487147692229,5.348457848568361,1.5705165912364123,-1.2139705796365272
0.768714534931398,-0.9535376987919122,4.136083057368296,1.9485984122572453,-0.1327112481276359,6.588269061127612,0.8231987442054911,3.1487378671843373,-13.8652798844739,12.39402593747251,7.157748936898113,5.04410285689684,3.43592399245226,-1.7866622856425745
2.371600263597635,0.8797838656228976,5.443309474059127,1.49318269931706,-0.0471626467823168,4.268356954319259,0.8761198865654906,2.707613200788608,-12.87139666432175,8.253914714693755,2.486349211040808,2.279329790346072,5.175205178707461,1.0058739081493246
3.953967406650598,1.7515211180978092,4.447842660268542,1.1802943961541803,-2.622105457828452,0.0499675619614023,0.3916330823367074,0.7751225365892687,-16.42998668405557,1.5903505179196715,-3.2828791004558675,-1.5549329528259392,5.205576103046379,1.6453131471598466
5.107703914545386,1.6682207238574698,1.3325171613958773,1.0374508719676174,-7.871494040154586,-4.72788814571625,-0.5077835469266241,-0.489167276135948,-21.635945176672312,-10.914038376785175,-11.808450678672074,-7.516672864211389,2.791442565821587,0.989276969061454
5.577285278309706,1.2842094058735434,-2.205309562266873,-0.9550017584240148,-10.478125859483304,-7.758125094834693,-1.4713513787024215,0.1352234268436376,-24.29767712991687,-15.07829382286724,-15.989539584062934,-10.7167662400365,-0.9447870396311124,-0.8668272628160799
5.053867569831233,0.8661884945754075,-4.536427379939781,-4.911590648369956,-10.8401704743688,-7.239259204593015,-2.6724852084369557,1.8478234886950915,-22.075481306825623,-9.84890435734981,-15.01692131384482,-10.866255370847067,-3.64048383196063,-4.951927685228128
3.1852451165687263,-0.1690537926776549,-5.4435800064874655,-9.792592233954744,-10.312937176977664,-3.423761475974441,-5.388296163989041,2.511453933011662,-16.212057851328925,-4.128794652784814,-13.31470577378371,-10.89009486957396,-3.652733087984736,-5.806245637172707
-0.1838547647666608,-2.662993731185356,-6.039151171138528,-16.12202745862023,-7.770933899180775,1.198974372485342,-9.745033370911596,0.4224373009548863,-10.411387113259304,5.59499447200023,-8.959584085609345,-9.600669778277146,-1.6485736194760818,-3.3883947328824067
-4.747612930564937,-6.695783825604849,-7.49849429175436,-18.6834928275302,-7.232042481518778,3.519897741178447,-11.814808550642386,-4.308584148636491,-7.832812089654249,7.62786582266673,-7.70764826427531,-9.644519010454802,-0.2490082537955302,-3.4923922446923528
-9.676595609868285,-11.198699330812277,-9.935740229330111,-16.9523036093597,-8.866723421241657,2.0762142322786854,-11.631829819142467,-9.765337997116474,-8.754948957439309,0.3187287435096738,-10.259234976921938,-11.42456511599084,-1.8716547380128947,-5.205598382716803
-13.839933448307953,-14.615018676671806,-12.443766256330283,-14.930288820504538,-10.052219856031744,-1.8870993057405228,-8.852154269816271,-13.456935140707516,-10.786635235567909,-6.325072660086523,-13.020371566962735,-12.321842330359154,-6.618211137976325,-10.330447980160772
-16.224360955096227,-15.980485940371905,-14.0494401252126,-11.289793341958443,-11.691975853834498,-5.479473076202524,-2.3629993886768195,-13.78143288740344,-11.206892266942296,-15.3366304749954,-17.548016819643408,-12.9849234987396,-12.082917892698294,-20.156641981612548
-16.35807951550588,-15.410388405157477,-14.485875742303651,-8.947218190677985,-11.084426984451936,-6.466011877309327,0.6604267050371366,-10.792447609861616,-9.229028366584409,-18.29530333023837,-19.097940965517303,-12.754485392697008,-15.275185977529553,-22.671179819260352
-14.534122226431991,-13.624083876190934,-14.077371554349265,-8.544867046689802,-7.738301545942883,-4.870661692708735,0.2092091282606354,-5.995311063983625,-6.273154356650471,-13.330748703905574,-17.09305837875372,-11.215863341134432,-15.00188247168019,-17.837130292150636
-11.694473108450582,-11.124399840942733,-13.10337876069977,-6.657822823473514,-4.225720862511941,-2.6124338029744107,-1.6532431534854266,-1.4872374433523827,-4.291269599166164,-10.2304747824202,-15.211789115243036,-9.81340187942169,-12.700117322028778,-10.889909531724015
-8.978612026159016,-7.945009827619825,-11.509695575837576,-4.0575455471106485,0.1856176149235014,-1.66547660441519,-6.682771953398332,1.067844548771168,-3.901795854077674,-6.710756370812837,-12.243374273107314,-8.3040116172641,-11.071979656827668,0.9658050261810192
-7.130867838010105,-4.181106972546034,-9.272456917200453,-3.094535090364796,1.6674346927798376,-2.453352651022623,-7.923074652801646,1.2291954818848536,-4.022489100780972,-4.99606722069909,-10.212263178021209,-6.56694099235034,-11.711956094130777,5.406963273880942
-6.111945077633777,-0.587458877518122,-6.846552226497584,-3.518771413038764,-0.4561508706667337,-3.7966127467498776,-5.080681233558848,0.0088790444585917,-3.0880911126131743,-6.6745564232703805,-9.64241656114451,-4.837523056539299,-13.70732845888005,1.2913319730204098
-5.222617880926064,1.6048450509205363,-5.001501410587219,-4.053602314482394,-1.945543685262888,-4.219333196673588,-1.100666691532088,-0.6884932546058842,-0.4759835487880366,-5.18569245323661,-6.492357146509616,-1.5979458117190026,-14.367698610609516,-1.1879128467488038
-3.740798851141175,1.6467801444072592,-4.1091718213298645,-5.120381267734833,-3.790880917625669,-3.2714670136200112,5.753315446539278,0.7066781000285918,3.194418028568391,-1.2794008893827389,-1.1575614034885435,3.2188845651236924,-11.506834093297131,-4.963957510876688
-1.6475808759113075,0.0628247190672333,-3.677112480093333,-4.263125977866463,-3.0898462474955126,-1.7350028954232537,9.368115371084848,4.231232652697546,6.905726165444214,2.1587536137291004,3.75612626911189,6.628028018764548,-5.415310793942172,-4.73438276934579
0.1731192938577361,-1.6357390499286382,-2.734667495611527,-1.0994478536087808,1.0507062582816613,-0.7501592159928485,9.291505862127837,8.18481037120172,10.133211567757227,6.172767010294097,8.865412824705412,8.775784331403457,1.1593288064274,1.1827473117606118
0.559576670105761,-2.17107747156821,-0.7535402335487564,1.126794917427893,4.205389965743977,-0.8108475062802611,8.469233246171848,10.317989372864528,12.877213131016903,9.07468772967305,12.206445164275598,9.396277430501009,5.1293829951885535,4.344509340468396
-0.8640165991549171,-1.5074431239421564,1.8408287309019291,2.9698949874700165,7.197320477715384,-1.4687547046406308,5.310281771812189,9.639775031024222,15.063118546975588,10.441620812846356,13.179064449922508,7.710687746570456,5.6013380078770325,6.194774344810655
-3.064735785446878,-0.6355572794237396,4.110099715271637,4.367321037596911,8.780543321976346,-1.799258407136076,4.10240860974041,7.328183236029634,16.251552252057227,11.506820937748634,14.53143762932443,6.685776552130327,4.658737097192695,7.11585302884134
-4.079770351378208,-0.3348446044851094,5.522465180544241,4.7356919575824055,8.094982456060738,-1.0921263418490916,5.185723126095837,5.801432160880811,16.12202233952941,11.730193986925476,15.681192647489414,6.114819477915909,5.594281390992233,5.677725856094592
-2.399916434119067,-0.1823620433071546,6.358181719923156,6.669328222392206,8.358311394894606,0.723119550252008,7.163630562114961,6.596669480252526,15.134286991875818,11.98066220593671,18.168419964972948,6.617854176536964,9.989248190783286,7.0151577307464095
1.7586570185270285,1.1151822546403023,7.172215476273681,10.110488366916876,9.099280144782986,3.033088591232076,11.216891452397274,8.882087516846294,14.414346091863038,12.366396653969987,22.56339788915846,8.937849578538508,16.14462849186061,11.014836707382097
6.355572621137007,4.308932986919835,7.931601886001172,10.705186852025172,8.082389748822104,4.783031092600385,10.92755679247036,9.993588142324654,14.72940093955372,11.160584576102446,22.276693019753463,8.450594080065871,20.295517220064973,12.06623772261556
8.81284694662617,8.49510322198411,7.836241681920793,8.673811730234364,5.672518978262779,4.929397581074472,5.932015643330632,7.624970004952939,15.520079865985618,8.466268979797686,17.360862513880065,5.268407593991998,19.637555640213083,10.902965008727609
7.806827037032921,11.478280571901788,6.111845160830111,4.542055136720803,1.8156276164658205,2.9997111269152548,-0.959481641530455,1.8145413874548664,15.091361490289582,4.758383300516849,9.87064547865812,-0.6602910718103646,14.591163369514987,6.688940843057332
4.225923634809565,11.403429355730964,2.977877341706449,-2.735252245634492,-3.9350057119212174,-0.5328782907323593,-11.412481771630633,-4.959988316232426,11.9955819679686,-0.3352196935485272,-1.7761402910169293,-10.54075493696402,8.389446251791131,-1.8237804001897857
0.52466349379009,8.223039651508607,-0.2814179855599512,-6.775923884727563,-6.924864412620433,-4.424088537640522,-15.353070765100128,-9.613587382078476,6.424057874388563,-3.6435721529743903,-7.707933443733603,-14.630477580652563,4.40215920872555,-6.28821883157845
-1.095682192895847,3.69029009606501,-2.340282268893965,-7.361408079817653,-6.928018653360508,-7.410621981635828,-11.92203116533499,-10.64069477223465,0.3084773434156638,-4.914458847924753,-7.231754464019046,-12.623357824639823,3.515851678193279,-6.757922733850964
-0.3242604015149553,-0.07447809545625,-2.99822433282435,-8.773906862821285,-7.775927584962489,-9.018563743605297,-9.747405377101662,-8.917854146860233,-4.03914096975252,-7.59497072544021,-8.300582584021917,-9.793505620239532,3.729357562523589,-7.060194510226623
1.0830531369583871,-2.1204617776412498,-3.319763252209018,-9.585918348891088,-8.447975214892812,-9.723497449063458,-6.475761201666642,-6.67711867642965,-5.6119616108052455,-11.022991066973272,-8.639284108971891,-3.8295882644172594,2.146567601388625,-5.333636974724174
0.7823453218509435,-2.98098349508523,-4.55430014275445,-9.78850806504292,-8.228034093486608,-10.269246382733574,-5.558863663693401,-5.71260531374163,-5.303399919490156,-11.740987447082714,-8.377928193707861,-1.4281683929012148,-2.4352083960251463,-5.199134674932563
-2.137041325748456,-3.66536954974428,-6.847004309403204,-9.758717450963497,-7.525534782158588,-10.755647461021251,-8.39244127937714,-6.317984301860172,-4.963199052733467,-9.971562589554951,-8.43312528580159,-3.4268527879091,-8.47120949665312,-7.044697095020171
-6.199497683542965,-4.450900652671237,-8.966336274102513,-7.374561309026805,-4.793431842575753,-10.394669380512298,-7.210485671683286,-7.594814521841751,-5.7701363948634885,-6.605849580570085,-6.287980349022517,-3.808448909821852,-12.848059029651049,-8.21735794926552
-8.492427095761723,-4.660071987365292,-9.294391466210406,-2.5644862677673776,0.1419934504932493,-8.24211259321424,-2.870434724590808,-8.519800919440806,-7.29786977362394,-0.8614224230154724,-2.138057452676749,-4.20495389495737,-13.175786276532396,-9.596224248907273
-6.848217233942279,-3.534903133285201,-7.143395244875938,0.7451977618836891,2.5444473321536933,-4.254864573405246,-0.3122092866170462,-8.645816115142674,-7.993043908195187,1.4968124237689744,-0.1565865549506243,-2.469894284960969,-9.378233110125365,-7.736328770846111
-1.5595091403642094,-1.2284309198556151,-3.227248291538398,2.7695316217233685,2.440970203241897,0.3505669847399808,1.582682288742369,-7.909045628915504,-6.576381523601922,0.0612955328318159,-0.2202435853927146,2.3375970469329443,-3.5698639212848318,-2.0575264518405536
4.742967600401858,1.112755662221275,1.0072538713212698,4.034594316463957,2.5048275456343694,3.84843982928615,2.34623394338794,-6.049040116613021,-3.1503266334008018,0.7579381863501201,2.501292626178801,7.312911709321174,1.3933723349307705,5.289661580741517
8.964885628227037,2.240252830843996,4.4443305507038176,3.618217940577064,1.704950138991893,5.237000367883317,1.1419327038175735,-2.5548918407442702,0.8713863345602242,2.381836771124944,7.39498047996671,13.221200739401167,3.503348100043853,15.341440237207356
9.700618343008006,1.7826158876489764,6.799634001876463,3.03923294638018,1.277992198358192,4.880906620618726,1.1917596323426412,2.6013848852296477,3.848066211325186,2.603066328744298,8.59733718850131,14.954590863271816,2.390921018230965,18.0471167887886
8.000728921422091,0.4064350546555886,8.30415127266539,2.085612964105283,1.5149158277192492,4.047088099717765,2.2703319305960474,8.218639463120104,5.02232591079405,2.139473501890889,6.516903179515831,11.651565425005224,-0.8473701257863997,12.386099561680272
6.243462693059406,-0.8941566893535828,9.122167426469318,2.3149971432895526,1.3196581534076008,3.822277920957824,2.051137825305382,12.152013538486806,4.779395561976621,-0.8091172029245364,1.202891932609464,8.243527811180698,-4.40980503433045,6.092204745989296
6.1129850559107535,-1.6215871496761736,9.16591203409458,4.150759689182888,1.045088460142653,4.382483119120851,1.0322073571978885,12.747833959521682,4.043921807208513,-6.728107105927865,-8.780914257082085,3.3479593070931584,-6.689101423250958,-3.3945116826625887
7.342703002754922,-1.959047656043332,8.402398782281024,5.504836284115927,1.715349114216994,5.147383793406335,1.1678340885398368,10.275694010031506,3.546728461415926,-7.153214700743436,-10.714099384436585,2.502946886770064,-6.969355372976919,-5.190827605752397
8.191081795569472,-2.277190528036499,7.190266778610205,6.83129491582187,3.342790191205644,5.504700840483198,2.279717375387102,6.946451280738729,3.612742091447073,-1.9623913407810445,-4.073845580257312,6.834827912907352,-5.623434187449623,2.48767168895201
7.175099290208621,-2.570253049774798,6.201041658128705,6.76921627047441,4.172108537624114,5.364929149769541,4.970246873144963,5.273563897566011,4.400120367815868,3.5264637677998105,2.5633951269912765,9.708218136524591,-3.640715662182996,9.008995592409208
4.560694830268806,-2.39452120540626,5.97153970031971,4.870770445213044,4.333416927399547,5.119510492874936,9.771285602542504,6.0846929579932025,6.019036916959362,11.189475019842206,12.118021501470608,12.573656231859106,-1.7419037380114002,17.23403655470405
2.321307615487833,-1.2983174060246707,6.526070897836004,5.523392388228242,5.23662655268654,5.1913688130438205,11.001852052225624,7.899286877771741,8.237130749788594,13.915915828253157,15.438672447685132,13.058955922503465,0.2086052835392546,20.341625281762504
2.557908109437692,0.7409144312544793,7.415986093310346,8.562104024230843,6.60886157270202,5.665917371037324,8.541443652351585,8.216560055305404,10.164846698720195,10.55657562021919,10.86532011915977,9.936258693829862,2.887450512739636,16.358616665631565
5.687189562082896,3.281880399605796,8.101630201294649,11.61202805134059,9.278763164194702,6.284859104579352,4.6447619109027976,5.596271527854041,10.523586306084304,9.294383432266738,9.23647371258631,7.376062178533181,6.506270640914499,13.722153370133444
