AF3,F7,F3,FC5,T7,P7,O1,O2,P8,T8,FC6,F4,F8,AF4
-2.1140820454848672,-3.822197921823113,-8.215981959004838,-11.045701089160966,1.2695532360561916,-0.4426229610900041,-4.063199822415969,-3.2733669330053448,-1.671201951613758,-2.824840436452136,-4.978355393581012,-4.3872088189986975,-0.8077854915956134,-15.97764713904063
-5.261031709705755,-4.274224636121836,-7.175337087836141,-6.463873182804096,3.3126964120696343,2.854315534965661,-0.3778417186139489,1.1173547024567916,-2.6483605062033493,-2.2304920701703623,-5.036442650351894,-5.203660594205132,0.3927085531793851,-14.821184068490702
-8.352675491876845,-4.517179371802698,-4.681158963820892,-1.4587026976779391,4.876590736554071,4.445526697162862,1.641559270708905,6.871677582027654,-3.863345230942426,-0.7912642529159016,-4.74334907514929,-4.888440452390183,0.1920103160444847,-8.486651394136832
-10.904091492911604,-4.275298063785819,-2.644706429704001,1.9290650685052757,4.044814598086891,4.013219695817167,2.0671692307675773,8.486538700856087,-4.466212030244823,-0.4224030645000436,-4.812983393765506,-4.082321677431171,-0.5708774965406161,-7.388986302746922
-12.396980600982246,-3.790870486159919,-2.1907146570151887,0.5358647759784414,0.4439287362298678,2.0761871795194864,1.8149119117781825,5.044737894967654,-4.344888839227086,-1.3353802737978375,-4.9939799423884565,-3.207961062136452,-1.4239012729737914,-11.319743753403989
-12.618295763761685,-2.894495175649317,-2.835053989309092,1.9672967362607745,-4.403846666749171,-0.2510146862197011,1.9354364492144107,3.242461992936638,-3.0939908711373687,-1.5233699310811477,-4.393193884668069,-2.163921893405437,-1.128350448686393,-13.22499546532728
-11.90737747714372,-1.6045023586043947,-3.0908941513861308,6.519823834463661,-8.381393773593086,-1.820988987785036,2.9127796489876445,1.752986554753762,-0.3688031816770931,-1.40624858129097,-2.6278085151756905,-0.7933468248484559,1.414418533265153,-15.097058862173691
-11.04830856147467,-1.444004339576335,-1.9504181264027416,7.909065108704895,-10.222589408675844,-1.9998000393163764,4.447287418311888,1.7547507723917826,1.4009318490007157,-0.893399366060961,-0.5752885594205281,0.4625340716513584,3.9078271229776496,-14.24486306390816
-10.770993841714985,-2.543820022339192,0.1268847516952789,6.322999298178031,-9.773907052209236,-0.8869312471106596,5.8090726496915615,4.450044110503198,2.2806807303482306,0.3386950491969787,0.164235716448033,0.6181660751269824,3.606285511060854,-9.537820312800182
-11.181864846270098,-3.794577284043569,1.6448142673789263,3.5544044025617025,-7.303754291916906,0.8481603293999243,6.424542710748565,4.212796266445507,2.2575888448361145,0.3008909768043122,-1.2849841562153586,-0.9166870708412772,0.6787490910947078,-8.199199818623686
-11.61049728579981,-5.585131935200092,1.511356015942937,-2.118505650724373,-3.1047120942498303,2.335503814658299,6.228123415987362,1.419412986203621,0.7014128789886062,-1.0209194924542684,-4.068451384781877,-3.382287629228081,-4.560975814420331,-9.663859757793116
-11.083223809680671,-5.840532697513877,0.1105473328093289,-5.098196505719625,2.0347548699989737,2.878000076454292,5.555823685911921,1.300405396644987,-0.0065177448939461,-1.6045867072295248,-6.096117079532899,-4.824698401111451,-7.848969025806957,-8.974768697709509
-9.09120250729698,-4.263556654646002,-1.0357367647735174,-3.133762223234947,6.336109868407242,2.2398068528737305,4.763066323426699,3.084702493484143,0.0188649233514846,-1.7935553068024388,-5.736972589446385,-3.541738376682876,-5.591798692515523,-7.2751935301947
-6.019374668468085,-2.6193845511657043,-0.7099464462193126,-2.145614708344399,7.704345032264936,0.8099253554153982,3.9707514622724815,5.90804697574612,0.1613116935477209,-1.219889044836164,-3.2260301908772853,0.3272551849320742,-0.4102811200898407,-2.2988223278654685
-2.880833505105432,-0.3555680762762362,0.8313980238898324,-0.6540209776452377,5.438621035846133,-0.4798170156606005,3.177866503396966,10.727416883564956,0.931373894858154,0.5254466089732654,-0.4631462970450641,4.589838070451144,5.577497060393695,6.953187938693607
-0.6194571297192617,-0.0020039462040263,2.0830249542254364,0.2973277267324533,1.313325158320005,-0.6222915503101092,2.566693318727878,11.31987687130426,0.5119580618956061,0.307237898629396,0.6636704494709882,6.590853131881566,7.985728239290248,10.097330268296178
0.408362364016245,-1.9858952115514907,1.7020059598213706,-1.1315437824153438,-1.4791846927395935,0.7212881805497844,2.5748696383769207,7.312590095606943,-1.171077550288361,-1.876447247576258,-0.1089152022971937,5.36113838431578,4.6804825099391545,7.218131665120575
0.4175088775344342,-3.203663772229052,-0.2313837087313146,-0.8174893204571922,-1.0089054477989237,2.7079678542392323,3.521482313241595,5.088005550313761,-1.9729537014762373,-3.4246830268572004,-1.3713641377828625,2.4316276589347616,0.6331447933355973,4.577411828218729
-0.1621719621986166,-4.264320704658168,-2.2751919420744287,0.5768874650547993,1.504829438565373,3.623185152280623,5.09944329345187,3.3874596311945395,-2.201827684408354,-4.932204194392068,-1.556343806596452,0.5121369726239102,-2.0935255504627297,-0.0011538399662103
-0.9350281834263114,-4.265691832254738,-2.914544585881295,1.448426095812978,2.6425894982149103,2.0740084080160983,6.33746626653334,4.073303753037743,-1.5880962304556572,-4.80956911907613,-0.496312348636664,1.157168304705941,-2.58346007169257,-0.583206660009374
-1.503804441882572,-2.610621141320117,-1.8566906989368697,2.3581204567532543,0.0017472850460507,-1.7279460161661042,6.286657166818511,8.39400425700155,0.3189440779929796,-2.502287878210728,0.5133598041031604,3.498941704456872,-0.6949933235990919,3.962659005128273
-1.3819396007316662,-1.9908488427542423,-0.1751761847143669,0.5544254354537403,-5.263095460994521,-5.73147591575437,4.9424561069314485,10.076449970616595,0.3513716200260005,-1.5765854534953665,0.1761469547620215,5.175373193849637,0.174435911964606,5.0176180275227145
-0.1393988072743504,-2.11760429280025,0.7409608316422478,-2.8153782167584342,-9.14777435660586,-7.300524488566289,3.520312207753168,9.651911161696134,-1.4983295351899513,-1.6644400525112166,-1.3025069031683962,4.570141105516399,-0.4534703551639114,3.905673532955003
2.2767917957812216,-0.2195075093057159,0.4222401169026071,-3.846001900161751,-8.321888365777404,-5.113405023481402,3.66472616846082,9.124717692419406,-1.6700655807941205,-1.289818499960682,-2.1790292818936905,2.303126940856401,-0.7085376095336297,4.389950979741568
5.403351694442396,3.425201547121688,-0.325527466754103,-2.388779935892691,-3.2437989525735844,-0.1612451023154548,6.1358617350749824,7.300524107834675,-0.6702928271565258,-1.06655469660769,-0.6715483421738373,0.6550321761495397,-0.6089224010045643,5.245352201428372
8.525607531552705,7.426919279520994,-0.1421390982705688,1.5596684651172112,2.1143623652756034,5.022926608472385,10.063510885294145,6.313379808185815,2.001363095935955,-0.4375916298175553,3.3719875619992763,1.5272011665219658,-0.9363636986149264,8.200955018943878
11.141520983831992,12.275230359357469,1.792860562780426,6.422299212476864,3.756793443554365,8.242046619371397,13.416324659127609,6.288895983081349,7.106656502576842,0.7356235536310529,8.097930462846321,4.797797680912048,-1.5784397092346425,13.853369055856149
13.18889418332454,12.942709394057603,5.16732011137335,7.316635817648005,1.1606216466913573,9.007533689792249,14.30292503817318,3.544643841520044,8.095840557065772,0.3831707974417391,10.83501088923828,8.44044414368439,-2.507009857001134,14.887175786924026
14.83487571302385,8.78819225690332,8.771893580523173,3.21087265908984,-2.387435356528705,8.345470302909657,12.069086834256126,-1.682610987192723,4.84636947079094,-1.5008393571427785,9.862202279663157,10.13472354490658,-2.657119360460644,11.318713246008272
16.07608281323177,5.909890226838218,11.233356056371823,-1.5407904317021546,-2.7700328238550647,7.470459697251471,7.445465051906467,-6.764995229261156,1.6505939792192017,-2.277664251200531,5.492453002457005,8.903089020824716,-0.2534423425258528,7.466491182043168
16.578218786409717,3.180968664815798,11.689913330526704,-6.224488371343478,1.4972260769479249,6.716078226554663,1.866298265375553,-12.324992881827963,-2.9232650771716604,-2.2537796098563354,-0.1152063059661134,5.536396231453612,3.002376461582565,1.7580851941765436
15.914433921895595,2.088973942472916,10.089078852379046,-7.372595677683766,8.303233452257905,5.640786408473122,-3.332353771499868,-13.885587680339558,-3.693284141033375,-1.2122312014143928,-4.143559822800151,1.7667517046329166,4.311207614485171,-0.2087007808723334
13.94975982083846,3.8268408856784566,7.125142981822955,-2.984167508069064,13.91824999948332,3.939674590805492,-7.272680532618946,-10.592348434796529,0.2567068683710384,1.4350368515940948,-4.58777604787585,-0.9043421677756712,3.175000665572336,2.458628335461706
10.999698702428134,3.270873976018179,3.952145332173522,0.4726081669755491,15.7868352903685,2.056180842848791,-9.474089354012072,-8.51120793943456,3.0337537167086475,3.359226225134246,-1.2961725311230268,-1.847764630076248,0.820161053878591,5.9878964087846205
7.646110703216362,0.9398261741480968,1.7380931898093044,3.4276968858216383,13.792511720980825,0.8662621105001591,-9.753996893917757,-6.551008575113055,5.942695492261362,4.702826734981111,3.9079284960922234,-1.253562199526029,-0.1557894225412662,11.9990174008327
4.419167953019834,-0.526407592344407,1.1151190028799205,4.42407177935761,9.53438076250906,0.8553558084172552,-8.318445353989935,-5.364348042126886,7.103257596456729,6.17406316134427,8.152628828124007,0.2186169621721823,1.005544246373149,14.112718353908551
1.6129205502683908,-1.9437648994613743,1.7514747685773475,1.6328855329243084,4.92540105518531,1.6774717957043626,-5.874276310601145,-6.0596944196881655,5.453876138313095,7.300375176748544,9.11327497881284,1.7172668204992223,2.483615578910084,11.578332904234305
-0.6974262398011142,-3.2991046809326834,2.424728014099239,0.1355356022000297,1.419994086664394,2.4836869515336595,-3.4495198904085456,-4.807406223014277,4.456495308118191,8.179697020407612,6.419229043644993,2.402796585457426,1.8757048738606008,6.024685056661319
-2.5525478609455146,-4.291455659927633,1.7763307680373028,-0.949354987484608,-0.0918462359060212,2.5960419898939104,-1.8919909229051812,-1.9785026090877784,3.3941762781483944,8.757970812536975,1.9458123358214348,1.7491154831106108,-1.9049477467977671,-4.525069502747727
-4.016568239848398,-4.156361893836072,-0.6253271297304699,-1.1330177998337725,0.5266836175170848,1.857091971850512,-1.4084871176147606,-1.1997601398646225,2.434693724608261,8.376359100935208,-1.3412269494250548,-0.0994376549833333,-5.366996355775612,-8.642005745269898
-5.077974266881416,-2.677326997319191,-3.728302274366193,0.3445081578244917,2.201935855429637,0.4568610767644712,-1.5631376873687337,-2.031966323692969,2.109481475951296,6.941971567152553,-1.335363518004386,-2.2429890697346755,-5.341993592106391,-5.854449037245793
-5.536270708314337,0.2723355927081377,-5.546929096718898,-0.3984760465141188,2.7256462235713137,-1.388124622385405,-1.7558882941155538,-2.9294499593131587,1.767633017398407,6.187088532605802,1.799403856878687,-3.475399674523618,-2.79420981655342,-0.9220960106969188
-5.001343671488538,5.057595524325789,-4.556155207151068,-1.8181587423072143,0.081469204011352,-3.4710986187727144,-1.7241229174534922,-4.517847080780596,1.6593648532086116,6.049592082458614,5.831202894142848,-3.080000953806365,1.0480106828340192,9.05171156345578
-3.15161703491216,7.249707472390302,-0.8783471947500026,-2.4753274813899653,-5.60975332405296,-5.350861599586303,-1.56628514976466,-3.5805254560004847,2.254496354066206,6.334289007187041,8.192546176339519,-1.3687555170563606,3.117444594120029,12.612455293955575
-0.1459953824136448,6.646492588680452,3.723815869741582,-2.808380439296619,-11.320456788948118,-6.223298134173618,-1.2753635728030304,0.3109152924704524,3.585806929617807,7.467699400823064,7.92051059705911,0.5369878274037632,1.6260012116133231,8.918645837458584
3.201162288772739,6.079908835135778,7.071070770501713,0.163511035340503,-12.765262636484358,-5.229570744203762,-0.3327562949422464,4.144749092778282,5.174646392520621,7.868091594139487,6.236699253597401,1.5704126598010577,0.2039075548307825,6.409315399055835
5.792891512525152,4.499627455596782,8.015276789075472,3.836132840536112,-7.62358853952799,-2.0763322378178586,2.053040167483587,8.729548717606441,7.133846677782152,7.558258988927148,5.294310022477369,1.5179298573019864,0.8903339144153689,2.390734268623877
6.9686108704067,3.360800911896334,6.976760684939585,4.19220754782144,2.2183991786232795,2.5114567328954536,6.086029188450603,9.617775304701713,7.307034875525573,7.0208382151232,6.205798690067383,1.0573088790105205,1.7562637387530458,1.089642702554694
6.925075377095965,2.9999038044935884,5.272944137322149,2.3180738442137687,11.500152863326242,6.918438438191295,10.624596717362556,5.98700099839655,5.403737876002708,5.894079434840106,8.103992135989728,1.0055137708222404,1.648003488068552,3.7352093098878623
6.382070726900125,2.1969860874914384,3.9555904705675142,-1.0403463249639602,15.135771518292389,9.351564731612314,13.350629765999166,1.858444148888709,2.762983952294657,4.820756870197552,9.02794165539236,1.4701579742910695,-0.0298107303850448,4.958072496547591
5.7906662251296055,1.3785766936142856,3.1672514404942973,-3.546355222753788,11.785955969691756,8.743297276513808,12.018740764571149,-4.034430348591843,-1.2432451389255037,3.797256071168432,7.731013011631738,1.6950125731318195,-4.428729323949243,5.9692752482508284
4.929563429612017,2.092946021593555,2.4259661993649857,-2.539777082741386,4.646202153521585,5.342408809768543,6.039847754029971,-5.865867092163773,-2.121829929497508,3.5333143548748054,4.723047775891793,0.7671849852764936,-6.491240123281036,5.349066831554853
3.3892397677937893,4.415718009732648,1.3892660747720385,0.2010230849660811,-1.1149625134215242,0.673363776745461,-2.736462395968175,-2.667492411997484,0.5940844312660067,4.263733574930396,1.7102779159656336,-1.421477060228284,-3.4036600622045974,2.191179724339776
1.4524565028774958,6.272263162634362,0.3023287421725698,1.491624591729535,-2.174876984838754,-3.140870416052131,-10.73095335980026,-0.4014446197103119,3.3594138532938915,4.414490790889428,0.1621544050846566,-3.8055068339440368,-0.1811567578145159,-2.579490386024024
0.2889025682506343,7.946442355125618,-0.2744371393228562,0.8791708563164555,0.8064094265913724,-4.408003413501085,-14.546972753971753,2.4481152408237983,7.308009255466137,4.156566876392706,0.3953859549753673,-4.744858193370995,3.626186576737309,-9.727483118515895
0.9622172534912536,7.005145085619636,-0.1560327126436362,-0.6504569231350734,4.14490707324827,-2.757733373475574,-12.940590011023346,3.8147039019801454,8.301639990812843,3.209168184290977,1.7852857813891063,-3.2051741437061025,5.162771410113374,-12.449815332565738
3.046387459066501,2.780879574665216,0.0524578618351654,-1.4310044765991847,4.146326921637943,0.6224127439515996,-7.545007428815367,2.7209098680857835,5.587269022036799,1.2098251214752282,3.5015510957383427,0.3272322833953254,2.4197840371625463,-10.264325416951309
4.323503200618617,-1.7447935326185215,-0.727020514845762,0.1593404981595366,-0.2252788324962722,3.6536537626862176,-1.7729114768969652,2.779127173632836,4.229593120561245,0.3834964362174213,4.860990040066312,3.90391566886688,2.449880407342318,-5.168551798420831
2.2256058818773496,-7.31567306390689,-3.1882744163534014,2.7334876107692647,-6.82015908057037,4.628637942810698,1.4343033388569424,3.293328544543367,3.2108564424398582,0.6815084850525686,5.152005297167996,5.226245523090874,4.01807793027982,4.781558166958949
-3.9805008953301737,-10.834072201861552,-6.946985190462463,3.6676709043454734,-11.943227470420368,3.2616387217312592,1.4249418473124038,2.8170464285497165,1.7836534881623023,-0.8698322613277114,3.5569444150427643,3.156046394101786,4.503739641985141,6.354494566236069
-12.181990464685008,-11.599029382713145,-10.639500951233934,2.662678575191603,-12.768706164616049,0.747042522695267,-0.1383399301550483,1.773592473384532,0.677793084744658,-3.996421541251668,-0.3595791697139248,-1.4031835845065288,4.386842882871931,-1.241524595997502
-18.657621071877166,-11.938783984676832,-12.811474816712227,-0.1843893959564797,-8.966946573346064,-1.2541408975699824,-1.0303599653349025,1.4793061123151934,-2.1848959278710853,-8.17575854258683,-5.961069517770163,-5.978496192648507,-0.121214050930109,-11.074589535311253
-20.70795202944486,-10.857787995051872,-12.916344053355589,-3.135372494608269,-2.798904312135853,-1.912187473248828,-0.4801054384692449,1.8730166824856211,-6.85872883494577,-14.034790937846951,-11.473505556290045,-8.166846635021436,-6.745980506611919,-26.50789502020869
-18.54992694575497,-9.499146273733729,-11.613178289232296,-3.666680744722885,2.1202266452630667,-1.761314501954601,0.3096685667194592,1.7318384389962036,-9.03787372457064,-16.131321846306676,-14.88715196559388,-7.321417527979015,-9.34599669067583,-30.923677435022853
-14.927293130935077,-8.034101450201044,-10.119278406964042,-2.634062619969084,2.684206091383416,-2.068622333972897,-0.4513676567984674,1.284025797175875,-8.859947738835064,-14.103453470143824,-15.24016913571812,-4.98586946559896,-7.600521814372998,-22.619975859092406
-12.80470008001798,-6.7819552916616175,-9.16812190559154,-1.524139622008167,-2.0180114990511626,-3.6450463204543055,-3.228200796788528,-1.4748779948445785,-9.20337188861742,-12.807078835168316,-13.274542592927157,-3.655619045178156,-3.640946889479744,-13.832425934106602
-13.079222853396004,-6.148354063653094,-8.464594541228614,-0.9312926574076716,-9.953971495393889,-6.147716562732526,-6.600623902857713,-6.967134854183209,-9.236612807232316,-11.036642089864722,-10.921612134489443,-4.773348608355093,0.4946280920782507,-0.3392874682154368
-14.12851155521249,-5.01807571444953,-7.098494242257573,-0.940743451433665,-16.90115275190356,-8.414868070666849,-8.6017411147986,-9.695145818083112,-10.049681232635914,-10.291547812708773,-9.978199366629596,-7.545932075748027,2.046907802421175,4.6955286786806285
-13.409374311012805,-3.605198723098949,-4.538086691279155,-1.125342165330537,-18.662307779095396,-9.440758613153108,-8.605990467977605,-9.88608707764572,-12.094927883818746,-11.385137624595078,-10.917424807642334,-9.548584757840011,0.7480181525412055,-1.0318469504071563
-9.656525384686091,-0.9587906578082378,-1.2976926909019717,-0.0815281893687513,-13.72423065275133,-9.1110241970665,-7.859966286513313,-9.647619667322926,-12.608184620836065,-9.919566063660287,-12.649238498938075,-8.635029320290442,-0.0513077999680116,-5.046345718962296
-3.882825413381507,3.191355940417763,1.3621186759955428,2.163502029409522,-4.640779947591604,-8.144738851351999,-8.10235936103205,-7.802307561967495,-11.830676071352563,-6.271512228606087,-13.35622499507448,-4.617442339081606,1.4137238394592728,-10.879238862258571
1.496743911336278,4.949932409566475,2.488005838886963,3.2096207645663166,3.171644172956689,-7.407843755069088,-9.639222920529177,-5.886163734449734,-10.240392117340187,-3.6011711674934244,-11.780992202948433,0.5945711182410918,3.003493345699906,-10.85480112063097
4.54621011784981,4.327209870323212,2.3106560765321795,3.127125407066229,4.889455223242692,-7.211464847629902,-10.805251434305852,-3.9879069669106175,-7.268919542512749,-1.2514416717466454,-8.043932958406838,4.434461737850167,3.96396423044956,-2.8007434443012933
5.127353685331087,3.804514605328163,2.104188220720456,3.089493713903772,-0.2090380923894841,-7.106152250633603,-9.392006798611344,0.2642038392279939,-3.895814068812137,0.2205029138246271,-3.4486548855187174,5.507130429577003,4.942259309102817,5.272570124588586
4.6974792546383615,2.561989548699464,3.0668113909401047,2.4002474043991158,-7.866695375511348,-6.266506414555714,-4.719055976614337,6.686645164339676,-0.0430030775133401,0.227572371143766,0.4752787501749402,4.404110122991316,3.905756588777759,15.77195828791023
4.912986066429873,1.5023378768624094,5.175768945242306,1.4496983088332007,-11.64253298094425,-4.181265125610693,1.5689312264702444,8.672562888654689,1.1391181471652587,-0.2352358670589439,2.8724164640046297,2.988465856535779,1.621734069363289,18.91219741862249
6.243984342875526,0.94795334956512,7.06047614719022,0.5589778372559109,-7.614109131675326,-1.1845967711622176,6.656517740977796,6.098984896557801,-0.8780468178098676,-1.5265337331838724,3.7372054203626695,2.823941665410693,-0.3269105753205238,12.909900407704653
7.660962835630071,-1.1026334261844013,7.062196136833524,-1.0635408268039337,2.5299128526192494,1.575290363097917,8.551163721013229,2.497565963292334,-2.653942208856504,-2.445660241342275,3.430345688909865,3.992155234766504,-2.5721884161608792,6.546096556004724
7.5305693746463485,-4.455857606700245,4.585292913778519,-2.9018729756489607,12.55667466624732,2.8184264948036857,7.191394606996425,-3.701530695193177,-5.016738741694944,-2.821232946871398,2.1953245812521445,5.14002524592672,-4.30223788705811,-2.9288393971840283
4.958221353727293,-6.005013799866953,0.5836211512976934,-3.366640827387967,16.266551474256147,2.0635192786216185,3.971252580868789,-6.530173850187227,-5.281513244834001,-2.493429241255116,0.1941262105020231,4.629602435837331,-3.764528835268039,-7.547278943762352
0.5768352735974265,-5.866981038769245,-3.184376002692473,-2.8767051174178517,12.047204252710513,0.0824760145781908,0.4762464238735573,-5.283580639993792,-2.70266520297516,-1.027481378545232,-2.113212953410481,1.871585529762787,-1.8755745316340549,-5.674194047513299
-3.743516611699952,-5.5095029829526,-5.425809014320631,-3.073455655163359,3.812850743637428,-1.6078748086174786,-2.312229882258573,-5.5369119580779484,-1.9910878477390104,-1.1834703693292126,-3.887400851107543,-2.151892921928829,-1.212852431792704,-7.243534512502758
-6.040561322981604,-4.269250324883037,-6.037426692414018,-3.094695216567401,-2.30433293861135,-1.9289514718367613,-3.9357218658503736,-5.858813183902121,-2.490782700903274,-2.9447815910249187,-4.4489240089323125,-5.542441208665739,-0.3151180688029978,-10.234993472299736
-5.502622590565682,-3.5719557816246983,-5.80819071250297,-2.20402590976437,-2.666954110865932,-1.1356356545909776,-4.141355902442237,-5.799098071719358,-2.1619478633032085,-2.835066692088926,-3.975427488572051,-6.827155961820757,0.4078654199569457,-10.66387207211365
-3.001089873581911,-3.6034776725382462,-5.527272816278666,-0.3843456222386376,1.5600879127355078,-0.5902977442033759,-3.0167738406163123,-6.027804714011399,-1.7087029232012405,-1.2418773055319627,-3.533508801967617,-5.9968919390282585,0.4842329668426725,-9.681372041545233
-0.5213478840830152,-4.236208369048601,-5.306302509278744,1.769515175387525,6.034325472210355,-1.5248897063298852,-1.3802980467338468,-5.581607349824508,0.203177509607048,1.5574497988512603,-4.183114001079272,-4.453608941977219,1.9964008490582583,-5.9401935033851885
0.202046281605968,-5.932754647290492,-4.597974535049685,3.482325378825479,6.983226608813885,-3.84113803719319,-0.5996950622985047,-4.551268560789963,3.912265296188237,6.290032920936559,-5.885587900670361,-3.866941084519468,2.8241506971331107,1.2533553145483496
-1.0618591584217647,-6.303245178856423,-2.7963605724437173,3.238549993852557,3.8616793621838745,-6.022437104523938,-1.544347142416056,-3.535515346036173,4.719940767030663,7.191241485306974,-7.321237882110605,-4.786324991729813,1.592272906890996,3.877622700793888
-2.849932368654624,-5.338252373187774,0.0717777622512905,1.4670921900443992,-0.8435542196240107,-6.2803203551605336,-3.5355721125283246,-2.4081225934541326,2.677841499230244,3.986727372328808,-6.9636738429403024,-6.120400074358251,-0.3996101949637364,1.827842852617306
-3.117332762831502,-2.1073477992388336,3.0767268557356964,1.846852678436874,-3.8748548944493,-3.983924552277376,-4.539953048130105,-0.0117541502118339,0.6427553990126222,0.930383620629627,-4.508395234395724,-5.984406874391858,-2.3660088046412056,1.5003905859529143
-0.8504115998054225,4.14025741438719,4.809153613625956,3.352449543032397,-3.4695896381716835,-0.1957796045738185,-2.7906041415007152,3.6724476816212137,-2.3653082233613483,-3.2812886128394902,-1.274596856534096,-3.30890696048591,-3.7376807598254382,1.273850830378935
3.116699998842858,7.003015773560657,4.3469089709970845,3.9611934124688273,-0.2291351887225907,3.08984440835847,1.5028068271616704,5.732703344514146,-2.368774197212129,-4.027134774093232,0.9136095557211732,1.1136910160105664,-2.938589520208449,1.3758323368772096
6.767120487241918,6.511844040505419,2.1431570466020204,2.680106445376389,3.466131393093232,4.360562674917276,6.0319324861051165,6.210765851878609,1.2872311395563094,-0.3933224349103702,1.3776015408359008,5.09246762332053,-0.7813030638636902,2.69588659770729
8.456248515783717,5.685987375657784,0.0462771553634375,-1.2725127115832435,4.87492970067273,3.5644953174179363,8.167901059078215,6.280627041850659,4.104250378455195,2.457882314307663,1.1854435225442934,6.697739296947411,0.1093975627964299,1.2539615549774417
7.9974831155618915,3.0912491204526784,0.1596224912834998,-5.866627703324281,2.533253207324257,1.9984461236656903,7.143941723593592,5.270368496759086,7.064313311970441,5.753669311402248,2.092633825101956,5.725897642043098,1.2415271891804711,-2.8629623210144497
6.432173668220923,2.9709625882492454,3.2203928805373465,-7.223000478833812,-2.546788950892349,1.3046644608978326,4.684458735086324,4.23323181361677,7.779196831662234,6.391590573565471,4.838897183759311,3.714280922172396,1.9217964234230265,-3.292512609439644
4.912600484479636,5.792962029122887,7.796176292958695,-4.29875307511406,-6.985567803240663,2.3658340191198164,3.4963136457182387,3.225913243256327,5.330409386122871,3.345018685440892,8.440752824016549,2.53907326001897,1.4545147871544342,-0.4066152478856791
3.866185204776016,6.684605759292659,11.113964539150938,-0.7151250856161834,-6.924771811290782,4.84622073319747,4.951432185610059,1.7922025850762484,3.277323094694753,0.5507430814553822,11.09173238696498,2.888614882534089,2.6472604274559006,4.037039082882467
3.09229503047364,6.536447694037874,10.993979720183043,2.200869145025258,-0.8331275484316762,7.583125382604926,7.973470326397585,0.1822511185246247,0.8371779964774336,-2.9860523725764767,11.674529086765451,3.931991432011156,3.466037190546374,11.435551580236496
2.3454703429648376,5.777157279686536,7.359703202647665,2.774666317593021,8.848054139529594,9.426945685060703,10.031027482287987,-0.2283220733671623,-0.7651393919250075,-4.49215028285906,10.399022529025151,4.312204464219089,2.657666539249183,12.82876268522914
1.5651152531870205,3.6123675729689353,2.1373723584140976,0.6833770040200081,16.872587849596353,9.887228050683014,9.313303383855455,0.7192807103963816,-0.892992298262049,-3.1915043516321706,8.16254976926886,3.391017722291384,1.469803864973602,7.58064804719017
0.592705566847652,2.386208978501392,-2.234090271361957,-0.1627284005749527,18.660188123319585,9.19395315177852,6.223478343674785,0.4703556337954028,-1.3669073440262536,-2.3024865566815005,5.610108427985896,1.620628334904907,-1.2060619743744447,1.7467512108472
-0.9657148051210848,2.048220931654621,-4.334458072771341,0.3344647786071835,13.486665663930555,7.883536601371368,2.9949317159787547,-0.7497971863651154,-1.7033170721658115,-0.9809851437694986,2.998775404830024,-0.0662467945954361,-4.59019217628428,-6.863534944671192
-3.2361431676645616,0.6167691972264165,-4.1845241039826,1.1796424205151086,4.853993652899579,6.35568641556317,1.84550388994948,-1.4322031361955132,-1.8907805393654755,-0.2538254800084676,0.7946740761877713,-1.0252653055596035,-5.382456732790101,-8.896696308931766
-5.421616492803384,-1.519358578551738,-2.602992228636232,2.1347221531181413,-2.220111275510245,4.761732288105698,3.2578845422086573,-2.002936328921808,-2.134126636075637,-0.6130883287388272,-0.0697165231648639,-1.090738244770069,-3.2331678725838864,-2.968588749580236
-6.003597294778942,-3.641266443219727,-0.4400434050808179,1.7383970034882357,-4.757948526455387,3.209286738034791,5.778461945282459,-0.9039279303634312,-1.969767024659736,0.1482205895773567,1.0761034208511973,-0.2932083763086623,-0.0280498490441284,1.852723827941958
-4.018258968893921,-6.0118551047618345,1.603222362277311,0.4238774450354146,-3.4605162082804064,1.974928877361375,7.381898726020662,2.2161787635841703,-1.4413485111256965,1.727183539525302,3.634613503169604,1.260599382426857,4.61692078588927,7.948369943147881
-0.2837679464182798,-6.451794902716552,2.771995012307297,-0.6220861573307592,-1.4318864791698722,1.4551237148093925,7.12771637138415,4.430881604053296,-0.6519525099039101,2.420135057384108,5.770353718765211,3.0945827707202938,6.927215385990877,9.879089093148853
2.835096078253457,-4.667001298453628,2.3348485402589,-0.7301338442168143,-1.3705824648139355,1.8691056856945456,5.677630256740546,6.057147382002953,0.4836409706610668,2.4758961015926118,5.799331943303981,4.168411536363845,4.488145968162413,5.960990072158968
3.21626678873924,-3.4380226805304197,0.1255265200460797,-0.4435313513704597,-3.602454728703835,2.975883515364892,4.361051065978305,7.665131291854832,1.1366935922574872,1.6846541386068514,3.716977755439704,3.408526580798103,1.3474263789534844,4.515068496445895
0.7680567381201904,-2.2836173006089857,-3.029978611072023,-0.122258477029745,-6.325324776952696,4.073900030744376,3.818955471576624,8.688886439196402,1.2395594941595147,-0.3254898702384741,1.3236459652304422,0.7779745442535955,-2.731196624128092,4.019977072673995
-2.494660610241109,-0.9927632805015568,-5.649320088472882,0.4786652703245321,-7.490496788386778,4.359606976717643,3.562103853457307,9.34452318207214,1.8141410862093907,0.262625147681357,0.7503767142324378,-2.1677036806444683,-5.780420304518393,4.573147469230513
-4.175460324821716,-0.0363423470463086,-6.574194676403467,0.1806220803025932,-6.511808208191921,3.474113375513824,2.783527698847097,9.50615117729996,2.6983075417522757,3.5823429418356785,2.773547947977974,-3.1167707112956347,-5.104142230224315,7.575473158248593
-3.3578657098419296,1.4004690870549856,-5.729847186528208,-1.4579084507139606,-4.381130105665182,1.891634585157469,1.484873466412333,9.347051465773244,4.835306889195379,7.7079149680912575,6.436435648826082,-0.8307099648756608,-4.299967272531321,8.454416400099033
-0.8965638016505508,3.2143611349053782,-3.94639929577226,-3.443795324341686,-2.330308027856102,0.7972007296978791,0.6901460793326812,8.84789693298891,8.513533000287902,13.571676410233575,10.100394256634155,3.598777658972793,-4.062722312529285,7.495665233445266
1.8888242910836297,4.181467812986141,-2.048948383811937,-4.543262190159483,-0.5247049256905791,1.3526136489523246,1.4893837337005973,7.901169544359445,10.490877107547249,16.710909212160754,12.70660680165678,7.383140964508502,-2.733762939581443,7.857655807413471
4.553039518888808,4.323982995884999,-0.1509858597170117,-3.754188989824145,1.81200570502308,3.716637191828072,3.858408843858672,6.527634579523347,10.855449790937575,16.663508632122177,14.116169647166448,8.239660611838667,-1.4700326030582138,8.809195793857322
7.505040396299806,5.835731247888094,2.161894051077197,-0.0419348146587006,4.932248269384919,6.5595157976049645,6.432435150255075,4.951074242687374,10.59400902718194,16.747460986242796,14.609505456312815,6.301831036862321,-0.017278120837933,11.836613125013471
10.883082254157026,8.606849268120632,5.0272016400695385,4.620285446539596,7.37799359503077,7.658458359084661,7.487580306044129,3.1752927203648675,8.96146696168095,15.830782350744444,14.451747787788364,3.990024190583279,3.337919053106723,17.575701289620014
13.82430414289126,9.839739755260984,7.797257985670798,6.188666840306083,6.675196945940704,5.395068261062745,6.263416878100548,3.1586621065858487,8.907266594253477,14.812606321759848,14.002867596028448,3.8937350238576096,5.138206004255662,19.195036198681716
15.101369963953235,9.80068842596186,9.413952936490883,4.435573497947697,1.720501910566159,0.1184133831735034,3.5002448058229776,5.168709004484922,10.591121332743311,14.050093785014951,13.877066084341656,6.530519686178523,4.758269238835362,16.737693222416564
14.435878188421412,9.431044813576651,9.311461220498185,1.432296488496985,-5.296513598012594,-5.798145114259869,0.807958988020022,6.290022645042096,12.590439461386705,12.717595333566967,14.483519130484437,9.940440509942055,6.279483419345575,12.697335257346095
12.913415384255227,8.189136514799912,7.934825053435087,-1.0451595421191555,-9.675775054618391,-9.46898002567865,-0.5478596259423445,6.925054156190489,15.643620392025536,11.134173574288988,15.195083949448598,11.365451965193529,7.246061639072619,5.466629742419422
11.862022552035569,7.537481896880988,6.359198475666759,-1.2069064395741074,-7.6751136660185075,-9.531398519455571,-0.491839996545856,5.638852482045534,15.14791917431212,8.453876841424666,14.2301468725429,9.43159244563996,6.017655875131871,1.4870250695902447
11.31456390869531,7.594205859837539,5.396346696816384,0.2743364857874746,0.0581151477976886,-7.0882542995859605,-0.0702823747234632,1.7070942495407797,10.658676885207958,4.556242384231491,9.886502669649712,5.0016950183849005,3.6890292071885566,1.206875353970006
9.791284029245531,4.64603446012283,5.0463549836386346,0.316965540949622,8.313038719073171,-4.733003755776755,-0.6264468422473821,-0.8711069438739947,4.680443077591109,-1.259676779418797,2.2935004346099297,0.2550991378799363,-2.434184886779162,-0.4869629356098519
5.843784784791003,-1.236210825113416,4.741410983681934,-1.93549225546528,11.074487983205213,-4.411476657740497,-2.841528461860577,-2.481550725134692,-4.040776077536232,-9.357545746088592,-6.050212741521214,-2.933132578236132,-10.439783412486886,-2.1306767220250453
-0.0877651095245193,-3.480379170607708,4.023862328790504,-3.710395387566689,6.363040120122918,-5.884376414100654,-6.26607612596751,-4.124011053902477,-7.936529160192429,-12.887207566075286,-11.817109316680025,-3.9726812155072393,-12.21058236305819,-3.121189213083187
-5.426017105480011,-2.4066113443081245,2.957519795961286,-3.390817410819303,-1.96332702608542,-7.0684622791817135,-9.61502479963752,-5.032056424726949,-6.260316783039682,-11.553297561572366,-13.358477279207564,-3.464584877146033,-7.590457910785907,-3.97638022128781
-7.241542188057998,0.651696296697127,1.9712881145527428,-1.510076261481945,-7.179722741013567,-5.920235749614811,-11.624478509430944,-7.263332430141623,-5.14087091453029,-9.637728380785136,-11.953746310023815,-2.5222518231147584,-2.427627489651804,-3.664147829951418
-4.535940090049425,7.223001902492651,1.4409749172526984,2.152040679919629,-5.081370950837678,-2.211851666791619,-11.898934670640577,-10.890933230670536,-2.716229115883249,-5.506434236462128,-10.593758989851482,-2.1263078947321734,3.5833750494459435,-2.136979617018135
0.9674923490244592,9.002372637355435,1.4488866301189225,4.096008807690692,2.7204061527587395,2.2947307467547726,-11.143923616905012,-12.90871513529205,-3.226573854020326,-4.487862095020608,-11.370403480680976,-2.7398098452296207,5.378449795569658,-2.8225610836862707
6.084705453056163,5.6176413894703865,1.7903205473472124,2.346163814659733,10.307771051046943,5.299275417888145,-10.57717342912673,-13.591337436587104,-7.732628059275724,-7.387013148281371,-13.867500392865791,-4.18160526308005,1.26367800044392,-5.780686025386197
8.243563437023159,3.6656877556118914,1.995106900740492,0.4782365681267577,12.322876199692775,5.653448012843846,-10.94428816515862,-14.316430973897948,-10.341567973250426,-8.297537617407468,-15.971498242076386,-5.816973294561276,0.9575070819608712,-7.975210405685497
6.698438925012061,1.3520994190606153,1.3092146553567412,-1.5057058628802702,7.960137544051025,3.847480670718082,-11.942059434989776,-14.54187585176874,-12.15652079823565,-8.491321593469483,-16.17907171273808,-7.067059794869862,2.054412046861836,-10.087809005867012
2.317917190815252,-0.8315859026825813,-1.0759901326917944,-2.2737080353833186,0.8940251290617756,1.118108848044547,-12.57200979293506,-14.226421237375012,-12.859583142432829,-9.518295418287028,-15.090648474652609,-7.896481805536144,1.6505732731207454,-12.955637205978892
-3.34172712572483,-2.0233278391153102,-5.371589247050828,-0.3621552628497918,-4.297775759372403,-1.706879433619144,-12.130997906802024,-13.456016423249524,-11.441651438692958,-10.642302727346612,-14.686967863054615,-8.76817459675884,2.0710109302627644,-16.204043545160758
-8.756183393064767,-5.882351415000141,-10.542733729636083,0.7865126039297495,-5.742978348870034,-4.46222727015634,-10.899572584535694,-11.381335568395402,-10.98670595764553,-12.676291145590634,-16.228239296433713,-9.991335926845869,-0.2388199623901639,-19.636801366484384
-12.74157485500617,-12.238207132084924,-14.453671419759946,1.3183805202935943,-4.911577947574759,-6.965741680203826,-9.792788239239758,-7.927457879258561,-11.198157539778029,-15.77771159153965,-18.914725576880173,-11.091859929873312,-2.7661739625678443,-23.286412976911432
-14.680358628279922,-14.570207620354571,-15.076690252329964,1.4195968755683823,-4.345809183876559,-8.425630551519639,-9.235141776452648,-5.006273535252152,-10.042812612876114,-15.49600040049961,-20.569865620462604,-10.96428186426716,-1.3998729356330455,-21.1845668112681
-14.76200583689602,-13.097576080961982,-11.976414893393777,0.477376458395955,-5.104570967985367,-7.808904283707989,-8.401868217373542,-2.537364245388971,-7.961600662875194,-11.657213838380873,-19.55538077243346,-8.821401468351343,1.46070389743994,-12.66315104905261
-13.883925507834492,-11.542472529909007,-6.803948889861193,0.1416438556031508,-6.291829580104562,-4.900788142433689,-5.784936448145171,1.0706826345415352,-4.5851091971873705,-7.653117909782415,-16.02070254134548,-5.076287240673184,2.1037950592195207,-5.757373122622594
-13.012540626800622,-8.57462591077658,-2.2830514355122293,0.162360249783617,-6.631831326381909,-0.9184285300724078,-0.7969587505373461,5.494249806869749,0.4576419593304209,-2.491438085937764,-11.44628620393656,-1.2542452396134998,0.391402380947445,0.7607588011199219
-12.475796723925816,-6.84499626719677,-0.4824764551579665,0.1619994901130948,-6.096462414945035,2.104631288277675,5.05265337038013,7.51613369409398,2.5261245086229143,0.9265547041960884,-7.215175670787774,1.0520768863865326,-2.274300509900041,2.0955444735142787
-11.916017936890142,-6.922779927012456,-1.7293720844454803,-0.1120527524346842,-5.886983765802982,2.7420246110213897,8.751904976826049,7.071078315012382,1.4376885851248675,1.9239677216336133,-3.746536680320205,1.2569956567361782,-3.907458715715087,-3.77131471456082
-10.961686141879255,-5.16534302702139,-4.797521583852487,-1.6771537054013592,-6.968242904664094,1.1792092379608494,7.986805709414206,5.281727034773452,0.3715200782625439,3.480570001925809,-0.8542473787125404,-0.0087466989951598,-1.6794986523559428,-5.792256133003979
-9.798997143185447,-2.205401126162585,-7.850896564423155,-4.238126750740786,-8.783749773139284,-1.0454750818088154,3.206949541357761,1.3083480727230896,-1.735009560302337,4.748174499962562,1.4295240668006262,-1.556091583895208,1.6064500728026403,-5.271075278513819
-8.869102918414221,-1.2870300438916882,-9.247933357628138,-5.560624419958752,-9.452562083686646,-2.26941082150773,-2.3095425328252297,-0.8550483187611042,-1.8732712787096928,4.762578875939506,2.7038899918384898,-2.410578879297786,2.275371603288856,-4.224241698593015
-7.996651502232113,-2.108572534432893,-7.921936392422335,-4.410517969607014,-7.267851849053547,-1.8386326652332183,-4.67773771740712,-0.9641154567485282,0.5444737204944522,3.7461769513374783,2.8762758466229448,-2.083292621552796,-0.226972175328065,-0.5943107304529783
-6.127736598647131,-1.2740650526200668,-3.6877862015623792,-0.3864160426196341,-2.187221523389982,-0.3178467252201988,-2.2556864286164293,-1.368771573037169,2.419960620551968,3.84892768293176,2.700947707996072,-0.4656256084999137,-2.345042239354983,1.9478531031484017
-2.3437463679042843,0.7982570167441116,2.363933967958972,5.871977470110195,3.891292687839811,1.174363532226777,3.1299704946374733,-1.0889057857394666,4.565235025198663,5.109265615123181,3.2823315745725505,2.127731277350688,-0.9834870143306544,3.57176161294478
2.693868734882048,1.97923139590464,7.890360774415202,9.047005523496628,8.272361448141632,1.8147946345911352,7.547393296454111,-1.0574952636485035,4.386820181820841,4.684316697787306,4.85247251607476,4.6669608230138095,2.1143883595855217,4.266405960410036
6.527489185367529,2.778410402507527,10.309090296949416,6.869359325179355,9.216314610920223,1.4787506552358245,7.82462200650387,-1.4600485369254048,1.2381453626650616,2.91717998231252,6.121756642832104,5.452762212114584,4.81247510464652,3.1914320484731555
6.579637452529584,-0.0912480458334467,8.448157662898748,2.498361219511799,7.098473730288882,0.5827385578884581,3.7246540230701823,-2.711031075943129,-2.7431366892490057,-2.542981177064496,5.110628288445383,3.0443001889944465,3.937193685180069,-1.88930564643526
2.4251433991622307,-7.294439764260388,3.5258769942842583,-2.996549922294169,4.146836667287051,-0.3246473437017867,-2.101022216829917,-5.175740620678167,-8.39648147157134,-12.538788693656212,0.9196818821576148,-2.351282558795027,-1.2329501725014669,-11.68055157007283
-3.496891893221047,-9.48362730738163,-1.5877213588637402,-5.491794680106461,2.8662064639843363,-0.8703369419779259,-6.147079632878189,-6.725128153016544,-11.34242738926677,-16.650078647561866,-5.155106046700019,-8.344869472772551,-5.518987878127057,-16.607260066132838
-7.595149076960475,-6.975102452068898,-4.399517468644149,-2.6444343953224867,4.233912270240448,-0.9260179835155572,-6.432104332892617,-7.47327739831407,-11.038586536133604,-14.929043720244366,-10.290136326095917,-11.638709518151805,-4.49170998764874,-16.752218125242138
-7.856035712989706,-4.147451133685646,-4.425679902812088,0.2191559880926477,7.038716467013112,-0.5130183380136066,-3.5244750210659506,-7.730024812413806,-11.134625790839769,-12.629434104477848,-12.126530635323334,-10.44032328561606,-1.148476263306009,-13.767599539621068
-5.19346710703538,0.9618496364087524,-3.061027439390572,1.785613403859436,8.923146063351071,0.3144147275423883,0.2970139801207727,-7.011432249124911,-10.506014031358058,-7.435244697347939,-10.41724960966768,-5.989596075911853,2.51238072285764,-5.215044811062497
-2.305152601408647,2.939052256149329,-1.9686832342918783,1.8449494197212517,8.291221275039145,1.5069474142282742,2.8665363252919644,-7.463184081299761,-9.78648043690793,-5.354155724799644,-6.957488080815061,-1.6417491029014026,4.904503306202288,-0.7864398799342832
-1.215319932283849,1.1024295114908964,-1.601713108550215,-0.6740421744324263,5.473278549111869,2.9573258007362826,3.4873825654772657,-9.122362842950782,-9.399539456483094,-7.160967301869204,-3.946039844808857,-0.0997397711172554,2.715181554952048,-0.556340085156259
-1.758826804725066,2.266645517870878,-1.1602078685915962,-2.6508166750549056,2.21744718863926,4.4000374439486825,2.937723174026873,-9.757503754639483,-7.972226309472664,-6.263087990404676,-2.256691454210011,-1.226361062105309,-0.690183449034782,0.7530600554069646
-2.1957050607992707,5.314777694690831,0.247039266741488,-3.208614493301926,0.1163815756038126,5.387414738032684,2.400294975168101,-9.74017667001768,-5.730945646900597,-4.003858911770361,-1.0757669754220356,-2.4477862447333982,-1.88663575168899,1.0338004334940063
-1.1077347726948836,6.824960721662118,2.5855238406995684,-2.798598130747808,-0.5144751511760086,5.434284328410834,2.388156852677588,-7.552447334796678,-4.452416416751163,-2.2478403907013425,0.9250951533633556,-1.339272428129369,-1.9460082838277435,2.511210764580496
1.2962741305594585,7.689717355516019,4.9991495840026055,-1.179945186931432,-0.4063786683570525,4.300762604314259,2.5750186101194195,-2.625245612399764,-4.082686811232131,-0.1379729470481693,4.060221686220015,2.0978461252072256,-1.2342045242003203,5.690345877698614
3.537271511116638,7.046446390623453,6.695738826148727,0.8064143455980943,-0.2831609554401684,2.236493789924212,2.5139467046170854,1.5443034536879627,-2.918757277279347,1.3652528635210428,7.1633292768156105,5.592189145432646,1.1239138105888546,7.0516553637132455
4.300598197552643,4.30337674622804,7.513225946149825,3.282095316065833,-0.2222141278419487,-0.0354437996769529,2.395032163666442,5.329840744144228,-1.263767658804628,2.0665396178073507,8.585482388740802,6.877169833906021,2.181707866382088,7.048678642669493
3.4903885251120443,2.432165243420393,7.611384000288297,4.3179836818424295,0.0099413941015916,-1.6696047424074392,3.0009244988024117,8.880883504715394,0.6202611891966949,3.26365621628066,7.735119827890712,5.749763397541395,1.3445599522924965,5.131130872371038
2.041777020251116,1.2000757761507872,6.85186460590296,2.7624127589183365,0.2700370012351847,-2.201356641992482,4.8580563788944096,11.47033182324438,3.0140425404662703,4.748580459118356,5.759281813084611,3.9829068041699314,0.7306600999724285,0.536208938419699
0.91141546920905,-2.143341729559698,4.790132497828857,0.5286986464396167,-0.0508547614011485,-1.845734808307396,7.442828009952571,16.675580771101576,5.818971954889959,5.377889392348504,4.712483212383979,3.4301931571915407,-1.47648682378699,-3.618919967354452
0.3370318174826825,-7.2069044014549455,1.4070397285042384,-2.996733336962809,-1.3811832215701925,-1.3351672147836149,9.324317019095384,24.509330188336847,9.097496965216894,5.2705928962725705,5.863594919902339,4.367765562136663,-3.716776064591,-7.582074565171095
-0.0155262918688361,-9.148699980507931,-2.3013106767578995,-4.86108753689099,-3.374407814242171,-1.3773771124744665,9.241695498642352,25.95106356343137,11.496039679820605,5.60930797984598,8.54767834319299,5.597028109240863,-3.577633851707753,-8.460713021798451
-0.3865208285685626,-8.030093449952735,-4.760103528537767,-2.449614184194504,-5.099418120580608,-2.135995531568925,7.170871967755767,21.05038378298635,12.89612127919796,6.253070039520633,10.548782442304525,5.8672831947654505,-1.686670500371565,-5.258430607722099
-0.5550472635157366,-5.850442228975725,-5.066567638795513,-0.7573894384843002,-5.829293773486735,-3.147192092291961,4.378698239007833,13.837409637306235,12.75244078353738,7.95431755294063,9.77524863358621,4.9693131031688935,0.888901926245889,-2.481139585532336
-0.1292507763825025,-1.4732507973868283,-3.823122895372812,0.7044997211158204,-5.561253541491998,-3.733213977370301,2.390848243642353,2.2234629162083577,10.56417248123943,11.047580342375875,5.958758553247838,3.538439532007471,3.495089906951188,0.776281597319075
0.9346754837085278,0.7195974107783837,-2.5667495252637607,2.0847551935639745,-4.738517012239795,-3.5486197423099592,1.818993352481507,-0.8695718474576417,10.310215150230295,13.090838062579175,1.0919040496724652,2.1837156111355114,4.139970754493853,5.038073732750688
2.247090002003047,0.361136213159033,-2.2011955475097773,1.096825926587511,-3.575703192397637,-2.785050791220882,2.10369746018726,5.830810975009833,11.95594998685917,14.22827508250622,-1.7225673383869775,1.1590727333711477,1.7431933568843798,9.655283821195704
3.449774063423302,2.872786967743659,-1.9670303886062328,1.7185674528468362,-1.835483417651008,-1.888287451280247,2.3264486361656047,10.241236960809946,14.23079224460013,14.129546908980078,-0.1865210793577265,0.8552595374278615,-0.9095868962289022,14.328522025165167
4.66988901120155,7.425420641249971,-0.1040766462659119,3.949318205513656,0.6429599824977865,-1.104364391700123,2.234151675337263,15.375249901711395,18.078194374159143,12.172710538417707,5.819999858139374,2.176595627883368,-3.3302365227393618,18.84566105753854
6.371743944249936,9.185923750140764,4.264446512796748,4.071964140122589,3.2717497217200937,-0.3177070815137246,2.4734380126217,17.04025456027382,19.568503454166493,11.874068388916166,14.249020480165404,5.907475130002129,-4.28823526569074,20.168906009204232
8.690854315499138,8.689041749206709,9.790179704336676,1.6292904241821156,4.75874549160089,0.6724914984841246,3.8489055221051127,13.189728213195014,18.47702587707312,13.154737176836438,22.139721575567577,11.475733454368552,-3.0274582340270664,17.750687710490364
10.961917962782229,5.142118537856971,13.489156761648603,-1.1035922401806146,4.021627986612555,1.7608418846520135,6.356326110026227,13.03903520106266,17.6555739248948,14.864510077493586,27.199978366598653,16.54637364858162,-0.9216139603346398,19.44430398200204
12.019221698604476,-2.6264184488308526,12.908384370382192,-4.888976190915409,1.1895147485138526,2.490958442186681,8.918141174678109,15.331140506677148,16.20974475763167,17.798546127058316,28.71041356077349,18.3156266402204,1.3957706996508945,24.88323511359471
11.06681972802656,-5.503339764065327,8.059147065156404,-6.482524882445742,-2.2726240567475204,2.47206634931539,10.07948727325796,14.393064659282576,15.194840355837703,17.709952497057166,27.338606473668627,15.66388754406291,2.564206416405528,26.66337530814462
8.325923054647431,-3.4167219448921484,1.502794707855851,-3.0070581218202044,-4.508618596899247,1.8746922379767792,9.086992979251972,11.41689005889829,14.999645937814728,14.28856315910063,24.260371389861128,10.2481927664559,2.931615014697906,25.99308146985083
4.878615664027346,-1.1924590613507904,-3.426023344807044,-0.3113083256027698,-4.506951175391329,1.479442295464576,6.487097611143448,6.414118588030414,13.265231510149746,11.133007762137437,20.39923392946643,5.388526914473633,3.4580306658212017,19.51817944079176
1.8906438305938196,3.218246798305172,-4.799722211496521,2.7757879681971147,-2.629123762379293,2.126715695036752,3.784832300941512,-1.5846120711160376,10.22564398366977,7.2811247505416254,16.30103886023686,3.555710301890388,4.631813956322824,5.487130031809543
-0.0938455876843296,3.946301271304253,-3.103561445747601,4.721221446911073,-0.1279409030302796,3.9778849007235246,2.402141586242297,-5.577401367543425,7.314360472727116,4.9652578491912776,12.432900508165318,4.537019004110896,4.829420952175696,-2.1558172207049457
-1.280515239328316,0.2045957508751588,-0.5848329397573937,2.6921028036636514,1.7697263592806758,6.224718005073528,2.6630432878658854,-5.338327677233228,4.168064483534036,4.862428265294169,9.26446574276278,5.75347392947829,3.1785699340813194,-3.860371578129914
-2.238909744230124,-2.3086528099337498,0.3536065370080803,1.0786600822605448,2.4344099667641945,7.552800888678202,3.53377314245433,-6.793021273257211,0.9955116059739876,2.5421660549613723,6.839256313844532,4.370779908151065,-0.1333293595382025,-6.5749368038543565
-3.409769400187267,-5.009250359174008,-1.3929349427738602,-1.3402598091109483,1.8232130223601604,7.053254309666562,3.365232697021428,-8.501474653474023,-1.9758280035263875,-1.4829976409872612,4.33705806633259,-0.5349378315057602,-5.838593149299879,-7.437132372194176
-4.81712475809902,-5.430664116756965,-5.090560351174686,-3.095312535615854,0.250985193496468,4.9014580091839735,1.1753363452179866,-10.316200890041952,-4.0604367100124295,-3.9801797822733858,0.4302383228975217,-7.344735589691567,-8.375429985340158,-9.003281255346845
-6.054101228125324,-2.563006641580062,-8.718298444231813,-2.0295952866141427,-1.686547251089811,2.2941472073384688,-2.4704692123769423,-13.053877181565746,-5.016126934887288,-5.536948395568742,-5.486412476313932,-13.07696730072556,-5.968790741901055,-11.875349436006603
-6.500340365598996,-0.4741186558372539,-10.274614966334758,-1.3218592076978533,-3.1326902233607496,0.7017933851477238,-5.740416096730094,-13.146243787401495,-5.514272236749941,-5.392936183909875,-12.220243980005463,-15.38482410922331,-3.638146744245168,-10.473244406835608
-5.703655213468143,1.6205790172741603,-9.097073894290304,0.2847593807527292,-3.270625938960781,0.97961907257798,-6.883782680029072,-10.584147075075018,-5.28293778620894,-2.873825504562145,-17.113714758454023,-13.992949693172486,0.3257730488326801,-5.151900680210185
-3.745755402870577,2.956032016085974,-6.319846027952062,1.9327797022846025,-1.892748566693192,2.9219927862199784,-5.631896414631378,-9.423723671668215,-5.63441853563867,-2.390854502821373,-17.87547216898853,-10.713944834927204,3.0075366615354464,-0.4814732690305227
-1.294825811866215,2.8054313964392343,-4.0367618616096,1.2228002897870076,0.2854746917661375,5.462441545701444,-3.48148347046884,-9.113087386945097,-6.7260352537338015,-3.827059025196946,-14.467608056030093,-8.120175240759249,1.689007614479133,4.404033361367088
0.809770048662747,2.986616939639652,-3.6835550139953264,0.8461238451673101,2.040803860253529,7.274947495757468,-2.551752406670194,-9.065247681613664,-7.520809748060727,-5.108817252520266,-9.31392661503402,-7.770653511454417,2.0643278328518284,7.73976275376099
2.182312776134757,3.0934913319457245,-4.887596601189977,0.1014980844156937,2.5640045890818977,7.376798117733074,-3.915389807917264,-10.043306090876222,-8.35762820835102,-7.163351905288217,-5.51664332647665,-9.19557606700386,2.67368449403971,8.538629916098358
3.184934727308941,3.4358561417201603,-5.775870907669537,-1.355320139416158,2.0688759958368905,5.48810168660494,-6.776092917403037,-10.547140176504424,-10.297713213513685,-8.764616747657298,-4.600255419755202,-10.374746935815228,1.6592679983977234,7.159601727657589
4.572262051895501,4.290887785910216,-4.545346651760113,-1.241841619260145,1.4941143516233328,2.123018059542246,-9.14687789029837,-10.667386210314849,-13.359696189967057,-9.727719214151367,-5.7366454932722135,-9.387260718939938,1.0943454388379754,2.621038184402948
6.754902651791985,5.764173644148659,-0.995742234711476,-0.7454726768979051,1.58803704139076,-1.5572338762329043,-9.40982015169525,-10.752916712703168,-16.34130121621759,-10.94573029073729,-6.992604869024557,-5.975499748504904,-0.2668753909668396,-0.3996546200498471
9.33237232077724,8.092956597123981,3.2585257813876503,-0.238873683516763,2.2762882879455075,-4.155576044953858,-7.451779528023411,-10.50529971563696,-19.442913948520683,-12.103582478288992,-7.265534874823889,-1.773129622585314,-2.4428048057871066,-1.925517271869596
11.34040094187452,9.4530533839899,6.051022836369751,0.6431862704181683,2.891184780024094,-4.673336005446933,-4.538022201745873,-9.130527735293812,-19.27977783936676,-11.598406617313143,-7.046887779206672,0.9965585501868848,-2.6858415287554407,-1.3236833064849751
12.044528849014402,9.834397811150753,6.3367640850654805,0.5865568971227915,2.951012611026927,-3.091263532258559,-2.199989446011619,-6.478776967314424,-15.281117002200457,-9.32773522035115,-7.423842336422007,1.277050738128082,-1.5435495725217827,2.7258064825922528
11.641529849077742,9.308154267582353,4.943195846390339,-0.0675297023567355,2.65633798173668,-0.4663015048779619,-1.1529258665647155,-3.9681076286034336,-11.357489049924483,-6.706591115853587,-8.49550313841713,-0.0523646340804773,-0.4328710974774826,5.640199132423676
11.274864108681976,7.37470703073308,3.872769774440836,-0.3008804689357964,2.62536180368929,1.659441585891053,-1.0471756280161948,-1.4223993674025726,-6.6448778155494,-3.357708803012214,-8.924904363023487,-0.9821784984794172,1.5537531915152896,7.877209510655254
12.260813230656796,6.447889322140116,4.760809493444738,-0.1301010306544702,3.183694372630149,2.212574055937557,-1.041148894720079,-0.0083790422874956,-3.9125490222857504,-1.7972067956067026,-7.17892163462448,-0.0286429369254106,2.5733273236737992,10.230595261623929
15.012605860777748,6.510728580170724,7.667762525844318,0.7005979197034143,3.934778535776017,1.2189796419161696,-0.5585712363003532,-0.1369001888569645,-4.024346763734063,-2.461439498390698,-3.272879823480963,2.6271054282891324,1.982984817801241,11.817285999204415
18.452213460886327,7.031436628077434,11.066299104918215,1.940801706855679,4.02474268981104,-0.3653155910362724,0.3684731834886559,0.60220460000999,-2.930778178360267,-2.713369434065337,0.7756012282930778,5.381729580815614,1.8041266518131271,13.040221702364994
20.468898286374333,8.60026186935054,12.97737931549936,2.4536474781357187,2.866233965054544,-1.447206131331904,1.2788652045024826,1.903254091042481,-1.4453879283324758,-3.2194391141355885,2.4280058915351885,6.545031702109142,1.0885543324827005,13.681124251192989
19.25921975641941,8.420532171357237,12.37255179408217,1.6957742793870765,0.7015807167468817,-1.5348882122251308,1.6889872384955693,2.746416825913529,-1.1017397993784217,-3.1225792111437705,0.8010814854129111,5.643314157918238,0.1428565768422915,10.793404702984828
14.628946028641526,6.390947516848856,9.7808094225952,0.4746330750276969,-1.4643235086761754,-0.8697398894526112,1.4070959802858156,3.510100057283191,-1.4245778866640866,-1.994426912494572,-2.5056149965752024,3.6678069455664017,0.2637974982864497,4.021773279187996
8.215285836248324,3.2979366815271,6.676742665967904,-0.5103667739237974,-2.53284437463883,-0.0024532748863236,0.6405057145200129,3.867556417249966,-1.4791335314599878,-0.7246013387125646,-4.809742894328279,2.1442389322098254,-0.1642638417780833,-2.6788717788207665
2.375469954816585,-1.593300293215135,4.229637660019041,-0.7925832586196659,-2.090973820559875,0.6748775285591809,-0.0777941942316393,3.700607247662284,-1.3660843314314812,1.04959044541572,-4.722525058933594,1.86108628095996,-1.034732140397506,-9.941333156572092
-1.386080513067287,-4.328847180080899,2.5297073354651465,-0.2365422035828133,-0.6941441417678267,1.0326133237853397,-0.121918642751531,4.588718706188668,-0.0233000580617237,2.2458998324503265,-3.2327826043974754,2.34353577922084,-1.8783664733469896,-12.731682789810275
-3.168177655811139,-4.704683535572414,0.9597995144277636,-0.3635820988255863,0.5962636762053704,1.0121886950328227,0.8634138365922563,6.552743609388666,2.8854106867627296,2.7297422211475006,-2.439649235898175,2.4911709064974588,-3.4250703281015,-9.798742484503745
-4.082653754066069,-4.627613936897669,-0.7206332334661503,-2.2828840219222397,1.0565053353534513,0.4950549595633244,2.623820380599187,7.319709222803701,3.3581291197185794,2.168586786828451,-3.214313684981567,1.760254983646263,-4.516806234242562,-7.676127007592368
-5.036690527015876,-3.1013454792673003,-1.7424974571200869,-5.099873197500819,0.7964598940196916,-0.588956712025591,4.253856382950494,7.105524033159561,1.4682192537283678,0.1643059716014527,-4.184367910123767,0.7770404649772269,-4.653345517898717,-4.938669821707267
-6.074892153113876,-2.7597125520068384,-0.9085253279898876,-5.8963001157331245,0.4761899159280336,-2.092185069946072,4.617332232078883,6.830698185830967,0.97096903112914,-0.0109570115751541,-3.11600925496448,0.7889161266790568,-3.151929281871777,-2.5986090618872337
-6.741952092927987,-3.83152360857606,2.070064084034668,-3.177391150059532,0.5706391344433239,-3.6730311779248392,3.0552896626423056,6.075976116123876,1.1867421377417169,1.6529950326780347,0.6884129495042899,2.4467508996157776,-0.6899961311597378,-1.7239793354562585
-6.842535514337302,-4.645990315115285,5.806301743107602,1.3303965202109505,0.9757600207296688,-4.999930748687824,-0.0874813596184491,6.07117154971986,2.898477880963942,3.640054518278925,5.424803197415233,5.056394110166194,0.5480592847435704,0.4344061761788089
-6.703590126432518,-5.855214040619781,7.948544060400036,6.623528973395872,1.349527703269116,-5.8925449582379565,-3.5408367128495963,6.972107399757806,6.856763533732258,6.700274697167782,8.255178127582544,7.017899583355305,1.905628151135164,3.3317766808417715
-6.771646282910851,-6.128374546195126,6.903226767312049,7.909072609941557,1.7044876160451947,-6.277294178196167,-5.819448402812466,5.795724074159247,7.549163165216282,7.230134473115077,7.759877229367538,7.068724765944273,3.1934053199175434,2.607885171807986
-7.164772418672605,-5.241879153041342,3.079061805452312,3.725585393323005,2.4296290699094625,-6.127199177084769,-6.139359930261032,2.649808264543913,5.024893702959834,4.861342108978993,4.9961964132868,5.206934508974486,4.755040335338468,-1.7741113227420655
-7.741763392022227,-5.412138460904371,-1.4731590298446842,0.0474593498211283,3.614976019950457,-5.585408282017122,-4.9426852292248125,-0.3093893889388346,2.7076342717610395,2.9333592571726266,2.257995999364854,2.498108557972876,8.715230318529624,-6.600271816021148
-8.515438294682664,-6.396156947716092,-4.703363218064344,-3.820585669385566,4.515617314367603,-5.135100347734636,-3.6453871586845694,-3.6287311805228497,-0.5351497570282,0.6027391831912021,0.8884113820545789,0.0345708976621171,11.388802942057197,-12.80992872441589
-9.79403894452794,-7.587075087888088,-6.019255632260829,-5.314844286026281,4.012189194027688,-5.427818880033038,-3.7000200217666888,-5.857631867704042,-2.798025540126008,-2.1054438668167483,0.238472854506228,-1.91934747964086,8.40614954739988,-18.23114940063939
-11.81714518901044,-9.395779291776138,-6.336762796355939,-2.4709520036517656,1.8052511996618308,-6.672760146613008,-5.538611267567447,-6.548379983187344,-3.567373836554664,-4.749090665543123,-1.4715534495809732,-3.823550220508564,1.868911906441539,-22.27553348262272
-14.346913144249596,-7.594542335265552,-6.872991532931989,-1.595546945449604,-0.939920643329055,-8.120232755685723,-8.144855824490019,-9.159193274613914,-5.862779832186175,-8.202062413064944,-5.484225370621733,-6.036352967734129,-4.635975693396167,-26.45151092148953
-16.783459080874888,-1.8009952485501537,-7.958824832859167,-0.5946342959552063,-2.40429767408539,-8.374168358097315,-9.686189471508312,-13.408611650369645,-9.21929409983762,-12.333922575251457,-11.618631537266667,-8.228693218175888,-9.853353428505304,-30.012233436543685
-18.73609586693548,1.206000386213692,-8.960652368816715,1.3761352494128092,-1.7510771868843638,-6.577109197238046,-8.891694934432545,-14.929973041537371,-10.8594086027803,-14.371328191237303,-18.658991494217688,-9.688371008899365,-8.37808308345688,-30.329318730741445
-20.371266000625035,2.114735958651493,-9.185375265761111,1.8386580076693415,0.0673105092103633,-3.4808796860545157,-6.173423868723099,-14.063533975137531,-11.056132365289534,-14.17940989465969,-25.21815478996944,-10.141852365868584,-3.156980715851721,-27.102674580136416
-22.055616379629704,-1.0713582835220925,-8.694806778678522,3.518739058445172,1.2432073610088563,-1.1952107368834566,-3.5045403922155565,-12.440483149884916,-11.6591057126881,-16.098141141119847,-30.1327829613351,-10.097706361133454,-4.787134320786917,-25.927830044487244
-23.645571482497253,-10.050714641036237,-8.205458226879815,4.836730391859559,0.8843470718335071,-1.4893659795173178,-2.9755065671592487,-9.183956766595788,-12.21328825876059,-19.7127456472995,-32.35336118754584,-10.23956371336028,-8.06239856695403,-26.437353595965934
-24.284049201996936,-13.453794678110102,-8.313632374683815,2.866219687164685,-0.2233979358478377,-4.029943767512624,-5.107665132557307,-8.049937057693628,-12.04137258911764,-20.673213549536783,-31.02260423773707,-10.5416859815728,-8.99244709996651,-26.68443815336908
-23.1016028922598,-11.60783327818587,-8.96659259072007,-0.1820719807602863,-0.6844339890637734,-6.312748547505086,-8.353353852354598,-9.398512826971931,-11.34593594164894,-19.507411635290268,-26.11469551724313,-10.223414039818293,-6.537293320621067,-27.816196701376104
-20.20210808588238,-8.359398891122915,-9.70632516135429,-2.526237576343948,-0.2630550972692331,-5.663342352810666,-10.283943757729157,-7.830184279281636,-8.237583481465876,-14.38007522695133,-19.05447811207428,-8.756404165719704,4.433637457003436,-25.802759071983857
-16.85276663489302,-1.177353031480564,-10.273027951074177,-4.9068272065071055,-0.4123670316277437,-1.686619962233774,-9.492219488708788,-4.008644905660467,-2.4262973722085643,-4.163075953340165,-12.362778472017787,-6.801685172770855,16.23492360226257,-20.32012147299144
-14.489557406357948,2.539172628340662,-10.767921743062328,-3.870504961357826,-2.83693792216647,3.112848344383788,-6.573224405884495,-1.8205628947187136,0.2427870094019211,0.2371419228196491,-8.176279457405066,-5.796012851123857,17.603180103951484,-16.289801035467672
-13.379225330438324,2.377245289960294,-11.161285946175663,0.087981763226435,-7.414036448289241,5.306198618890975,-3.387790192017589,-0.5452582255822069,-0.1454705504966189,-1.167687385098594,-6.732540739611041,-6.349192273117904,9.238055201838684,-12.955026713002365
-12.267168426649691,4.1739150422599085,-10.7972182813709,1.2273775291739053,-11.604593056246111,3.4807333164918406,-1.3919916367798306,-1.16092592726321,-0.290509091546612,-2.5405377151279374,-6.237681812895345,-7.164641727860507,-1.5419322828068815,-6.919365934869044
-9.48159681115931,6.333723054824843,-8.671187646135422,3.193116036831982,-12.20146483547875,-0.4904889400350942,-0.6114892442809716,-4.478880959556368,-1.4317944448603386,-6.283834308252318,-4.412068740915543,-5.963049580488166,-10.927406922188998,1.231652556625641
-4.534340092196889,7.971931458727267,-4.442406254610449,3.8149449980286394,-8.06062285429132,-3.0341762213979866,-0.0956979254791088,-3.5850452629431184,0.5641521799218776,-4.428736103977394,-0.4209812081431163,-1.8248945970635213,-11.583077460872666,8.329822699367547
1.299548277503962,9.70720196983746,0.7699028600987368,0.6488946385667382,-1.3991163588880786,-1.901112815640157,0.8229874573965996,1.528075152941197,6.346375655441047,4.114019099841977,4.564288309150473,3.398654436814475,-4.550522246756316,14.703400523105246
5.986418653421111,9.815302944435038,4.760063762575573,1.3403241306658216,3.649724941289727,2.0817961476611586,1.870551211136923,6.256885337639435,10.680320815358629,11.263483537396295,8.678327758702778,6.332087450394682,0.7019553645659811,17.84018165637818
8.344691625570611,8.149831298116888,5.720073678003158,0.59385576306831,4.179115818927,5.999033498242104,2.4211766144621905,12.0355106789602,14.500757255118984,18.93573971685637,11.229697470204098,5.082191697370464,4.687778659275412,16.752434303747624
8.72942812671146,6.014522748136455,3.673227933959849,-2.1205492657944225,0.7594825733906063,7.492552241992147,2.5736452643302563,13.43716827530539,15.83046611828008,21.45971292223842,13.241773347152996,1.1525977194282202,4.628350158543489,15.308145053705012
8.274475724500437,3.004479810251431,0.5802110406938139,-2.1143948713728062,-3.1321192666284903,6.586577186368455,3.401926973166834,9.429152765321104,13.559390229378636,17.125973778104477,16.09964977801571,-1.7104815641127806,0.5264210210228384,12.6519505056394
7.672745415690315,-0.9202916391847416,-1.096593884146785,-5.083638006749573,-4.056568257734833,5.202789463721033,5.959354454639526,7.036039816153122,12.799090049213437,14.236468958730752,19.68352302932185,-0.771626705259596,-0.4634277068405814,9.469411945881054
6.84477300412132,-5.635564376452637,-0.2500849258827498,-6.455761369488116,-1.4328810892334485,5.133624125921892,9.999284494346757,4.934373132321267,12.930527962981198,11.16685454754526,21.979622044088032,3.364138519412168,-0.7144648438986771,6.383698424696835
5.728119961423592,-5.766443354032211,2.1265833813827397,-3.283993124200109,2.173646860623866,6.516372425841035,13.779108809755996,4.445463408743387,12.74718337178683,9.70097547104714,20.76849938416858,7.461941102895362,-0.2679600891286735,6.81457937333222
5.085434067428249,-0.7186848478291232,3.929902105307764,-0.3211636296929301,3.5047013124733213,8.07201401532997,15.2945629338299,6.875047151876388,13.155743195001538,11.348045381684464,15.91519648277318,8.611245416985556,2.421376942529033,11.622585150123514
6.196599871019102,4.533456675106528,3.829072854952775,3.355617356519453,1.6221042501137044,8.559056566726472,13.883591738805787,7.056617917948674,11.47491670793512,10.25102875502337,10.06326342485347,6.626283086985188,0.6754224616396789,16.798117957167197
9.602132865875722,11.33152859922666,2.4458959746240865,5.806110638620663,-1.1683683996022909,7.907104462940349,10.769256644736906,5.513143732341545,7.578639238566741,7.093875050093021,6.905455830274103,3.843374231779479,-2.655156967838643,23.407969092097964
14.227945730935131,12.239384960563887,1.8354179138379585,4.000548569781646,-1.2819210427748766,7.100398508199582,8.099804663840208,5.727632009723158,6.599323204997807,6.412856657195053,8.398513725139107,2.814770329184702,-3.730769242975698,26.81069665908708
17.929041196575703,5.887626665884329,3.704345256162747,1.1462189289004208,2.992976175821827,7.185768973300441,7.37582167396276,6.966502329768399,8.2823309559773,7.490124287531531,13.275548429945168,4.186291339937734,-4.053783513997014,26.050924676901356
19.04641249106728,1.3423531679970646,7.848764246827802,0.5890070415679931,9.83085056831188,8.424347183493161,8.559633685034626,9.06246527500893,9.984558154101142,9.34943361000047,18.10255680082519,6.545227763917446,-0.1976115773370053,26.787911192503
17.551047715091975,-3.2701403127176856,12.10619354174708,0.9968927256052208,15.067689359569918,10.192198816277193,10.408038928186228,12.581776595472313,12.72376896984092,12.78583939549356,19.95695153827532,8.018758237980803,4.593965449933476,27.80534488442476
14.800112673160193,-5.484126177109418,13.889910991130623,1.9533535688996075,15.26934723111507,11.469666406366464,11.529070781031166,14.087683723452107,12.897417768077842,13.31211816332161,18.50326654627949,7.936753719999277,5.415111897463991,26.634771824076136
12.30280330816505,-3.632256105902912,12.11698981173757,2.417632776496108,10.235455542037826,11.440863739296674,11.281273774687088,13.468682098862011,9.961427223530594,10.612751767113537,15.879380653124173,7.138091913659516,3.1418224291603583,23.873214840915686
10.713317153869475,-3.922424917740529,8.02909329672869,-0.7032708405384709,3.056502815931431,9.899501815134425,10.012950941064291,13.38885949843653,8.396030171542728,8.689337286365836,14.71030101755094,6.93539920340516,-1.4112320482488383,17.387965879619323
9.806343957896631,-5.436650197999643,4.254981586596569,-4.225204252670664,-2.206192519469425,7.368696130959491,8.694630212919032,13.120069279519557,7.387533407590308,6.550664584588536,16.03426426279865,7.878644430217528,-4.737071620300162,6.551070997086994
9.120051155345708,-5.94424914805934,2.8306574908217303,-4.641811164176948,-3.373796595103223,4.867787786665874,8.255993266380242,13.254729800294925,7.349437250265588,6.462782400306031,18.770889688275005,9.384108244071502,-3.790673286936848,3.129913807175467
8.45686526333401,-6.358136535718633,3.735727121771376,-2.898758790747341,-1.4067628599864923,3.324779429842588,8.962264508170218,14.18130815725551,9.092960365975047,9.202494925674452,20.898180574087945,10.361873790766854,-0.0987209805169493,7.406322120058225
7.867673433979398,-6.819664649244943,5.133317455399061,0.0289873288485877,0.7393024684864185,2.925084469426201,10.176646552481705,14.860172819378713,9.834220034376315,11.335404276659794,21.122554524787404,10.165233533634687,3.420493979990643,13.249768914933346
7.414869129630478,-7.195589486591351,5.115043413442368,1.903509170029794,0.5953387149538285,2.9316316000643905,10.769921013132292,15.538686576474367,9.827986054784889,13.541604252289549,19.661394172103662,9.096196101227056,4.733547300236864,23.46460131653425
7.124873551487976,-8.108420105874652,3.445349062602241,1.1970212965310385,-2.019620644387652,2.26846355008543,10.028056175680472,14.638857493548713,8.696584345361376,12.891692576674536,17.74055517683867,8.172372699753662,3.0240066318577146,25.40358764446364
7.114936674824822,-9.627915606126493,1.7406665154232237,-0.2138409099666367,-5.207775460448137,0.4847119423711805,8.36663660004155,11.86534777997269,5.802225563721012,8.543597304982288,16.48813771248085,8.370693349071653,0.1255586056978316,17.65624909141037
7.567028881767071,-9.610520061694382,1.8927739620525503,-0.3890632549963668,-6.818055362829033,-1.7491293391678169,7.098460222316343,8.708612389498912,3.1340069058392035,5.045888665973817,16.163122611005306,9.827434625629408,-1.0791636447538373,12.46076057083052
8.428681855576313,-8.044011108686028,4.185081543942712,0.8771449691487946,-6.2126428143054815,-3.1435018635975,7.255849064433359,4.722005634563186,0.4386097434173162,1.5953936943069913,16.10636377042556,11.507096176203609,-1.1873259851946567,6.850847111130402
9.14900390703755,-7.5198252412052655,6.884922914283401,1.8843135780713167,-4.533318510129446,-2.914706219824718,8.458133817179343,2.243353357885931,-2.1944189252990665,-1.030576909663174,15.171484268730056,11.676586347523308,-1.2358238572378926,3.555677490220756
8.83831000908514,-7.699168858028417,7.719040778554895,1.2408174780770551,-3.4694050036873274,-1.5216274725615635,8.984972524556023,1.6633926445741114,-4.371266155020266,-1.971879950212814,12.264137147005686,9.063200791528352,-1.858975946339452,4.535211942804939
6.840213013031926,-8.266971984744893,5.839506306916538,-0.1629973703747922,-3.7995488130874215,-0.3105444744059431,7.194251304316754,-0.6499482890450307,-7.164812765763005,-5.306090357285548,6.8560774175755705,3.967149806989428,-4.300552011821706,0.0200312870465761
3.27040348132475,-9.724524675042122,2.4493248960003555,-1.7059604465058764,-4.966669358742408,-0.3624043897054458,3.1029093277370645,-4.211908919716531,-10.44740113082202,-10.78107832050249,-0.5565416022603848,-1.6265635874946618,-6.922074833498141,-9.247889891839028
-0.9241168847646752,-9.074080923498595,-0.3902054187898969,-1.5956793472211142,-5.829262463908354,-1.583822108080548,-1.3363352155575292,-5.479624170774279,-10.729513338198364,-12.177262231170564,-8.281709887885151,-5.2690744058554415,-6.305525591518482,-12.631707607205902
-4.424609552653551,-6.188944681029317,-1.4997321938146362,0.2465478766116943,-5.69979413384308,-2.850314940260941,-3.613900245684305,-4.813624094061256,-7.862241006675582,-9.815806493708022,-13.921135727052944,-5.771614706232091,-2.35893845454204,-11.265846971093769
-6.175748482570018,-3.607134007995819,-1.2231008188076116,0.8570850791137878,-4.743446844351053,-3.030023263562578,-2.570993532982144,-2.51523756492226,-5.114209823365644,-6.148910272576897,-15.54806892699089,-3.9820932754598006,1.4654099456691767,-6.194734358243286
-5.816845595105384,-0.6991177839226309,-0.593334756648475,0.4766256159027583,-3.591180790060589,-1.933311915186462,0.7349603108973017,2.1958038313078174,-1.7514333134291744,0.1455022597885344,-12.930732363579308,-1.8882958294492704,5.277550412879196,4.84739581322303
-3.757145387851712,1.2792594376735835,-0.1319800868038063,-0.6724686525945978,-2.719959576494904,-0.3734397280263262,3.8382848201994655,2.016095110273437,-1.5362935604751855,2.329675527841901,-7.840082928035069,-0.8636310626369088,6.547311004147161,8.160481480589365
-0.9483840994265532,1.851090479422993,0.4480149321872986,-1.8110381628961307,-2.167806384038521,0.5980255605378668,4.5909730723290645,-3.462279359759647,-5.3482107258971086,-0.2390870274116625,-3.0219191410509705,-0.7149063665059678,4.408992303464324,3.2812045628137816
1.5344953974222308,3.948231137970944,1.521525451097034,-0.2804521854807817,-1.6852626423956516,0.4803617422008244,2.442857902070454,-7.283850197477009,-6.662175155228225,0.1539529278245135,-0.4994318562851978,-0.3859877885491949,5.184805720691225,0.4839639666995671
2.967356570804032,7.276864215032735,2.804239118344322,2.040796383651811,-1.0498484656624836,-0.5617115070129499,-1.5484583031827772,-10.979760537460256,-6.330590771935428,2.105622665292322,-0.5243735455759095,0.5134074769385446,7.010207991372829,-3.1797942707406035
3.29310074328501,10.000962860454974,3.464896381714458,3.047326678695611,-0.2621089955571318,-2.196891677609529,-5.747276009877446,-13.284980535237509,-7.390719372493902,2.2684910618347778,-2.005586062523265,0.9984652497525888,6.641076881458367,-5.214137914834203
3.060829350822405,12.565106519046113,2.9359032339140425,2.208527309906521,0.4688904265475906,-4.3698148118473545,-9.091765598235474,-13.008677604331227,-8.849996842696399,1.6339627446578209,-3.933337618865331,-0.4347295870752827,4.045038099584716,-4.180739277161646
2.967881090817028,14.074527715206306,1.5005187094107697,-0.6032278473991957,0.8994259816436476,-7.167967905587156,-11.545581210442888,-16.21135497515734,-13.059700274206124,-3.3702283194779583,-6.392351312465619,-4.265627807496124,-1.7000935471250855,-7.96412999851264
3.3036357103862213,14.161731593868438,0.0289700981292657,-2.768341175527652,0.9695383506099932,-10.298053514358031,-13.67888420957568,-22.552952178689853,-20.587635759718736,-13.55063866410586,-10.170203158697303,-9.25242369179916,-9.556332831518969,-15.990488056677192
3.7230969677682273,14.711746339060936,-0.8388059798412364,-2.7573433036076307,0.907423400941448,-12.838913705840996,-15.88449560936358,-25.052746099464585,-22.689944224512857,-18.36523677568985,-15.400168946293844,-13.221523073049598,-13.08127323276162,-19.284315074021556
3.535509693774452,15.47826402398903,-1.2313097145693774,-1.1346678070795604,1.0908337344651822,-13.69220914957035,-17.958366295311535,-24.44487246831904,-19.404874566450346,-18.146178446153677,-20.73340456885659,-14.590741899019378,-9.423576832784688,-18.74178429894934
2.271301727861742,16.05098175043691,-1.8153513808846475,0.8288186268162778,1.719997324192399,-12.42178852354235,-19.38888772117981,-22.676188482533075,-15.826912952413409,-16.140027994893273,-24.07046939454652,-13.35353389484726,-4.4235012272311565,-15.558470040031198
0.0787173969473472,16.759478318111853,-3.088296596646216,1.0840121968214391,2.5871018584263483,-9.710907990795643,-20.00756894179532,-18.39040966519348,-10.073665022635252,-9.947978325058893,-24.277804844043093,-10.889536344020184,1.8323470242644988,-7.822415328839273
-2.3124949804206487,16.424530561976134,-4.89788505381247,-0.0799581119478985,3.2244251137948168,-6.957186105983206,-20.26926665467588,-16.891675472191316,-7.76999255452188,-7.407000668160234,-22.20067969094793,-8.932122974285198,5.790439903829905,-4.494593574617006
-3.9657154147452873,14.986212193562295,-6.598762172374489,-0.7757366731401124,3.371059514414624,-5.293838100932559,-20.772916947080123,-18.53273722552095,-9.853241625027351,-8.882352191713695,-19.88598302583654,-8.480952878839464,4.044615062265329,-5.783783114275464
-4.1703864287487455,13.730638801260616,-7.619742066766818,-1.058834914490437,3.314172576296712,-4.851882606190639,-21.44968568851265,-17.35622278785349,-9.4694966121008,-9.71340918332062,-18.719376077694488,-9.294098044951044,2.051441692811397,-5.938589550175863
-2.740633800261984,12.440125156576768,-7.868521038459974,0.0287951972445725,3.68825137410284,-4.8598776622385245,-21.31448446826934,-14.376787416486664,-7.940380903087018,-11.718535142314227,-18.314220324871425,-10.193482356401423,1.1969420284410797,-6.91379909744338
-0.1320362203943008,13.290336636878282,-7.6380486782925745,1.7813512157185265,4.83284366178682,-4.434724630614182,-19.222578445457827,-11.84485544998106,-6.600381152946167,-11.420703721994927,-17.242100381929127,-9.993008374369897,1.0863219282467838,-7.094960733060307
2.6583811834845674,16.73936625975167,-7.201020305661333,1.8768505678852756,6.331587224485245,-3.33904815314209,-15.05320890072986,-8.914538862525701,-4.459604441239184,-8.20749171211936,-14.801172544654127,-8.462182226828551,2.048379951212472,-5.825759235032131
4.476711911341247,18.616977733909707,-6.556588090847164,1.2033006006257878,7.288420537900997,-2.079611750441716,-10.179073130701454,-8.232626142575445,-4.289685487111632,-6.347534736656292,-11.949002674232512,-6.586939385023042,2.374248902977908,-6.632775049635856
4.614288904801265,19.355960833236185,-5.56552656094247,-0.112526390725732,7.193344733432308,-1.3591272756643338,-6.629269070054685,-10.267565436333753,-6.2467766989105575,-5.0384450234162985,-10.405191348865184,-5.796991595576346,-0.3530327172663606,-9.141372864102882
3.2808700454144324,17.334117639454565,-4.256759181340279,-1.7299540216480414,6.55306981888744,-1.4507315535525516,-5.553056670325134,-9.986557709700302,-6.23185148866337,-4.6187924866762815,-10.83280156128066,-6.678092852452299,-3.6066706280988097,-10.183632884729803
1.5120869607201488,11.481646389134912,-2.9130974488225942,-2.321042274370875,6.545394181884497,-2.0455023533097823,-6.296781406398472,-7.8428773078258684,-4.644610751751139,-5.835984202060361,-11.962251799222829,-8.259344343066548,-4.508894059930694,-10.179655100256094
0.4231809477915433,7.675151818608551,-1.83768447572378,-1.3107032539641268,7.848483272289558,-2.619069637057496,-6.918553302805517,-4.159610114867637,-1.4810699194037544,-4.2877804932088095,-11.576639126611434,-8.601472052775486,-3.0106632300252247,-8.465011488733811
0.3109362332759859,5.473878285133746,-1.103325285330946,0.2819676722142643,9.69042633102212,-2.898193788941962,-5.735804091237011,2.1628072490597865,4.174777555785628,-0.0054618497578785,-8.444224000577542,-6.318592571101039,1.7277519623896136,-4.3043277422512025
0.3598046577738607,3.0515515647083453,-0.609190526004336,1.577204444111439,10.144545521147451,-3.0038692609365043,-2.654147834762991,4.171263687026844,6.664553228966077,2.36772383624425,-3.4078276363995874,-1.8156735638217287,5.721747853349969,-1.300311862237782
-0.7085898597711333,1.5693732978803707,-0.3671581835895896,2.3156273876045264,7.642686524250702,-3.223639089193722,0.732855688698415,1.665630075391194,5.910992869330348,3.537483764431497,1.2988792295434894,2.7983298595882555,5.214020873955562,0.7628161347257513
-3.507517636910828,-2.197565905418612,-0.6089236946118035,1.1750598374591317,2.4929653834720247,-3.701161476575897,2.257564588470959,-2.33729114309918,3.073812334688154,2.651407043797668,3.797973863228428,5.117896410429948,1.5899204441261756,1.5484811101611462
-7.310451532647683,-8.451913875033963,-1.4916597015265405,-0.2938917210800394,-2.996862169941777,-4.325706416582948,0.6098298527027248,-9.54252093728094,-3.318054415346965,-1.2807213081667064,3.832689402413081,4.1451977477712205,-3.6358582905645225,0.1675247949886615
-10.437632242912825,-11.787213347179971,-2.7027009243723388,-1.1855952725673211,-6.086345587462412,-4.845677484676509,-3.882658274463665,-9.938138719387526,-4.729865138630852,-2.1955673120064145,2.624810832127888,1.0474264200741468,-6.700604528645301,-1.3263988789813428
-11.451210899830532,-12.6144773541574,-3.494888040581853,-1.0988909078373523,-5.672317416233088,-5.028603676626776,-9.468807166138568,-2.6283149055201758,-0.8001044270619488,-0.2406145977194553,1.7007053984053222,-1.5987382809447588,-4.695361808856602,-3.313583212678245
-10.246102931796509,-13.49873224397359,-3.275390755440113,-0.0811505004653732,-3.1469874838343506,-4.721104584895199,-13.841505327096325,4.7345274962715695,4.660503284113734,1.3388428449984495,1.8022502194406276,-1.5730329330541788,-0.2560232672316748,-4.107458529836991
-8.199819085740458,-13.42995193123233,-2.2269995859161416,0.0102433074416827,-1.282747715804298,-3.820491245093564,-15.07233859111314,14.60590417975248,13.794234071950218,3.781290059676343,2.662203427538131,1.4530423367252383,3.858494091671613,-3.215685442269898
-7.258321360575461,-14.314314500898414,-1.2871943220432192,0.4022045489309834,-2.025308148634741,-2.259725338282903,-12.23589424452083,20.965104237620544,17.4206224300198,4.424578520048255,3.537388391088668,5.7359960879151215,5.437637193003074,-3.7139656919585873
-8.604527067664176,-16.51097495481797,-1.3839933066876855,0.7859472284112208,-4.979530352360001,-0.0562294987121367,-5.640947405486172,22.48577042351036,14.763344432553632,2.7831848826860366,3.8465872825655145,8.784333872093171,3.0919503274203826,-5.182102087580351
-11.827098190554867,-16.411793164115654,-2.5736379894792027,-0.2719864528013731,-7.767515654492666,2.6256302872912087,3.2995967181228574,26.8567415266833,12.55716439941294,2.010233672343755,3.4263496692217847,9.169157292553962,-0.7902376621721445,-8.50402189677153
-15.152351158590491,-14.33888629264368,-3.882409963943291,-0.1753902875251514,-7.892881041532478,5.4759780637108175,12.53922428098771,32.53570290095123,8.573801368621384,1.4629816996493097,2.427271718582488,7.402383880210325,-3.3577217480830357,-14.37186757724271
-16.603994021993973,-13.5746437300563,-4.049657461055709,-0.2535368177502629,-4.595862135931558,8.121541226390761,20.10597620181595,32.89702130782186,7.500811541228098,1.2373392952769553,1.1507313575194011,5.250194697687835,-3.713777421114028,-15.897933314750665
-15.354328779595347,-13.644229088591214,-2.5745976726969686,-1.687500622883296,0.6582989855973924,10.229154334068776,24.754114153445308,28.476594557704704,10.404805985019111,1.8394606991734868,-0.0134860197396018,4.179752911032676,-1.869934602201287,-12.996829583323072
-12.36632869761339,-14.602762463244511,-0.1969589777006297,-0.0094915413359643,5.233200327938322,11.559465928591733,26.21732488171808,21.47035627961688,10.677034763227438,1.8957506014332224,-0.6474191512769367,4.308201046254874,0.4343499060170354,-9.876417965245484
-9.827149373201715,-17.121403050879852,1.5950980261565595,1.3797939300135846,6.972727901172621,11.968393327452151,24.99503776179597,10.478980685040693,9.459034906728762,1.5508584297270789,-0.4809624641782264,4.640819298557808,1.0245600533633676,-5.019334933727345
-9.657736863503164,-18.140661529267668,1.6628247158020626,1.0277041514288028,5.294031575349643,11.432338215330484,21.978042707556057,6.6861025272692,8.197966992031082,1.9826441570403328,0.4114239100844337,4.176784011730771,0.7899007450852804,-3.881800396906928
-12.085668604073188,-17.72203598295329,0.091358005336799,1.3843223615250622,1.2155501031070428,10.161668763033084,18.264764846981763,11.08591605417302,5.887599504141862,3.03251125813008,1.6221002453457911,2.8069504812654555,0.7697795569254253,-7.337396671589626
-15.34924861564005,-16.827979260827604,-1.817014052952956,-1.0088323782410504,-3.394960389648986,8.733438946180556,15.143326402375855,13.182969584891996,5.514321852380158,4.401321500524117,2.700354539010742,1.327723904013367,0.843090259026145,-8.356678545616633
-16.864336484070456,-14.764598754288626,-2.436751760680669,-2.717705043992797,-6.749642749639569,8.036181003652796,13.865041284499023,15.539245960177908,7.270420598357313,6.305152239960082,3.493954245407465,0.7644858274334081,2.6426657140198486,-8.176283013949309
-15.078605018268089,-12.68700333516604,-0.9589680110214704,-1.6144818224127646,-7.819879979677344,8.867224858982324,15.014163493105931,14.978281800498472,7.070693970982857,6.943588455043621,4.228670779417402,1.6456122469747032,3.559158730147874,-5.895860280926725
-10.621086784707355,-10.591363782286995,2.0415545010416176,-0.425698813928437,-6.6320700684387655,11.317848710409097,17.88415632492168,9.733590084162843,5.396412049470681,6.163272634677511,5.246809068359079,3.67180362887834,1.6429616529342868,-0.1948013315182014
-5.8229479842447045,-8.789059716123345,5.01111603141245,1.4520727969860432,-4.165703474673963,14.401629063719602,20.58472357468831,6.4039504120539865,3.399573607926869,5.514896790473326,6.64681318462202,5.841290683976698,-0.1877383688578812,3.265111274509041
-2.9505952800602198,-7.602318843745155,6.484291025668885,1.3722802970020516,-1.8601874739544573,16.372943935406976,21.11062644060419,3.887204784679663,0.3352240680133552,4.575110383836357,8.142536376138263,6.92884070037996,-3.748050303495281,4.850163390643731
-2.529430943898164,-6.028570246432887,6.039303162639271,-0.5265787213233525,-0.8618397890218059,15.721536109922448,18.67919149345873,1.3868356946095448,0.210153214307606,5.169389096771825,9.250825704827584,6.179301953905169,-5.769191890505639,6.844319037481565
-3.0586160211514795,-4.235634047538871,4.486945548976292,-1.2352528951602757,-1.3703401157924184,12.231199024602963,14.250223361525627,-0.0364879136452101,3.3574590653689467,7.672460826368576,9.656141864982605,3.9124316327211774,-3.255304267461088,8.162860045168923
-2.2732453890517466,-0.9707788214068428,3.2243453988449,-0.8813526858851372,-2.524759389264805,7.289644332195342,9.766172113001014,-0.9919728575649044,5.2295799839420445,10.148350997776369,9.50268439710743,1.5642452234790298,-1.4961281936911586,12.011212225056966
1.1126052861456823,4.065862271772786,3.268039830508832,1.950388504172504,-2.9935474505914828,3.098830974455144,6.738903949532878,-1.211701293091689,6.638985392360151,13.104508103007031,9.429247957301072,0.8944364773054176,1.938451681367112,18.75870310810509
6.535899687040158,7.125321747148267,4.644425852993232,4.683124150767765,-1.924782828856116,1.2577148095209392,5.3155350662689225,-1.1649123857202257,5.896580694261181,13.857475174701648,10.2700891372659,2.735176463676158,4.671224104587544,21.718597022026188
12.12802800353505,8.336703125633283,6.494842065925614,3.605317840360988,0.4120347480699426,1.7214833912585608,4.463661705174722,-0.869338308760745,2.0305437960755888,11.894195452248567,12.490323437592124,6.201389698289694,2.1866192876065966,21.26323748625302
16.07303159097363,8.176281646709048,7.732926948232729,1.1434079643099957,2.782896937972987,2.9148554685141423,2.968726117139268,-1.8220851736217163,0.0456208368256474,9.523452632266986,15.639211602830876,9.102014832378703,1.3969515380140196,19.757450305019507
17.66807814013013,5.728038887235047,7.749385299323164,-3.149791246985912,3.849479834677599,2.926511887768664,0.4021718313041313,-4.306773397198636,-0.5341194581083195,5.960281266663822,18.272190246491935,9.38148450896648,-0.4127225267256493,15.796795713929448
17.394266165606183,4.914928229663694,6.686962499678719,-6.288127616243783,3.103228362284467,0.8880541157875341,-2.5938034247178248,-6.538046748911288,-2.04228452929014,2.938903121225485,18.628135191828047,6.538361016043209,-3.2523552749639943,14.342751292482223
16.178612092998875,5.757955695032552,5.153553871146027,-4.150287059997685,1.1935962416701065,-2.4889503999529268,-4.799496152803663,-8.91500036178488,-3.6302096542761366,0.8146892874659836,15.790034122481613,1.9207380675809247,-1.5860116738382468,15.786029242525084
14.597948617325224,6.467402622351182,3.660349205852825,-0.631683664166608,-0.5635011802623606,-5.563542820708947,-5.320797598036009,-9.59158660312396,-6.145317249987969,-1.2958670818896292,10.503333535834098,-2.314002585295201,-0.1558423854971286,14.975473265021089
12.666954209087976,7.930206148646837,2.2674864731546736,3.75348854331887,-1.110929878460738,-7.001442714278904,-4.325486867943457,-8.117239960057118,-9.86783148698561,-2.830277781741481,4.893152032480308,-4.702841868482827,2.424923198432025,12.931961472089805
10.261386431217746,8.004146866275937,0.7304938295552517,6.490097953458271,-0.3404854149611966,-6.580232492223495,-3.0813876300345093,-8.150568074803878,-11.00975652427209,-4.574018229405472,1.137748291627589,-5.240093848368447,5.616899911732378,10.9421445926119
7.67528795124389,6.473101266946962,-1.0149584958313485,4.485216734252033,0.9183324438383418,-5.0203104200687365,-3.1260825247313937,-9.31129191675143,-9.539872253066378,-6.518817584372297,0.0704495048765663,-4.909088211654601,5.057595476058855,8.292560613523454
5.712185400508551,4.883774229523756,-2.5391342893026696,1.1835788602077106,1.5648529476017514,-3.209013710315662,-5.043294574741706,-11.129635765042574,-9.154552227557827,-10.009157628782864,0.7954867131679295,-4.604116501804402,2.119225520192968,6.323832911210938
5.119468520912396,2.7115103059108705,-3.17908378761949,-1.8257280428753064,1.0487766398914555,-1.6622459804505,-7.830714317873561,-14.346734008106438,-9.165929468338968,-15.373347012698844,1.5255936343522238,-4.532897777552222,-2.211214503125309,5.175211880669081
5.787147890344215,1.5299515800779724,-2.729231446936062,-3.384229188105147,-0.2550009822850083,-0.6587445748404386,-9.591518893056609,-15.355553865900552,-9.489558333740703,-17.254924909771482,0.8120607156080935,-4.55947431540565,-5.092012512872201,2.081221868402418
6.467391196507953,1.6261202407274584,-1.89385140210151,-2.95957812343586,-1.3962106435594572,-0.6461242498563646,-9.188766442996442,-14.058135909809534,-10.760700418816413,-15.666851324393855,-1.825603327495081,-4.866461895646134,-5.090858287253359,-2.819831378507448
5.49393538980466,0.0433181309021392,-1.895940846879833,-3.1455120021055105,-1.65195417007011,-2.180060700702714,-7.445278156602026,-14.29147607579781,-10.529785193055591,-13.167136597499852,-6.048377107955815,-5.951341354125182,-4.589167203128568,-7.402031295595948
2.183921529639364,-2.941450961878293,-3.371443735837422,-5.823886406041611,-1.131837564971259,-5.233027342166221,-6.602510031531239,-15.416122879765112,-8.851636525859439,-8.537825889483647,-10.984863630254315,-7.790264643436668,-5.710860041512269,-12.137635299336877
-2.1372519125684777,-3.195943307375235,-5.485950984224052,-7.425139136092786,-0.6566886385865307,-8.590048499809344,-8.24482898134042,-14.711173084223956,-7.066103831400042,-5.327502913856512,-15.160015438037954,-9.157510480044524,-6.690349885345577,-11.926036860846382
-4.533268722218203,-0.9536834366375412,-6.246605853490636,-5.319169118859817,-0.9732931025333792,-10.221786395493078,-11.482209079011977,-12.604534411258152,-4.683908493115716,-3.925509179176377,-16.457456344579576,-8.203705674355971,-5.232400207817537,-5.90838474715129
-2.351659269783584,5.033934473512845,-4.017830599390079,-0.8423155267411823,-1.973607239326105,-8.66583631761765,-13.248758809637648,-6.403009621891568,-0.6140427520754519,1.4457376232640802,-12.932425544339742,-4.1312902931396405,-0.7638180311606974,-0.2945936350106274
4.608727323021467,15.935054002069256,0.939226555967856,7.644799804040222,-2.650414679608128,-4.360515624302192,-10.800474886757936,4.719834993451713,5.156179051377015,10.21869115080816,-4.464030563649973,1.5921730594076964,8.713071663647412,6.176169047055528
13.397080762136016,20.353071642773997,6.320386850665132,12.97277362795264,-1.90875088814205,0.3093460975869453,-4.387775958063033,9.850585934553443,8.39305278022084,14.389010370482843,6.102220367653825,5.941080929999012,14.974920880676024,9.117374066944471
19.5050008583928,18.120934622477236,9.326312325955282,10.023370333922418,0.4330657113134442,2.4908856748493537,2.350848829630712,9.073643849313395,8.996823435335942,14.413168542330054,13.887963774866869,6.6551206002505,12.16106114810545,7.092767950527635
19.79839622853112,13.662073847338084,8.674774159610605,5.907824269468954,3.3463368697880997,0.7965610398373817,4.905179660488839,5.971787892494689,7.244903151533055,10.884906973614662,14.980229592073108,4.148867375554025,6.570315006619342,7.287256602019116
14.628988199273811,4.190828134269122,5.378528545643575,-0.4441695748840266,5.302796823029244,-3.784797128872622,1.3980327181374816,-2.06383060259995,1.920985550005753,1.852472695269247,9.384507416352506,1.1549574144863677,-2.9199483412911675,8.447794545639486
7.475536380399513,-0.4494314289003611,1.6949097750186617,-5.215930744405627,5.400179588199941,-8.636890220177204,-5.821756564525211,-4.403994686487136,-0.2942063443144535,-1.8883439758705969,1.3555081038848975,0.3249330224447888,-9.776393016182377,6.499580075009779
2.380659284647697,0.3998629192252468,-0.702678117144389,-3.27004694565661,3.937091067998254,-11.2579012693266,-11.871395360632008,-0.4328401653159582,0.6665752575270181,-0.1517833390592582,-3.5360611937761925,1.972004533152912,-7.247370330741656,2.259524569194149
1.1838964774761878,0.8944378677304005,-1.7002318010867523,-1.904747175083715,1.984744029727287,-10.68554819654089,-12.947299015566202,3.300365035221089,2.7083625500823154,1.984496491961589,-2.4820727136976126,4.003240616560689,-2.764786694451517,-1.8887931440716348
2.6280838542365075,3.443579030982902,-2.212691212448324,-1.4798788987949183,0.4159509643915227,-7.732009853805863,-8.941957207042623,9.336733311001138,7.473436529213523,7.044769635670471,2.5453851057003805,3.987965502911552,2.745737618441244,-6.435697724192846
3.816251144563229,4.27702059386351,-2.9522401223638792,-0.6273678463228811,-0.6913559114048837,-4.151239956251347,-3.0903180449805663,10.802490870252106,8.820715931882253,7.810133291839789,6.417259819280471,1.3462311668297966,6.573976351224461,-6.99888226918744
2.6509825985851214,2.770378064151303,-3.765944581644651,-1.951020656856116,-1.78913427733084,-1.5290948747038806,0.7961852534314477,6.629108351693292,6.46969884094801,3.560278213811076,4.784493534864726,-2.297643849650095,3.7186773878126096,-2.700184684291763
-0.6824486545000772,1.4439128739173448,-3.991910329276834,-3.389189500115129,-3.1151293052245417,-0.6135657986477789,1.0741020784954924,2.6877448365943524,2.5004926909299003,-1.82636008195074,-2.710281112339185,-4.68004586504547,-2.143375810470937,-4.030156966389795
-4.132152425350946,-0.7466876527496232,-3.219097437365086,-3.4050974267868925,-4.296752538448625,-1.260358822994171,-1.1095558657597264,-2.8395105778220717,-4.681247533898406,-10.271869588107332,-12.224376009754655,-4.747648668198645,-8.144902604769435,-10.36004853986535
-5.505499693057407,-1.2641828711065202,-1.636093641108086,-2.8894886285677117,-4.70717934051798,-2.732565363348766,-3.385906125547138,-4.112803854993403,-7.075965465226796,-12.814663857836718,-18.418118377964937,-3.175055517819347,-10.5045080551939,-12.527806070266744
-4.088955273280716,0.2357881693190378,0.1947061096728808,-1.3750950130117428,-4.143030543799494,-4.059278796312952,-4.207473713932448,0.0312453023911016,-4.198505655133764,-8.572863637903833,-17.976681049188777,-1.405805620425182,-5.448233276553236,-12.13644280747145
-1.0517209021485012,1.866319020756888,1.719781213027923,1.457568280648281,-3.044977500786956,-4.360904946341281,-3.628204022287816,3.3085384817675365,-0.5736173287283685,-3.992278016164532,-11.562365943701504,-0.3671286539410658,2.49249272687209,-4.982736449325539
1.5059791003900405,4.29384289151063,2.5972721352518917,4.446912984786389,-2.0074046269636083,-3.1646160485011308,-2.5633849098702224,7.291588164060736,5.782079463210067,3.1939998087111627,-3.109401247556244,0.0142607317130227,10.216440280667353,11.052741274688575
2.102806414585763,4.193764930876195,2.785974834840963,5.239200828824845,-1.1522997886334196,-0.6443900674834082,-1.656975901078325,8.218199262545118,7.036670046126496,4.779996344515159,2.8343279801591352,0.3673612254969272,12.158890147157503,15.862313691590842
0.9216037325451168,1.090087609475699,2.648618674582792,3.3835042007208544,-0.1239681615451804,2.391296888305664,-0.9157016012611008,4.88732563739783,2.2672505231802726,-0.5550502763701097,3.878025291205335,1.167609313294912,4.904054763803467,9.691302299400226
-0.4114324677173515,-0.5685843836059249,2.893761418158171,1.0247923498982656,1.253936877780335,4.855828204818407,-0.1945609653348614,2.620401391026589,-1.1576676949293834,-3.393487921409364,0.9168560641805286,2.378994016956474,-3.3815766589500305,1.1300063961517746
-0.1987222510295234,-1.498502254708383,4.09844292642486,-1.5826241256564753,2.4487398179968283,5.925864362523078,0.2853603433489793,0.2963276530010388,-5.113455656384155,-5.718647364532768,-2.959476403197579,3.5521987624310465,-10.863660988938552,-14.344890380177947
1.836165438055457,-1.4872801770703556,6.018637412192327,-2.4168978652952875,2.550127337662113,5.434836026765039,0.0585635439231349,-0.5362572297959856,-4.992275827169313,-4.91750955228693,-4.838564039012634,4.167723144541833,-12.359384158671908,-17.08512035600952
4.196428329951236,0.3054264226973556,7.405088990968879,-0.8208489866010772,1.231612023261433,3.8777372578795504,-1.00488428088601,1.081317644063908,0.6367260372012379,0.7308420569485277,-3.8570835428235615,4.027783117723052,-5.502896964922316,-5.2251683532626485
4.8232902157484965,-0.5897367851823293,6.810790339370837,-0.4804118051562978,-0.6941575454652202,2.060643811482279,-2.3694948078949607,2.3360945897068555,3.792001997000999,3.9892008026021046,-1.277319961240643,3.5235853288794887,0.3220436786124233,5.445283962896997
2.924731654157599,-4.126854257450489,3.9150091910750295,-1.258342139997062,-1.820872907779432,0.6466292737907846,-3.153637315910488,3.868480333684407,5.675378875040711,5.7364593506933454,1.0374472884721468,3.522091841146899,5.524805915859639,19.67283812005583
-0.2022998774331856,-5.523478495166442,0.152506791340838,-1.7541929414213482,-1.297804444960808,-0.1353246496197817,-2.794991837429729,4.676767587120438,5.5904096186753565,6.565488454729178,2.270505652569733,4.735340771400379,7.336098105224238,23.496378280032324
-2.1884257893039507,-5.4772081498164855,-2.152556933656044,-1.5875223529396278,0.6019199325445421,-0.483935141026611,-1.4463095249526896,4.277496242939688,1.975965419764458,5.085996576475066,2.9837768988351003,6.922812977021533,4.245495914822226,13.839100054419
-1.6208555104904585,-3.6775156411696175,-1.609524650723865,0.6629766439521652,3.0131447341910027,-0.7571862711981897,0.19758530499892,3.83896890364596,1.148743400713723,4.867140315332948,4.021032036032453,8.68640267898374,4.790180493565581,7.082887828387542
0.7148295117268946,0.8544132082748376,1.0065565654297988,4.554727387021195,5.332335075674357,-1.1252491432565446,1.4211022922014598,2.9539514844460504,2.7283341228482345,5.690238133138402,5.223954167456835,8.308402667266982,6.341653500273093,-0.5418855819256787
2.4762368837405666,1.3663242302936078,3.271028948584852,6.052904982290248,7.251670038630508,-1.4087143475311052,1.9258478299521256,1.5589201370579115,1.9931766020341584,3.891438192155968,5.300373104943707,5.117422566233277,5.482643654564081,-6.084854437463026
1.6564875776661805,-2.223465635046866,3.0161908884730733,3.654246281843376,7.950688368260501,-1.2697663039940568,1.9284595468118704,-0.2791780356376166,-0.0581778208223544,-0.0930713073465159,2.96979720638478,0.1906747394066916,3.753460310783874,-6.934833662196583
-1.98442374486179,-5.450299532262995,0.0242322363438517,-0.0725807834984865,5.753935893424746,-0.6254900735433898,1.943436457970968,-2.275480093342137,-4.500604039653548,-5.321137672638312,-1.7643808486263488,-4.339141647565245,-2.1459699452768595,-11.732405888478905
-7.0781565923249445,-9.75178174478106,-3.903110469188591,-4.546838000111862,-0.628705840281583,0.1302545512651798,2.430713648439552,-4.399048732941909,-12.218242142735251,-12.48564364632667,-7.425673211438538,-6.817434080272037,-9.78352885621582,-19.22284515931969
-11.956926880622202,-10.826213213860887,-6.459525919579244,-6.159905038651026,-10.002303653613204,0.421074602171803,3.5149960606736297,-4.236275625550564,-13.692505359429946,-13.790950607727146,-12.024348316351045,-7.066976045357394,-10.856186840275685,-20.92237724384761
-15.722067803642744,-7.801096810441345,-6.563108367043534,-3.367449715134835,-18.00403246064682,0.1108644499911406,4.935427150157605,-1.4380292190973107,-8.703707676945967,-8.545255415966045,-14.144542703070126,-6.02669394248622,-6.130692187564431,-17.547746074822758
-18.208187332594687,-6.46934323895534,-4.903879158622964,-1.2257218041179,-19.378032578833952,-0.1887875195377697,6.2559015790787535,1.3681795474983238,-3.0708569010089555,-3.179873507087199,-13.246406840003909,-4.58100732713209,-1.236213061795624,-14.240476766051684
-19.272875233641187,-5.788102075526632,-3.0946799663142137,0.2313458054426903,-11.990649845295216,0.4140499734280944,7.174385238111186,4.790026823999916,5.363916151432025,4.194407782210576,-9.338986756443903,-2.878518962932164,4.38715068972304,-9.499163221004912
-18.47986218744312,-5.034141934774132,-2.3817997085796123,0.6686294889649069,0.795731381744496,2.181636075564644,7.665531771054583,5.644484586824992,8.755189579124561,7.466458143262491,-2.887242628275215,-0.7764058848933266,6.043838475329139,-7.341033906605222
-15.619636309906298,-5.124387938569307,-2.9912323897774185,-0.6749967136345353,11.909624097434191,4.319614947834042,7.83172003462689,3.2289214220832183,5.902630257101034,5.311054970249873,4.710971348521087,1.2731714222629442,2.2138834246312413,-8.79966532149935
-11.41768735782034,-3.6466090361887225,-4.364366388953874,-0.1059037265581475,15.541744256181495,5.602068019787763,7.638580005900115,1.3353499432708358,4.269440716868742,4.64535595744669,10.867384398680024,2.093470144507332,1.8698974972054765,-5.821401118523899
-7.4664406679419395,-0.6244554322551165,-5.7512190182636544,1.8075253148830923,11.329730453632402,5.5336394827643485,6.86014358281721,-0.9122818364518124,1.8360041351482024,3.796829374974205,12.772647836962,0.749486830983177,2.0617285691675016,0.774537176954777
-5.22446719074546,0.4653512806817075,-6.607331509152908,2.8054769002796003,4.230368938114806,4.8529027064870425,5.347383078321556,-3.546085138184206,-0.6970467393290758,1.739038438710809,9.35867770674436,-2.347652649248402,-0.03461908752663,2.025297791725378
-4.961606562877352,-0.1135214050724155,-6.724148373624423,2.806343819240518,0.2192184675062889,4.748036465714203,3.3507502065249324,-6.036775334280898,-2.369478796135342,-0.7066385662588747,2.5573306035304286,-5.459006758928,-1.1994282297568235,-1.2455058279069209
-5.658475810149048,-0.5412879241330317,-6.283631183594311,1.3442670384774478,1.5448544977658214,5.497087491626739,1.4919722676660712,-8.97417279149994,-4.757483427701321,-4.431164853597684,-3.703647508949041,-6.846611236132846,-4.312376288840206,-6.38801322484197
-5.953677033245614,-1.457383660115377,-5.8207849603484885,-0.8872373752729277,5.501223435194747,5.959958323879761,0.306229173912496,-12.166433354001924,-7.371857874741492,-9.422883274207152,-6.3303755422916765,-6.2320560511710585,-7.744072443167135,-15.213610832194725
-5.237300775692148,-0.9507472803681916,-5.892611234704967,-2.155177812514684,7.423194043582033,4.586050451308169,-0.2354603979881089,-12.87187702800118,-7.891611777290254,-10.949166415822727,-5.318747261115394,-4.972240526951277,-6.017171502426375,-16.16921850184962
-3.929389801464138,1.3336455458001557,-6.538701976460985,-2.060716017067819,4.946755483186051,1.0613604574315492,-0.695449979338111,-10.840119906248374,-6.19715565277894,-8.728570920326721,-3.30992632479247,-4.742009398691165,-1.1679953881659486,-8.31695790078315
-2.8513356824570826,3.256740643145483,-7.073550789460519,-1.11331001445301,-0.2027548039580189,-3.0245527715404044,-1.5597553181311827,-10.138411086926268,-5.886928978981745,-6.552556893958981,-2.8362830583677683,-5.977318905070462,1.7017113532759474,-1.5012444153788518
-2.4331683451277346,5.30793262653147,-6.6368456916563,-0.3579455708811341,-4.090481101592402,-5.245952579475262,-2.6064116377799085,-10.264084771972152,-6.589031025761664,-3.3217160571135143,-3.956970036999498,-7.578184925373556,4.754380896070302,6.95955969110508
-2.4757127023664083,6.60780599313821,-5.123419099104386,0.2042942005177443,-4.048183870138168,-4.249353669953395,-2.94765047964499,-9.575324114326,-6.270338895222753,-2.190973883671305,-4.613979826720994,-8.123246129397693,5.397678348078113,9.94930983172218
-2.4795453805221523,6.76078192216788,-3.490271449855558,0.74239747887619,-0.6326787872890707,-0.8056048098386781,-1.847978440950276,-8.74675087119709,-5.514181342392242,-3.909493547620102,-3.245810075793549,-7.340731236652449,2.4975673126624134,5.544423301033492
-2.0350312900894147,6.4309661327503145,-2.9011333031956266,0.675535799988451,3.2826415789262224,2.8789892722013253,0.3902841915761819,-5.756227147689229,-3.2948814531481587,-5.442914618946472,-0.8299832280455732,-6.340360521675359,3.604202842173347,1.7844671169550672
-0.957137514484329,5.23673346796494,-3.4408205704898567,1.8867138387715277,5.040291704261273,4.878290584024265,2.3819459617201906,-0.2963314680385137,0.7483207195097294,-7.741304839283628,-0.1116788839360412,-6.392651381440327,4.345162982295892,-3.4745151836710737
0.6700227477580598,3.777090805151733,-3.822046889568196,2.899080187446002,4.047432323646977,4.748367288904797,2.6475876535395777,1.8505369899498227,1.2341185500923022,-8.728075024632044,-2.748909160880212,-7.532431821311752,2.9023773868269185,-6.660857598191584
2.3271024216838314,2.064282748519414,-2.6441393537085767,1.963480769000705,1.6820080049429675,3.331371536636154,0.8264670164585182,0.8011729998021313,-1.9245298724092597,-7.913942792541277,-7.349243757357324,-8.424062922415793,2.296024064554929,-6.461185906989496
3.008688260313031,0.2243130404244971,-0.0614316761734801,1.0409100988663236,-0.1918725084186774,1.651036626871841,-1.99305578985926,0.7599549758318278,-4.500607670452472,-7.485382397228306,-10.503481725352104,-7.610632388159921,-2.1865575921076084,-5.972777104324319
1.7398095585816828,-1.5722573995446305,1.9782955382967848,-2.145338871451949,-0.6287025678873714,0.100695556604835,-4.16034598871112,0.6170747803521581,-7.602793084557973,-6.849128033085873,-9.83536254747819,-4.865685867402472,-7.0780994855978285,-3.861306860986604
-1.4341975977491073,-2.3905176659,1.4912841352986868,-4.900507936173566,0.0721246233005437,-1.414256355655196,-4.765909339227561,2.5486751247035437,-6.446587989941171,-4.611740311191474,-6.017901071761766,-1.326524967574925,-7.362720244678566,-0.9617328368347192
-4.889119361536762,-2.001022503993454,-1.3335595581638828,-3.605538975221119,1.0234167065066844,-2.811046055537559,-4.175147563725209,7.331480032866,0.0108368649455109,-0.8827451692834518,-1.7910391631871885,1.6162854916524156,-4.967713556311557,2.5919106199456934
-6.179484537932234,-1.1321987667750038,-3.76166197356534,-1.722645381227972,1.597728553229302,-3.547801657638823,-3.3712987780427017,10.033052220348967,5.550894663413996,5.505764930640251,0.9105360133343416,3.483583526698581,-0.5453437344082644,5.306281834475324
-3.8351766277012103,0.5421441266196411,-2.671875528011059,2.168064508119966,1.7692929605617818,-3.080470337405906,-2.839554788016057,11.148549014539087,11.42043581960493,15.03001629882162,2.745214254788752,4.827000725094544,4.507949919531705,6.778201562461436
1.308344903629246,1.7405542746938376,2.5456537376693325,5.256691375144675,1.8323877852642685,-1.5241976514671087,-2.125879689241195,11.025026822192,13.258272541533348,18.850272435684136,5.895716311367366,6.365947940734328,5.921149121510463,8.662629312656701
6.608307741328748,2.3232264441207207,9.061992153105448,3.4336128547899856,1.891882090655892,0.2595806442119648,-0.4745234422202637,8.631632651187532,9.628813731442063,16.65108853174867,11.327895345611164,8.13980560573793,2.9758876183823677,10.474566581281216
9.667670215418369,2.528254230738761,12.686603317435091,1.293460159386786,1.6291268275510522,1.303205384609416,2.14885338524962,6.875496398468155,7.035248542122458,12.88439749577418,17.22574165157573,9.483011112391823,0.5140509787634635,14.269753760134089
10.11544816075916,1.955665261022463,11.237528018890623,-1.1435051603566282,0.550634349580797,1.2812656100502582,4.712184467814052,5.588132127541804,4.161210214515128,5.368813951661865,20.216637612761808,9.703162593970692,-1.105802129927303,20.42924012537389
9.480442578843885,0.8258832462110631,6.269860852375476,-3.055847383387933,-1.5032924065393534,0.65236077827096,5.825551365992558,3.84419629428164,2.424436319705749,1.9968645423612792,18.2160728006563,8.71264996542421,-2.2517824435692284,20.762003131984308
9.385371640056594,-1.0061104513841657,1.6849913286666691,-2.081052970005586,-4.0469237458002425,0.1164991522752796,4.848659413003408,2.2210638832017957,2.9797276661416032,3.572127605462813,12.20178748215874,7.06847586213862,-1.247281751148971,15.197062833876984
9.93299695764922,-2.9021626718837448,0.5093017133092821,-1.91656378388914,-6.145728209138048,-0.0269245816311001,2.3862433872657056,-0.4580886329297358,1.7561482486434452,2.96437944451258,5.373084288560903,5.513855694107445,-0.8800755504258125,7.913807227040463
9.874011889615192,-4.835814293804103,2.6548054182363376,-3.2034417441181837,-7.016436449560544,-0.0159570663326009,-0.2311641289769967,-4.252624552531214,-0.669252259194498,2.013370773664423,0.6586401316884887,4.498488918118882,-2.335394070448171,-2.980037299055902
8.243887587758966,-5.3206417504925465,5.4497693940776735,-3.4291601800799216,-6.572681349484981,-0.2237126689675417,-1.944005705477124,-4.907066029461327,-1.2357442763989428,1.3644410436907048,-1.1038816862231595,4.033006460155816,-2.5722290916027024,-6.765255139615861
5.649949265983182,-4.016073408796962,6.211411885969494,-2.281090352889269,-5.469062578264446,-0.704339731505859,-2.5429781066158608,-2.321064019322125,-0.3889069672886894,0.1685446906021861,-0.9470215162082808,3.8826577416827366,-0.9595622732873632,-2.247690297393849
3.837662095760981,-2.3020535933193287,4.464704156522138,-0.1659139165028186,-4.583175037625511,-1.1432261228431444,-2.4441193268086323,0.6169057742700248,0.9504872118065346,0.998064998690958,-0.2169341328842944,3.8587971853416807,-0.2130050049860847,0.6079902008697482
4.028292074800249,0.2921261070274885,1.988921671516448,3.40917590766372,-4.3420319122541,-1.1998820113976605,-2.080259676348875,4.858693356914807,3.319332902806136,3.899340885080996,0.568237841418771,3.95785871813206,2.120105562662423,4.379393866484947
5.789147397742151,1.9701587535360117,0.9737215541877672,5.240556203190068,-4.449656781781011,-0.851341797071461,-1.613390649557847,6.111529105474067,4.449846668853847,5.200411281574292,1.534392331304253,4.2603548652371055,4.2925513467678815,5.91669019829186
7.575280695011825,2.443875382574398,2.159715509844416,3.758532252586789,-4.245250965682132,-0.3980364121277655,-1.180958134261897,3.6701418759750375,4.135820763748838,5.232847369427903,2.60512559511824,4.720854831019155,2.722734042349852,3.6232531250563342
8.297674792345015,3.5450827350648613,4.552822995043849,2.9340864987848203,-3.366488713027484,-0.1602416186565785,-1.191923736196285,2.0739131212027813,4.206379540258537,4.939626634777609,3.2140075967118715,5.0930912601342175,1.7673876058566358,4.016155614143607
8.24404371320028,4.815344749941703,6.6311027871597865,2.32708843830713,-2.0994199074155957,-0.1852715444276018,-2.09055143620831,0.2265013477103911,4.120240430579536,3.5781991147212664,2.9029966918204018,5.110379745195278,-0.5312669027662414,6.089902311475096
8.440528872349114,5.079610827864399,7.635560695409135,1.4615683331961564,-1.078858450762202,-0.2436070397860859,-3.6687064956600968,-0.5683758220641362,4.01756710476666,3.6965117745905673,1.9781375360184696,4.754125054504185,-3.2872856686246377,6.487997939567369
9.22794493898896,4.456467334667071,7.755283913974098,0.936120398635574,-0.6395786061415203,-0.1015020174822476,-4.728924687536189,0.4401182101810805,4.108089975386572,5.413307358138547,1.335926597894371,4.297067564468802,-2.555992896614895,6.047614694018433
9.64424714687831,2.45217007453178,7.352661246908405,-1.2228198012781952,-0.4971569045189796,0.1950617171067827,-3.792658702108143,1.361873311450596,5.471968840557943,6.977347441016815,1.59339867735323,4.0135878352904975,-1.481881150866888,5.186890570320777
8.331587194573228,-1.267435512858779,6.341313710385874,-4.751027076852858,-0.1191946125519773,0.295502234274652,-0.5270235750595047,2.7461324355345,8.354452182642085,8.957238997210828,2.4865821942002317,3.833663970118966,0.2586294833407614,3.4377919774324948
5.063348777226251,-2.711827063169239,4.468336218440401,-5.987479198487449,0.5951156610722643,-0.1811439226263864,3.4121023507414545,3.3507827261434024,9.618079946217074,8.817816922738233,3.182119916025673,3.338295435897151,1.9649065239662555,3.207512565662836
1.2981042763344988,-1.7939900552615309,2.080512826182088,-3.885198495594108,1.0984513961453874,-1.2909122835753593,5.220060396388887,2.8651406844710547,9.39266875950694,6.13625570062634,3.102757745586749,2.1698974905210857,1.5846662904482112,4.632789520132167
-0.8899975936567017,0.2614766223738227,0.3212291168067018,-1.1360664517448107,0.7629248670255802,-2.6232282465185985,3.123118732786435,1.9098799507480204,6.838512643757659,4.0849211899955415,2.343387103689021,0.4747390744092037,1.3121135147912986,5.075135966882282
-0.54749278252529,4.4830603510506375,0.3030467449444121,2.5861726624906,-0.3250201872112388,-3.50710443185322,-1.8817100610067723,0.0482544691994732,1.0737033404709064,2.0636436693668148,1.314517878727397,-1.0918769268673731,1.5764422571624297,4.995209237772725
1.376708282966297,5.81007950048749,1.9690851480868796,4.360783060636449,-1.2494146646858333,-3.4377940523018964,-6.446491110580002,-1.6481029585481697,-2.22318125824741,-0.1423358720767589,0.1573222599464969,-1.861787885853872,1.5154688650929429,3.645611684698659
2.9096839773944563,3.968425227539414,3.822819829989792,2.3658949193469274,-1.0941693964280343,-2.4296553998490324,-7.413780692461454,-3.158024636710771,-3.2003817049866323,-2.0262739680716177,-1.3433252448259392,-1.7233379991586233,1.2570464249511917,0.4777137718337648
2.7409079023174705,1.2890877564502672,3.9515075997562654,0.8231968578609727,0.0467306595061813,-1.0482256804317345,-4.455472336341055,-5.499438288887999,-3.7266618305156167,-5.293267136961312,-3.3088847063582367,-1.243956068699271,0.5277219931308437,-1.9371231043319908
1.179042651775342,-3.517736107762488,1.5489589532379655,-0.96381805696187,0.9522820950103484,-0.0817869120496332,-0.4544206597336018,-8.4842931470018,-2.525312544718084,-9.91770931875471,-5.409608272072516,-1.224398687330277,-0.9353802648563264,-3.8357571369178567
-0.3804849631588496,-5.337339209189418,-2.351839764256278,-2.04969117848294,0.3115896077534135,-0.0463137280199106,0.8914397352493477,-10.246131341326048,-3.2457687351893614,-11.872298571703409,-7.086697544073768,-2.0648401730659938,-1.9916978671643435,-5.818905042918202
-0.8372992095921621,-3.737091900143685,-5.561198286055546,-0.6152841806257627,-1.9882981683207728,-0.8423096007839064,-1.7144583840367886,-10.770378708244188,-6.066970180482788,-11.183265517067532,-8.116726874620976,-3.484495382617148,-2.263761795074465,-7.3868522609991905
-0.3092575463889524,-2.4303285961762926,-6.28054473041961,0.3104781465091154,-4.55392905699615,-1.8118648456104207,-5.948275104124528,-10.14609142110154,-8.328788560277133,-11.068470649339092,-8.867169813515309,-4.817033577931449,-3.069116321132835,-10.68319004998598
0.1366622058309108,-0.1759768746702298,-4.322190192165417,1.2024873599611734,-5.506677617167103,-2.191845110650135,-7.804839725929659,-7.841492811224686,-10.82526514103144,-10.742309050685597,-9.93532444492602,-5.594486237900759,-4.520160481277483,-15.823095722595156
-0.4501664960588805,0.4136106256399002,-1.1476577640182395,1.837757658223854,-3.9471430569857615,-1.662802079106385,-5.067507572331142,-6.233712686358856,-11.425102167647028,-10.97721783418719,-11.515339123085491,-5.875044585077701,-4.759851083579855,-17.094554926856773
-2.054876681681373,-1.2451984746272746,1.1923593922526443,0.760947396980394,-0.587044009533999,-0.5820044378252973,0.7217918977045983,-5.288473590758093,-9.623228864031518,-12.309222805042962,-13.075825285663234,-6.025160024342171,-2.8763862668578315,-14.554106077048312
-3.763605478915804,-1.502237573517065,1.3769508158284438,0.0851703210599585,2.9153396425893376,0.2942771670358244,5.524737299413918,-4.508928359055926,-8.392756138502612,-11.356751220716747,-13.611817333622856,-6.223987516643893,0.3238982759827028,-10.366925806329997
-4.629174644164481,-0.9909449091888932,-0.5230851219136063,-0.2910282297039569,5.205080060553604,0.3818880384580936,6.169206849706324,-4.467269017498101,-7.189847355689902,-8.258158538176259,-12.297185373017951,-6.271632492965127,5.626941886363348,-3.1898579840307804
-4.596718700298869,-0.7332112729897026,-3.3850029666740227,-0.6539417228770188,5.942986425045584,-0.3388480733837635,2.852157714453257,-3.6801339842189726,-6.7869239820779415,-6.516519723538525,-9.167310639295875,-5.96497761674452,8.787225123906117,-1.3227939854389108
-4.703371968832738,-0.1976081332379458,-5.966177097451947,-0.4295626284714178,5.538118458384968,-1.4112297235345146,-1.315509924996709,-2.180119254377008,-7.764748837493808,-5.646650091417352,-5.440306993943241,-5.617190728766399,6.710112650477487,-5.464450318324797
-6.273306679948921,-1.262365293953194,-7.634151481874838,-1.234690311968997,4.456069045081168,-2.324674139697599,-3.106987222241786,-0.2570649549183267,-7.934346210719474,-5.464230802612906,-3.110013819668791,-5.99125386739663,3.596252984234972,-8.48222461164686
-9.60523661222844,-4.133739706034394,-8.363264923033633,-3.057481856306199,2.9452477289441106,-2.834517969517517,-1.6842169358758472,2.4307159474243223,-7.593459309762868,-6.663374479619836,-3.708670132250131,-7.460220533054651,-1.6718249455790497,-12.30873692406146
-13.221396364069092,-5.709091691607524,-8.16870557995231,-3.898323578425551,1.3660525455146717,-2.91324934036782,1.3173625392699115,4.115435315670817,-6.846580003431842,-7.259616504786178,-6.836677153034199,-9.14648646904283,-6.0083785194998205,-12.593015945907494
-14.567893439990105,-6.289536987580714,-6.692371189029894,-2.921874634562333,0.485826101741992,-2.508666299413552,3.82623779675054,4.72713965799406,-5.28646864938164,-7.370504930867732,-9.731674632839812,-9.100512930073462,-4.926440359525774,-8.019213439971558
-11.977541519103292,-5.207115220149951,-3.511443830687254,-0.2188743044638436,1.078868120766617,-1.5037377545127129,5.25671275069972,6.125482564158955,-2.935641318478317,-6.670071395024334,-8.83137697183877,-5.739237177268377,-2.5453564692624955,-5.791259741749237
