AF3,F7,F3,FC5,T7,P7,O1,O2,P8,T8,FC6,F4,F8,AF4
-1.7217935227587595,3.333904667933945,0.1529699664380057,-5.498877177105694,2.820801169681621,5.062586048084139,1.61782039782133,7.392042735939245,-1.0753965895405817,-1.0850864346107227,3.594075201836749,-2.443675352511744,3.2401563633652724,4.5122673759374985
0.1118814882786205,0.8224428262526979,-0.1775475489338252,-2.21127901011276,1.4105832035578685,5.309882687642764,2.003578876664877,8.158511405463077,0.1854664197847737,4.400401451474771,0.928217779848775,-3.5903516490764087,3.224672751372823,0.8888421674581792
2.905270904513476,0.9237630703398104,0.1132270169925283,3.3781066069818806,-0.591609702344614,3.313243403482561,2.7522229386128143,7.739629640591066,1.1349810863359011,7.123379829640129,1.1066216045198067,-3.437830852205122,4.551378999745807,-2.034532244173327
4.3516126519615215,3.110280562651301,-0.083644086648026,9.105262315802372,-1.4328194479504353,1.1001421914229366,2.636222701842567,6.964888159664802,3.282051751157007,9.410630153513916,4.115275010381838,-1.814993092956402,4.964353915240628,-2.6217582024557675
2.45300138056455,5.120276003947894,-0.4644251667563684,12.239586114888333,-2.577320286993688,-0.9951856728547992,1.5528071228916844,5.422347917163847,1.0479462035237026,8.156566589660153,7.371996912163064,0.089050515569423,5.058906109211042,-0.9277415557481856
-2.8885079032104253,4.463842603678726,-3.2772823832365465,10.645715009732918,-1.7669804141449006,-0.0996705551780613,0.2914547733723432,3.1919777217675698,3.0514386745098707,7.582955488793407,8.079314532415797,0.7408558317366225,2.833659348694834,1.6174238109338532
-9.566078230273664,0.298412635447313,-8.898033757944898,4.259949367163598,-0.0565595030983356,3.111614189801878,-1.463100485677863,0.2736429036717097,3.235181438843948,7.135083565325194,5.561607108181811,-0.434374559602916,-2.235685879668957,3.44213653548839
-14.41800093070922,-5.817814571138031,-10.518849628270631,-4.396801988194488,-0.2352394479062748,4.517088210573227,-2.118093338687878,-2.133371851417576,-1.081555112931213,2.829829904636834,1.5856434253004972,-2.6033908399147068,-4.690095653174238,3.95139039698592
-14.98117971650319,-10.931104624189532,-8.270499429635102,-11.44644059315027,-0.615875497477161,4.44702905277971,-1.47247762341946,-3.9021983528231377,-3.377880958157951,-5.016823137820436,-1.3847133807690415,-4.2456361031496,-4.80116178623093,3.68775222028147
-10.713727615044624,-12.693039808077916,-3.452569102180838,-13.944373069129696,-3.0836058596718057,1.9773572048255936,-1.808805918914982,-5.820302003181492,-7.087658755510942,-11.122844241507478,-2.25201084073339,-4.338079527552797,-4.260315882727591,3.5618028003092577
-3.090863757946252,-10.855560540498104,5.620502318298337,-11.589605496104516,-6.620070375821361,-0.8688238527854842,-2.814718097282299,-7.559705153339197,-9.005153227760871,-15.908050988878156,-1.8780404342336252,-3.013564328835237,-1.8881308112698132,3.925319529908778
5.221772640817704,-7.235632064267184,8.63015693095507,-6.6649653542758,-7.854550695413663,-1.0940131214034985,-3.4956395451778017,-7.919563182512797,-5.54831920354518,-15.467268912959426,-1.9534042703545271,-1.2921160971297785,-2.3284483696103746,4.266400959164918
11.486645580737385,-4.323970167753502,5.104766001635656,-2.394190649963465,-7.598217876701669,-0.417212357732583,-4.202593200504694,-6.804448398931842,-1.0867804473629386,-8.140579803302698,-3.424490813293106,-0.2754467067954986,-5.873937955218151,3.672793386560787
13.815260342643477,-3.639095958990631,1.2660303714895809,-0.958217666220376,-5.37187201051649,1.1997622249803062,-3.1139477780871503,-5.573329681849056,1.9275745141414904,-3.357581638668423,-5.908171659018592,-0.4851365389434772,-8.413574779987455,1.5818574864236323
11.74132758394076,-4.950562763576881,-5.333875402054103,-2.426413168953837,-2.509468077038961,1.6379655325341336,0.0511809189929308,-3.959455509827418,4.558345973288784,-0.0651616301534054,-8.368755062883704,-1.7100104085891212,-10.940561175212936,-1.7709815231425734
6.413307164541121,-6.754374109263519,-7.142812009661716,-5.087380079156491,-1.916798626947689,-0.7641907321285886,1.643989054299262,-2.5970645232193013,5.09377483058474,2.535232769645499,-10.13037995658642,-3.2437491735874984,-10.863640729159735,-5.424366024219228
0.2490529202857518,-7.50869571436949,-3.0545451384818563,-6.794826979449974,-3.346590054689794,-3.361188494889924,1.9443467203914424,-1.7764237031358472,4.132671162872002,2.5555567635430454,-11.169166332957577,-4.200470192193498,-7.341900074351137,-8.105538467250332
-4.085662661804244,-6.708996649844,-0.3513964944055359,-6.4332800426346175,-5.879422248215416,-5.601459208519139,1.6261148478864422,0.9601521107304904,6.599975177216198,6.255258884786959,-11.551937161119822,-3.75264750861981,-4.767928228956221,-8.714217357114235
-5.08695322957967,-5.10390708662043,2.8555285885460986,-4.587756561100422,-7.70420630824441,-6.8688276828843,-0.0931537675000391,5.534304603928956,9.584401173355088,13.474444555467924,-10.847853596107768,-1.3727595806080082,-2.4324901759325117,-6.744107496126784
-3.371433655513541,-3.998927145914598,3.781698777650397,-2.983225177206578,-7.54274573758207,-6.45934997662502,-0.7888792584417592,6.911829682836324,8.772947854215493,12.349813123034345,-8.359038725190013,2.838752386447146,-1.4461382722241398,-2.5877926890868785
-1.3272544742887291,-4.225979134769426,1.224278131760559,-3.085939673898585,-6.519156685171352,-6.639603214123142,-0.4557007623009903,5.206465927509769,4.380055364033835,3.23946307453825,-4.078777927299184,7.89304259170647,-2.7131565227474765,2.4228021534113875
-1.4228512104444722,-5.551892944891005,0.1468649229140841,-4.925917378342797,-4.903305593866043,-7.746416267383418,-0.960926049060556,2.1450685476092457,-3.1199633170686654,-8.96536025999593,0.6498490188008027,12.064987821813734,-3.447269849038282,6.450999203707731
-4.275129391656086,-6.929828211931866,-0.3204745993446974,-7.091775194065431,-4.420299896935285,-8.817815567862295,-1.849029554269682,-3.4466298179850776,-12.866951599697122,-26.894762462197196,3.70486637671584,13.631362820805942,-4.156572331087331,8.037291098002301
-7.995995972834359,-7.3411661574422045,-0.4666570893961288,-7.906248456191009,-5.876565926637868,-9.594595934103465,-3.081436388709037,-5.792171637132537,-16.163970754333345,-31.27899470548072,3.745946867543169,11.866712689163707,-4.8799913023484685,6.954817425896245
-9.48280474679835,-6.540792268999047,0.5205543072741193,-6.771698712991167,-6.8960386544986525,-8.833083465064414,-4.918347601022237,-4.476679507333524,-10.087745179748412,-20.24501057511381,1.3965795674181654,7.58822775912049,-5.170707408906949,4.370295214302828
-6.764315135880423,-5.1497302508716,0.5042034163630977,-4.547422687172382,-8.421180469181806,-7.825563779356211,-5.694057316681435,-3.596565565951737,-3.3201068463536383,-8.859339934548286,-1.1666266812987889,2.7456983891431657,-4.66594109063425,2.0524463421987345
-0.5828261518008944,-4.1042816535396325,-0.3935505552199233,-2.732357896031504,-9.73876024764998,-7.514503704583416,-5.35372963476385,-1.7692213969948527,6.08144727414993,7.684173370153664,-1.9764878869163616,-0.7204599894369252,-3.107815755659613,1.1603420261623412
6.043743973987105,-3.979125411186397,-0.5529818791839297,-2.293437880146185,-9.005517785374167,-7.4758852712858594,-4.4433664368618055,-0.8350738809887022,11.506350691920892,14.896988754018482,-0.8003865632098388,-1.9186625127775103,-1.855625593375539,1.5705401144712177
9.9131175293335,-4.709194680501957,-0.3002547155135242,-3.160947991155597,-8.165614032843253,-7.827179314841123,-2.532240385547228,-1.3259373859378465,6.701456956750234,9.88533996067194,0.9613693739848724,-1.2174568293163142,-0.7798104368062386,2.2732837630747045
9.7285117914777,-5.796777281190152,0.371454017982864,-4.610884347245936,-7.730869829629241,-7.473660788111952,-1.5653057735164966,-1.5073842441267515,2.6295213144405545,6.41638538187479,1.7732907063327858,0.3532660818276691,-0.7365459453571204,2.413553384387255
6.654745453877767,-6.66308687985719,1.737158207310757,-5.897984908689158,-7.094088314121561,-6.183015173282923,-1.6478612540391129,-1.957271440427497,-2.8673055252076587,0.4104255844883131,1.2782997052208716,1.856458326804201,-2.1098068216514485,1.988694049638344
3.1450459665033312,-6.797096629914163,2.270070203091931,-6.477512670188208,-6.795441952744776,-4.907354300094617,-1.9349762259557708,-2.799115933983864,-7.580471020498195,-3.641733930538416,0.2146296385055155,2.775249027890368,-1.126550322052268,1.6171130467406072
1.164483483698537,-5.72577819264179,1.9567968700372045,-5.859605256168602,-6.671130445687421,-4.547174490998966,-2.9259401231427558,-3.912750599176272,-4.611695860136345,-3.872819245442672,-0.6509926670231276,2.923883174839536,2.1481959432006037,1.7413916566800247
1.167603639742656,-3.1202798958515228,1.7195829732614036,-3.6480483583937047,-4.394909309258498,-3.579984553788306,-2.8152439296971736,-4.664870578494495,-1.1194222782265837,-3.6831405535901593,-1.1540880316694175,2.344740073365017,5.18482829415042,2.143250160787052
2.3261057650899457,0.8108699916064184,1.2297452513904297,-0.0045436759990937,-1.045993227570554,-1.951356466657484,-1.4694469319773136,-4.983010653017502,3.047640948066742,-1.2846672521334386,-1.258383508347008,1.383566979498167,8.727447420023713,2.231747796903268
3.46738754969763,4.970893724346959,0.959209402448006,3.961912532820072,0.7344708299415896,-0.9588041536337608,-0.7297508199544558,-4.502147602240226,6.612284403415341,0.5623561693634939,-0.3489650396906327,0.6922437628277618,8.997994667029081,1.7212767410353331
3.8449996793180254,7.629395016137526,1.027383242448155,6.584232501320934,1.77891849239799,0.5027223158962788,-0.2256645725445436,-2.960060921821676,4.211050589054732,1.7248936590799266,2.4332561994315505,0.8761834539324704,5.318833323827327,0.9498485820085564
3.3134619537606373,7.436420310702411,0.8760865792260437,6.782783867866178,1.113368414184901,0.7596854858717439,-0.3589625449397756,-2.3647306884359858,-0.3020898292540431,-0.1575703615177265,6.860583463132825,1.966246793307108,3.153464709112758,0.5289541555956974
2.1001326937093934,4.555202386302591,0.6333341183332352,5.0052736845904535,-0.5314603411437735,-0.3700059730229241,-1.470449004508886,-2.6674799123749997,-5.2423411455806,-6.096530988354118,10.824730157684956,3.2637663841940743,1.6513703107790745,0.7192839711369219
0.5769056131189294,0.8803775342207771,1.4709741868887083,2.939539717669785,-0.3283991730373725,-0.69660654015628,-1.2280589053411466,-1.597855283825352,-7.4301926562258,-6.187455515347248,11.40088626736443,3.847854928598247,1.1614991441162763,1.1614456867901897
-0.8093371015270829,-1.1145747758610949,3.431429691076197,2.0663197190594484,1.3260504755910163,-0.5659656114238253,0.3181290828916758,0.5539574185713227,-3.374729307910706,-0.6565447361963991,7.210421623675886,3.360341035093992,2.7373173932952644,1.2026081056925424
-1.57765764993258,-0.1607978468905773,5.330274086314304,2.355196460103256,3.438416294110619,0.0663105622486531,2.0267701893829515,5.140428050239339,2.717900047995231,7.85913731249161,-0.0213886795963054,2.3368025186614148,2.5205506752500733,0.5062300656159784
-1.3556481411363372,2.859166933373861,7.40465581666573,2.4603668122869573,5.379004286780238,0.9827496782835174,4.39083886409089,12.77490168171956,9.040259871915351,21.69316842411341,-6.292693858985874,1.7536705762741658,0.7737260005041072,-0.5768162273588748
-0.0543004262681385,5.697360421877812,8.391717693574236,1.375312905126,6.115199407067642,1.5828822552013229,5.4516838693113,15.376782620697076,10.765836175905829,24.274929480250183,-7.991361691991164,2.210247547445978,1.3108831645621373,-1.1811015454909986
2.0924557068891727,6.645749596949801,7.966166477540382,-0.0746966604534589,5.326095119195438,1.634784506224153,4.966138356810389,12.83047171292167,5.20003519151035,14.478975807807249,-4.254330737072068,3.4870123486175357,3.639639948036288,-0.5439537444478413
4.641576766220529,5.8782074555515695,8.811302488783916,0.3730272402961085,4.699780432504432,1.5313417638315447,5.035043295577228,8.502575668304909,-0.8669659089645678,3.39790034755514,2.7182464172651075,4.818303121861833,6.924676821714726,1.3465389746893497
7.053152969191803,5.025172693005035,10.67417643650212,4.158185689373687,4.843085184529328,2.180525111579931,5.2087693493561815,0.4333986454011949,-7.181869305574171,-13.013013298343436,9.324390255853892,5.54035402953912,11.8820037008497,3.559702571779473
8.71462576353031,5.443996382840437,10.935007764478296,9.837225105256287,5.313076723729544,3.577285478279815,5.572248467164642,-1.870568220068564,-9.622525116648628,-18.470453828713563,12.734798810174007,5.515310336624362,13.500033516536588,4.728420046768254
9.030856577404286,6.905518009808949,9.918207223900882,13.521615313732386,6.453584744438012,5.615182386023656,6.456379200575816,2.3913214153144065,-5.071535011631387,-10.54287755035843,12.183755903218552,5.06511629455711,11.41412680489642,3.9972680643451977
7.7762293238385745,7.986288993818947,7.345112325044059,11.959222991930096,6.931616153339278,7.652954902799161,6.390143398643714,6.176706386131105,-1.727904266688082,-2.915354013520615,8.966976654565494,4.638635197665,8.975008501079659,1.728548526594516
5.547333023683042,7.719164582130321,2.6249611311912155,5.714202107964173,6.497338080655876,8.945892812406216,5.414009748122221,11.796003788245136,1.6052536948471992,8.77552702260335,5.501521108870954,4.563723404680651,4.945614210260604,-0.6571014920696259
3.754832734283248,6.756653865237857,0.090909714790894,-0.657015952178829,6.491289789383049,9.354825781416633,4.692352381319085,12.458139461900378,3.863572627125832,14.15151244559531,3.9497601613096096,4.96675712704214,2.15953932153093,-1.6930999516528438
3.761526723257372,6.783925682700352,-0.2112622556687219,-2.07436060335416,6.914254750328773,9.878020883446322,3.97035712043021,6.841594553507538,1.8218857435310096,10.902917200895494,4.910292832677245,5.688081657544869,1.126805192370829,-0.98455504182871
5.612698325958386,8.717007303351327,-1.387230926582156,2.729950619341317,7.266901846252752,10.78366561906147,3.409204507468536,2.1503659820694723,1.575724911889967,8.917133614229462,6.870645752810248,6.1347761705061306,-0.1047489894204452,0.478956734954667
7.5299106380113,11.514371835896917,-2.541263129057846,9.90129811409009,7.517169262626116,11.988970166713646,3.208898815823514,-3.42794971477239,2.3030052803022847,5.181769948035216,7.075909491600945,5.331815121728333,-0.7065944692218938,1.1037972636427842
6.992395742507031,12.886788286570296,-3.773175263096911,13.581734738476456,7.411401600440386,13.321204829769414,2.464890547035735,-5.985393815691383,1.6004894018489235,2.362428392974393,3.6366747904650873,2.46119539554844,-1.3670171946586689,-0.0407632367992656
2.820079713545565,11.331256395644564,-5.452142908568497,10.871581496708831,7.090631597665412,12.995787414053188,1.2316697233044187,-4.191760526779846,0.7536072478423191,1.6849127068723952,-2.558809878780267,-2.300072633542035,-2.2089058852418644,-2.480653419273022
-3.5187502957616754,7.582189153306754,-5.530459567295563,4.2614468858007255,7.970085701824131,12.595192126362564,-0.0616053867994786,-4.368479833889988,-2.0931417985811778,-2.498652239375126,-7.948365215681422,-7.38901093516955,-2.5606892328618325,-4.707441878989336
-8.759868645970993,4.076592434051243,-3.994722962339317,-0.6472799779213672,9.88553457146995,12.595062705776902,-1.584422314892416,-5.393833908998792,-7.363526360982646,-9.460735625237826,-8.86884514255734,-10.57108025472898,-2.578442749938042,-5.364118531062901
-10.3567259712566,2.8787238810110347,-3.595332714841029,-0.0906962455602575,10.758072174129666,11.85592446622288,-2.5421138326731416,-5.852241241836049,-9.588554159389174,-12.309917227613804,-4.77245183206648,-10.507789297018132,-2.5437033235828097,-4.310735065115517
-8.504969424118645,3.937119352819414,-4.04986610960644,4.654534319856733,9.460809216529306,11.603366200991568,-2.826561507788043,-6.671701096412597,-6.523279352770537,-11.45108972876388,0.7850453594780482,-7.947471997375908,-2.391584001054601,-2.727430844504537
-5.835536676302294,5.220855511475062,-5.435845912846694,8.566633409358609,7.349906636215786,11.110669632309136,-3.4396375610997048,-5.536139070395549,-1.409659212746457,-5.469653118109253,2.67587693926822,-5.347909559514207,-4.4393861552805856,-2.1628363591002806
-5.051886160416234,4.554256982851007,-8.371694815019312,7.340767153726377,4.750602591189099,9.575488935840143,-4.207507869732952,-2.287423737636604,6.377872518856756,7.517208220880452,-1.5886543095976489,-5.015972805483093,-8.974842761727485,-3.2770013082953247
-6.698422825258033,1.468804075650297,-10.190175358281865,0.9712443871160304,2.578347010762987,7.82445362041587,-4.589206131132921,-1.3429961128964083,11.124824881696645,12.85911897339405,-9.617611564645369,-7.272724961969223,-11.803275345686432,-5.30311086104032
-9.05262603200897,-2.5347649802283323,-10.97822359716465,-6.54081242069385,2.783897409271945,6.210542780515875,-4.706194128747149,-2.4598462839891435,8.537752620205087,10.500429329337566,-16.03224540387395,-10.277467113023787,-13.304586840168245,-6.6900101069459215
-10.0338562421212,-5.411961319507097,-10.875894222811182,-10.72121789279113,1.3358732560791615,2.749724525922732,-4.346781672549425,-3.4485480254761094,5.450513685723514,5.836560366383816,-16.962188818099904,-11.687618437968748,-11.723294920025417,-6.40065332096148
-9.132011565431233,-6.287776448455974,-9.226845191150328,-10.041234004912592,-2.033998833478869,-1.847331906654708,-3.3985880371096813,-5.178002066965249,2.373924248142413,-4.63513800307422,-13.139626339645291,-10.634344049157225,-5.9310171848185815,-4.762599233113158
-7.534865320797598,-5.927839006962657,-8.037911134854555,-6.415891996835795,-3.77508236318438,-4.789310926162519,-3.231188832137611,-5.608914439013218,-0.1332401285344788,-9.01951942466808,-8.803013312256656,-8.239075932962523,-2.7107090292124107,-3.138791214789144
-6.578258783587652,-5.708006488666387,-7.184642395629721,-2.9317621984221005,-5.301607268925459,-6.660930825783373,-3.867620391490899,-4.401112305736821,0.2817864149775166,-6.577749639328711,-7.518846627781869,-6.3448986999341805,-1.6416459048063154,-2.723682081486455
-6.298173185080028,-6.213602508849222,-6.648404866211897,-1.3023486726157747,-5.3004436710960725,-7.293120301942669,-4.028608664437485,-3.8527032441211952,-0.7353932709915991,-7.651899321098867,-8.912091530681213,-5.822055646640349,-0.9221493469930628,-3.5362688621582152
-5.585672212717711,-6.807386234195173,-6.889500574176888,-1.219438164288053,-3.345036627129639,-6.59388922525744,-3.974933341525264,-3.4736905218588463,-5.118934719503179,-9.706844715565028,-9.364330930719303,-6.057652117205619,-1.9791271048298555,-4.480786987980498
-3.65847956833163,-6.439230853522295,-6.3125939600266765,-1.5249250626192452,-2.5393606285174743,-7.032208044577617,-3.459957231938072,-2.553519770957221,-7.6016958104103,-10.7500169381774,-5.892507180554411,-5.912280448944639,-1.790132425706256,-4.37395523860796
-1.1859815260889714,-4.77232407379805,-5.005044238795465,-1.4875081532095065,-2.655269194184874,-9.650259338821744,-2.2489469689303063,-1.3691035406403649,-6.163566548135207,-11.999852561714494,0.6029664544841395,-4.9835288420512605,-0.3327245491368129,-3.0042538577125995
0.1837125298701156,-2.5264499412213146,-3.2444805757122857,-0.9511282833599431,-2.1095746202243952,-11.967608628079429,-1.6424061134828951,0.3809240960473751,-3.42487477403087,-7.160014821156803,5.847706410059897,-3.8934277237520414,0.0756209479126641,-1.316317466657817
-0.5431370632193371,-0.8280613270676218,-0.682610300446547,0.1995857470124491,-0.999242985479467,-13.96719904135042,-1.583077340379002,2.7916685145910374,2.7567683322037784,4.398673668831024,5.958391912564304,-3.467798605689108,-0.0079684063129237,-0.6069379917491755
-2.555719355046133,-0.3003609325919516,0.4371586314580311,2.0549028860038963,-0.2568236365201739,-15.6246889680275,-1.2746445019381385,3.843711600663327,7.100699027933015,9.943475771301634,0.9331380480478924,-3.7876250378908143,-1.07419198388597,-1.4374450904051823
-3.750714027388876,-0.7171845984474663,0.0005928224946161,3.9626732747594833,0.3592399530123814,-14.59005601495921,-0.9567855362814228,3.455299471338648,4.979279921424957,10.234189222597522,-5.283308177202079,-4.082412505561589,-3.505375250065313,-3.1555124790309854
-2.4789009260341315,-1.3673306568366188,0.1250205641372897,4.239604948271506,0.6704331953115752,-13.280445596160773,0.2283970560268125,2.8859229078887623,3.099223306966032,9.115931594411952,-8.076233383416685,-3.492798143559685,-5.911591034609188,-4.399395660623134
1.0481949575619254,-1.6468556522420528,0.3494479047124319,1.343482163325414,0.2371464999666812,-12.24003897073642,2.4586997149928944,1.656048854033606,0.8556502834491219,3.8722359009462615,-5.767175288511813,-1.9108210637821836,-8.479953673327755,-4.177814871911947
4.904312561028247,-1.380566534215426,1.273263944114046,-4.209212660738316,0.1528214013623599,-10.41870002858698,3.275973246035356,0.4883894905652484,-1.6205066002065345,1.565138108463963,-0.5187487371643513,-0.1354311602408353,-8.813741930977786,-2.6711277522725254
6.927219223584235,-0.7780051899423017,3.284398984922172,-9.277765974121236,0.1738937735393528,-9.75667834330378,2.758416897349841,-0.4663358456165109,-1.430586061023661,2.48666491861305,3.871845856520383,0.7372538525287684,-6.400360397092741,-1.1027920426371067
6.218140748608837,-0.2169483467739899,3.266886896851431,-10.118688529879623,-0.3529051773326928,-9.15075621553603,1.203462209434433,-1.9859576537006909,-2.9578953241056203,-1.7578140353136062,5.053035100786669,0.1511967593369698,-3.5426408068229414,-0.7527381858622992
3.530403327015333,-0.0166698730623577,1.268310097036496,-5.626669585162695,-1.228286206972647,-7.72519275460266,-1.9955870821119903,-3.88374661908174,-7.516470905868809,-10.00821203574282,3.466075040951334,-1.4792075288686846,0.4789703290414978,-1.884921551613048
0.512678621702185,-0.2571219927728219,0.8908380695506232,1.2462454329296513,-2.105593270332614,-6.527205623964752,-2.5838645034177787,-4.194005337186954,-9.331660694408528,-13.41404524759587,1.2551823667663768,-3.0119997080261207,2.7390086614106446,-3.4585884140414764
-1.354207397118837,-0.7117011233827553,1.675467998954626,5.629239818788538,-2.1951404095384923,-4.072443608490123,-0.3823324646309638,-2.8193352518597257,-6.373223069874608,-12.745921510945584,0.1947089704528837,-3.2826785239724567,2.7238298368854323,-3.86032041450264
-1.3598759830554048,-0.9812197884840348,4.451640325039732,4.822892941179119,-1.9334660294780388,-0.9439525621866144,2.2168991561102978,-1.1568622172146414,-0.9503617091098464,-5.443089512527521,0.5764703897476215,-1.7881217741627258,2.628186080197964,-2.0600002948434586
0.3896712235566255,-0.7800687007726497,10.05639157752045,0.6282335486203117,-1.3006317702610508,2.121340906119709,6.2363017051932,1.2655856294900931,8.874005207906912,10.856538206805888,1.6803295090492931,1.0642576457196933,1.5968561923066595,1.7018512399913113
3.149747404354118,-0.1472255333661687,11.827529891457292,-2.3743748485900067,-0.737530619643821,5.478385152998332,7.4187625243102815,2.6663024562061257,14.67945387470504,16.899094173796225,2.868363005324671,4.230450855470251,1.011987899361611,6.114357864383376
5.763608796562267,0.6010967744051943,9.768434647927018,-1.0964957640198083,-1.994558687742913,6.688236877214732,5.245925532980441,2.7434474182197954,10.154776304636288,12.733371185466748,4.029810968895133,6.583011643199341,1.1206039124567035,9.570647359250348
7.070503674051004,1.0946129064030046,7.334256157781848,3.2209510164831268,-3.487216616428892,8.280763395617756,3.424604362883578,3.0636381260370467,3.948124156372821,6.144480163871801,5.137219778533408,7.405515114748922,1.8142511121939848,10.902442748537604
6.522693396667213,1.0748286102904154,3.050755938996411,6.265039739714648,-4.982889601701228,10.363016825039743,0.8926226643997147,3.137511049782746,-4.882958900221979,-7.335004439359816,5.76470993143502,6.638086300857306,3.5713290490712466,9.742108957477733
4.625582620087015,0.4337112961672158,1.803808321569416,4.775195250268118,-6.390836716381978,10.2282362532052,-0.435677840928339,2.9468173243473106,-10.61170124443497,-11.735622910200217,5.367908452661398,4.86136474834883,4.464904274988498,6.579535208307256
2.703464452178024,-0.7191195768621625,4.225655387227062,-0.3729597182910549,-5.36965156985272,11.332208273204888,0.0477442157910917,2.636498786212772,-6.598831720327678,-5.773734119019373,4.078300117979571,3.044810988120856,4.550398140797682,2.641082406510749
1.9967107430516944,-1.89990004011947,4.554582644212484,-4.953303668901351,-4.71535878919655,12.54412899470969,-0.2844603219294656,2.292448897047071,-2.3980347366685795,-3.525153903999389,2.983213550985585,2.082153104641669,3.5969060876373944,-0.4690243564413645
2.7524368781278623,-2.2863856480025757,3.8619397384929823,-5.200319209280771,-4.708926243511862,12.774533442985287,-0.8673790108545117,1.978540034341728,1.151944907891496,-1.428932731317574,3.304938000724574,2.270890703041012,1.093317304546166,-1.433891578259452
4.054058276291051,-1.2678859748672684,2.091923196199374,-1.1092176156291167,-4.134528768081609,13.261243629778624,-0.8108641761273423,1.889419909994867,3.70637582196196,-0.8008445067118007,5.132843335001129,3.0999477379490754,0.6627805854841896,0.0482012356318986
4.515268055127652,0.7214415238805234,-1.7386191469518602,3.616600767811005,-5.242968083832237,10.79050338831649,-0.4107234621802741,2.112333102743121,2.0661498415768715,-3.637929598726024,7.031105144463831,3.639638187286312,2.324454963656191,2.987896077938624
3.2578630937040245,1.9471890256905957,-3.674824895453,4.668968188734773,-5.423878674463264,4.963316881197701,0.3071244276999336,2.624178397959921,1.5665757618857423,0.5677924221350313,7.118036063857584,3.3432782163910684,4.184120314001766,5.609615296219854
0.4513392047700044,0.374862061811724,-3.836722111515284,0.4649616289032696,-4.548430464664308,-1.964468028709193,1.447184816021582,3.529919060344625,4.097498628685215,11.5533652745677,4.74205842068767,2.574563882523689,7.051363900622697,6.396642082282186
-2.8700170885219407,-4.54335444253921,-3.678975095693389,-6.935343888240883,-4.913432025899693,-6.036850679694785,2.070348199434399,3.796938255433664,5.252045961416198,14.963510474134049,1.1713439368147789,2.2803112742182314,8.18369653228961,4.984261859449548
-5.478749478267787,-10.84816325838226,-2.354725623986659,-13.655703835716931,-4.797252795971256,-5.23660196477643,2.1186699940292493,3.3763391387100827,4.0158872816238365,12.02874370772487,-1.4340314498979057,3.015240348108261,7.229670630543083,2.296148623440631
-6.662869309161945,-15.095392912257372,-1.6829998309487937,-16.7675807428244,-4.782767977919667,-3.2772301112610727,1.9577506152878064,1.3761619493498574,1.0102235554017909,4.384261049127694,-1.8595037678518889,4.25943182550056,6.979689734557466,-0.1360726530732794
-6.577526968128828,-14.973613617262805,-1.781938734685137,-15.86977564900626,-5.12235172584177,-1.9024609875107783,1.3333400845987966,-2.608355361046683,-5.319887882448173,-11.141952117273544,-0.7653290303033611,4.812403914656398,6.787859263504641,-1.1675025846396243
-6.0405691562878125,-11.395403533051352,-1.3237020374339554,-12.690564624479425,-4.706143553358987,-2.850300347470882,0.1468624389934177,-4.544426055237131,-8.698676170535734,-16.328406709560813,0.1469478789714475,4.00994132428826,6.476670851219341,-0.6736023298430425
-5.878876809992711,-8.053182546817553,-0.7107024264261769,-9.479322092995222,-4.653707409343604,-6.5153938204567865,-1.6568645014276957,-4.500452522397199,-5.849163128800527,-10.592980986185678,-0.1306892163589497,2.581454610257444,6.4266768648138575,0.5551182428077786
-6.2955815149827,-8.515221807792495,0.3419647416049066,-7.567495119344578,-5.33694136693901,-8.196778168114104,-2.031441898782276,-2.7535494415560304,-3.0765996345148725,-6.498678074190064,-1.006491948130133,2.1671856619636047,5.890832991357511,1.5039825020685829
-6.816523024005484,-13.204706182745518,2.001453232709967,-6.979010643992208,-6.197742449198435,-7.000189755853579,-0.8370723871174158,1.742274293155368,0.5411134455829105,-0.0371185334479963,-1.0721189798436264,3.780520171437068,4.92974231090454,1.661081784829764
-6.904030287808999,-18.89092051252576,2.2280120115287327,-7.006247950839924,-6.574828961873643,-5.7086193756511365,-0.1439217335011524,3.3284931658455874,2.3719374339666,1.272554006982498,0.3069764099592103,6.636937168810679,4.167317962412176,1.2576809807044675
-6.615143226170202,-21.20340353013956,0.9684915860994148,-7.015280472817574,-5.658999248032217,-5.5413996036087845,0.4866141661476053,1.938287529688027,-0.3126431794185559,-4.557608670518297,2.296979685683782,8.585295316062325,3.510127818492992,0.9199741167210168
-6.518010250873392,-18.023567329199384,-0.1606708580175449,-6.788058124503133,-4.792544892446412,-7.598271410792222,-1.2237301785720045,0.1729086907322576,-0.0752629536635919,-4.94161778001216,3.512895109320576,7.911380198695342,2.3898495213433804,1.095972837512953
-6.837587433208711,-10.87273914754099,-1.5883472645117496,-6.286698904259961,-4.212514644678311,-11.500192179341866,-5.834047842930421,-3.2784351009195607,2.152673315564876,-1.644275477598938,3.4798150263436654,4.893075696350522,0.8726396607699752,1.7352517273091124
-6.770989346235451,-3.2871539507433667,-2.217432603709107,-5.293899487932904,-3.660005328738253,-14.103764220871271,-7.632787815225178,-4.501717146166954,3.2989557677511554,0.3558737052689721,2.940313484189602,1.585445582630678,-0.6354489133553086,2.3978441445196914
-4.9423719672890165,2.130360077925829,-1.728253712384312,-3.441828246395213,-4.228023303574202,-13.728405274564256,-6.9703349167641,-3.1144588985828325,3.990090228093184,2.9817432184186323,2.60928883043689,-0.058103754411789,-2.2187354078180004,2.591252196983742
-0.8097835540663567,5.303023283237398,-1.690760912812201,-0.658394501971852,-3.1844375569215564,-11.91493802808446,-5.557606745264619,-2.98369127021075,1.3687186159544202,2.2821797985795333,1.8543148924736317,0.0257662235413853,-5.072116613775146,2.043351209666138
4.342495992858433,7.781108533368792,-1.7959632645061196,2.4708903202360446,-1.0711913957680426,-10.316075714672785,-2.1928301526249063,-3.250803907156251,-2.9855829140519097,-2.531648645170788,-0.9137153197615042,0.0708133385182812,-9.249638422051966,0.8078915441425281
8.020153562502065,10.64121650458192,-1.9005972496679715,4.934339444654773,-0.2737734603915392,-9.77558275269184,-1.620895387854397,-3.3342664175550376,-4.883972709274438,-3.809100193164476,-6.175008704537451,-1.617840144989664,-11.086211205483554,-0.7411348600472252
8.417892241369103,13.391728755751537,-2.239724518452939,6.045310821404936,0.9180361779438262,-10.748782736900733,-4.141223140480128,-3.752545794008844,-3.836181766121713,-2.2333544075531,-11.696169715333056,-4.783891659753779,-10.57473456614883,-2.015399769775989
5.925768843640384,14.762055743741074,-2.3367263481328875,6.040402880675544,1.0945756454618552,-11.227190490058858,-5.025336356157929,-2.074835634518532,-1.3389688545906542,-1.486911824883849,-13.4995018989515,-7.2700484135951555,-6.917852095334187,-2.4852700508591834
2.83485347958942,14.241285414175955,-2.222174315764362,5.8872778194186814,0.9185309180011773,-9.478987450276518,-5.234072534070767,1.856124103468828,0.378226073347538,-0.2269375491304098,-9.083267532242685,-7.014584923893963,0.9969933145817176,-2.048036902354061
1.4999761274563808,12.64335324900172,-1.26080732985467,6.39238906034206,2.583282455606972,-6.14161678300496,-3.986014580186592,4.295140436365407,1.3974345285776415,1.7211451615533104,-0.0770926368754221,-4.043091302253382,4.533049624278786,-1.183899439696833
2.6217623980988893,11.24568727544936,0.7183179077010788,7.4435754308691875,4.322111240308376,-1.840891792923664,-0.4350496719118218,5.604969649035192,2.4301087515090343,4.075934034748595,8.36455477598393,-0.4885743794377486,3.660023941843351,-0.6286288933951543
5.084043818578023,10.62333799255629,2.2837034521438087,8.186151409693842,5.95367593957906,1.519689721984651,1.812261215596232,6.19468563881254,3.4954882463361927,9.95316869370251,11.274076615005647,1.3532658834286888,1.7054657671754918,-0.7282987984371392
7.245038988671286,10.458494746080564,3.562431700170706,8.033855600086998,7.40577760258412,3.904415869460865,3.04242830083912,5.269112434535232,7.052050616966039,19.62384426604661,7.616976181073426,0.990206070741026,-3.3788569785273004,-1.0638837103547845
8.307956657220787,10.332672823866586,4.005659428399426,7.484905157238026,7.7197011522573185,5.387601119192206,3.502444214887148,3.977961599943153,7.845370001085073,21.17416866189696,0.8642999647429299,-0.144840958480203,-4.905696376987536,-0.8028735021430631
8.562631883778828,10.387614311486804,3.2353638713312085,7.766511728781465,8.159550501355042,5.932562577915606,2.407570287883446,2.117587941781825,2.8471745311937706,14.394149022597723,-4.007635693509004,-0.3422058638056269,-2.422130760539099,0.4466117012677664
8.568017472410899,11.043344848803727,3.6123763386079735,9.48984561995718,8.731996314106626,8.3655097342808,1.5942153367048206,-0.241751810712116,-0.769296095496791,6.487031032969158,-4.387098820735568,0.7635691463111849,-2.103851910811453,2.081373026821696
8.367392240069503,12.223442042336176,5.015867914090949,11.683716466277632,9.003540231193492,10.42384721245142,0.8863603915689143,-2.9227849861273154,-6.20128058300445,-5.257668252339616,-1.5083544673443,2.1655399859599607,-2.5450881772322678,2.873084668082876
7.614981533438698,13.185336929918066,5.8064815521885125,12.451418037704126,9.18342137262743,10.07020651239055,0.4889120137505698,-4.398146724347121,-8.318150357811838,-8.65833222964205,1.3703500631810437,2.825992513917046,-2.198195950610895,2.0401504964707566
6.374698268277228,13.298906625431512,6.3919430160380655,10.917485468899844,8.124760403629441,8.880309181669896,0.80201910127396,-4.399162785459155,-2.9838003958342187,-1.9944201445411025,2.093511838380616,2.8023184713557234,-1.815017160894008,0.0780551907302875
5.548456055714015,12.877771076661938,6.783325366790633,8.569559552747899,7.6900218749728335,6.646683932625836,0.7552489265188133,-4.979151045740483,-2.8575407145630347,-0.7450382191140895,1.194067159107422,2.999857898614928,2.928080665633489,-1.461916977251426
6.250733580980623,12.964952140584597,6.748524053905719,8.316006989830328,7.91419407991282,5.207892874155067,0.5160660143595545,-5.759288778532304,-3.0590105921359783,-2.227063696344981,0.8370138145441259,3.9745167509713992,12.546479241890257,-1.149080042073304
8.604096005944138,14.125762882108445,6.06636767436629,11.709186477793477,7.221449264998553,6.452770944170906,0.0446836542981711,-6.068939087393417,-2.207935660843627,-2.830182318830879,2.4942924835686098,5.17071929981147,15.177235638706762,1.1530102300821885
11.178126247976266,15.513685216656471,4.603577873382863,16.858287065122678,6.648020445409637,7.751337793816501,-0.8495844337513404,-6.187097285474949,-3.6262966434521298,-4.918894358849953,5.602387897418521,5.387767453345661,11.07243076773804,4.09343855244309
11.798107420688916,15.325305117297727,1.4326933290495285,19.32622031024124,4.181839042824339,5.936089506444879,-1.230981470189684,-5.736366641061229,2.615449170226756,-0.5130291159313937,8.17096262605819,3.9052448365703647,4.067407222305572,5.76133899616732
9.125544528366056,12.324445757328409,-3.6905314545089207,15.645559934480444,0.4021316193522528,1.7460348771320198,-1.1154094482375807,-4.631323947950312,10.318059937754928,10.99723883288291,8.371969550459475,1.0584473685422653,-8.605928335500176,4.934632042375085
3.588182781696542,6.927753857290327,-8.203275440388337,6.432982544122897,-2.143802726267949,-2.6383088528559213,-1.342517075708447,-4.611661313399512,10.929912293408323,9.765656258259218,5.495407304671454,-2.281018035409452,-16.24499832881157,1.6473823032438588
-3.195019290949597,0.7287498365752034,-12.247546992391287,-3.855327358864853,-4.2704193373900425,-4.876202308947394,-1.753871567978872,-5.714613333059945,6.227958137086841,-3.771228125612385,-0.2712850065410332,-5.695245055299552,-18.238593115921077,-3.2411541529314145
-9.890828591581052,-5.068776139759726,-16.544658973847003,-10.518221835954002,-6.328409218765952,-3.307652295048046,-3.251163907403033,-6.1977712272853855,-4.100630622624463,-18.42403796993861,-8.384532078960529,-9.60318752499071,-23.60179511279264,-8.882606978874618
-16.33440641667496,-10.681464659689818,-20.541609864736493,-12.398213241249731,-9.27530805749048,-0.9667886163438176,-6.073297688527772,-6.387486144412867,-14.64504244095685,-38.33555063866839,-17.824941958987637,-14.604028586347937,-30.03668685964861,-14.806513799049013
-22.937786421899165,-17.1256739650457,-21.80488182510067,-12.441460717953872,-12.163326521847106,-0.3714590794550518,-6.5615914217868205,-5.329555122033868,-15.127705008610809,-40.87706961042146,-26.52645213821744,-20.39452888074976,-31.996848274977264,-20.54469081478917
-29.28684663547648,-24.522255126206367,-19.97762472854797,-14.563012276087028,-13.364260646582942,-1.653459047213064,-4.721554875463655,-2.624446350918283,-5.700589158495206,-22.920816285512668,-31.55034645062865,-25.330395951339888,-30.10353743030983,-25.09563700558499
-33.50451443936554,-31.07650323227302,-17.171372630819615,-19.76285455988762,-13.506278581091424,-5.964619468870044,-1.931709928325672,-0.1242862389227704,3.351805024976123,-11.330435940039049,-30.640690197590068,-27.184636934025846,-23.74084449201867,-27.03596514258764
-33.27713498566547,-33.94002701754811,-12.691332647400424,-25.086744606143665,-11.25340922371052,-8.728636734601087,2.6790396848541005,2.461015661587105,10.164051598627832,-0.9250592832381428,-24.132666231702192,-24.636238002013656,-11.53691579659638,-25.407706060130828
-27.799310482997328,-31.38178582214464,-9.227631149536537,-26.32792290090399,-7.66544139605791,-6.585656557465236,4.675870816409478,3.885833418472449,10.486258196735442,2.666003596300291,-15.291695454330377,-18.360320180205782,-4.089639468949333,-20.60828581671158
-18.88430817419556,-24.38113886771272,-7.237270852055169,-21.90723392378184,-5.319826744535953,-2.293744599249964,3.711862058233931,3.685822030143711,3.320595953677402,-5.579559136864432,-8.272412791380201,-10.817723755077743,-1.563128710700145,-14.34458075539612
-10.11103611641176,-16.174131977144505,-3.675208859892877,-14.371704696939496,-3.157180422270053,4.621977985134775,3.546469314193085,3.8842793166256255,0.8552705954095683,-3.4299750463042438,-5.138450322647106,-4.800488085661094,2.242650487364473,-8.544550394373212
-4.566889054602079,-10.065244293879914,0.7880886250672742,-8.239986364035975,-0.9364853854886468,10.828250167683724,3.163856727811255,4.088287905499227,1.1441980976015067,7.196688821962982,-4.512841424198296,-1.7510716637688262,4.96018027237194,-4.152797270479407
-2.951597809639285,-7.3120204467826255,3.548061882154827,-6.252611250712072,-0.1635402716661204,11.327095992274865,3.276464180796053,3.447809354447795,1.1427334407667675,10.720141670394296,-3.1392160799813027,-1.079192989759953,7.408826306329102,-0.8924683704317822
-3.4693083136634044,-6.739752209826079,4.788060015968785,-7.365575946137767,1.1300229625868483,9.881867618504163,4.417713574284969,2.19790569991163,1.6220119244546067,10.452963738536566,0.9981232676780998,-0.955213243868414,10.055673670180294,1.875705911890193
-3.426836508603792,-6.156637778509392,6.58879217617846,-8.044509909035881,4.778642618397887,9.677841484735218,4.3626439850194645,0.0788451498195903,-1.4352102604094843,7.078013383482971,6.817267346303808,0.0860254964771414,12.018695924475509,4.179613635972199
-1.1502467799090432,-4.156830495894525,8.506965155356745,-5.435024518580235,8.011785903994005,10.501827671846298,3.339743555955719,-3.0587533985917426,-5.026642196027945,-1.9073191018672735,11.21167709148822,2.0257107474328286,13.59461773086931,5.425620458608538
3.1889977664227764,-0.844569875106604,10.347819857191402,0.4248107763836302,9.72358382734979,13.017262983158956,2.8816355805192884,-3.985650382338189,-5.396882332108605,-1.213825581096122,11.991333791617205,3.6033073542575664,15.227064134616436,5.355725327909177
8.136404470589557,2.759203858205449,12.43104758167316,6.979428683943002,9.651843334027363,14.877026791131776,2.676301647276438,-2.5167553866930525,-2.945109874473682,9.648995569111095,9.907253894511491,3.659754327245611,16.904799857726566,4.849236563283036
12.088443044837785,5.702598009323522,12.873660860397262,11.371024844296224,7.524163035157826,13.77962472713084,2.8451039119372465,-1.103487620111013,0.1322749027130654,14.57134089204947,7.88784358798901,2.3954229042213626,17.80892615860016,5.514222812393054
14.032411975486026,7.544285825561548,11.589104174586462,12.451879718876135,6.186563441954387,11.648458849648929,3.6633521253169903,1.0070783106160888,1.824041770246717,16.35185593162323,8.282865155691624,1.434083434923263,17.986935359469403,8.287265403555296
13.661674249835212,8.203626983688698,10.859457905803302,11.18082415510333,7.44142458182921,10.664781197337932,3.8429384393448887,2.531140423357664,1.3547158572018176,15.189582526492671,10.783081111057786,2.6045589697685685,18.376248590931663,12.411847640729398
11.30701054185041,7.805387696946259,10.356339025345507,9.53231690349701,9.882191662488433,11.232089596586873,3.4280120099015923,3.0862871772421347,0.0359465729869163,8.201138534790386,12.98235093443159,6.4443893005459785,18.870031717027288,15.917574694006516
8.010521638197131,6.81587077317754,9.634947544986192,9.002131055023183,11.535868810982446,12.100122286844496,2.0079495599536537,4.047640165868661,-0.0947653339520806,9.208573646624451,12.971823086975668,11.659176781815084,18.23189805144573,17.249342865896445
5.456029566877135,6.091933016272996,9.09889115111005,9.69187037432774,11.242007300573317,11.92949889435184,-0.783288504602444,5.012866711452991,1.669381127938009,18.174740120984023,11.377318130200258,15.953319858747518,16.539005430761897,16.510423621795393
5.27806921827136,6.392328379934213,8.682282757405343,10.37177928891028,9.35104992054102,10.02334226951714,-1.4068533162252068,5.111430143534959,3.4209685172326934,19.67283181839979,10.79066541886565,17.526728198315375,15.376265373971268,15.14599447323713
7.918503349423503,7.613227836804324,8.468554509030447,9.435332813056904,7.902351659781921,6.456124671130604,0.1795040047849767,4.392715634707108,2.6234271995863256,15.841461436742897,13.091294524512548,16.09225379982903,14.598808894900973,14.455162038162198
12.000233372664033,8.613205763805913,6.996615660137431,6.259500320155588,7.133500752171855,3.451662970968145,3.377698657300364,3.9238237459592775,-0.2647354183273481,5.604340534300885,17.26467734635408,12.81517329102225,13.118317513091949,14.454104159672458
15.068012921478786,8.094170068255725,4.163727225503748,2.0869181309218163,6.417052222189473,0.8949905085654846,9.126907254061964,3.579860877659069,-4.999761645455705,-14.26215353775841,19.934320699769597,9.483176759242998,11.188635532525064,14.164455881121375
15.35546143800194,5.873079105325493,2.090211720921852,-0.4609287067573326,5.894646612574744,-1.1392104345417764,10.161935021111798,3.5736579292722275,-7.480778694765043,-19.87323943466427,18.26230990772759,7.61577232843282,8.822446138018652,12.878507696581533
13.110758571441009,3.2561999967714303,0.5293795940492997,0.7337255845502462,4.455298043771264,-1.759946925849447,6.104647910234059,4.1577356324908505,-4.495769327653153,-10.812735341335337,12.566134559811657,7.9096916210511665,5.85363704994638,10.97976928977097
10.233923534977794,1.9470053229221984,0.8594767140312792,5.307813761860233,2.997878694595665,-3.3850085840201904,1.7820635909199662,5.103486919434961,0.067822345574033,-1.0451287281423551,6.175864000409785,9.978432519442965,4.750936432501167,9.458626768084684
8.50530070237296,2.3994768082614844,3.672196462768407,10.149956495526936,2.595907344165639,-4.810490600987084,-4.521023596657863,6.585405884065017,5.878633960082421,14.786574843646422,2.590197190904588,12.351022165818025,5.68895231505882,8.700159282172685
8.05174692244292,3.2506408981296424,3.918674129874551,11.45262607801584,2.2439028553381584,-4.9001443699314144,-6.73292143060672,7.02805235184899,8.647467801164254,18.43401875282081,2.5113044296682023,12.977896386940795,4.99735878416159,7.904387462587776
7.479085617757967,2.557728653967912,1.7922595349027,7.617362280717922,1.988030555319934,-5.367725229055278,-3.869179226144401,6.316221532851375,4.8711584667413055,7.172960974411671,3.4582891660336497,10.371106105852276,3.083366766043876,5.827228139768407
5.46862737562671,-0.2069687912811826,-1.862694386608843,0.5644294614564274,1.1790625904554186,-5.542573302466995,-3.406810641791376,3.248215349289128,0.5914039048885382,-0.3417445307768582,2.2630100857065107,4.813823473612345,-0.9953686764534364,2.1399783678330806
2.2246222054676057,-3.340336983022702,-8.239180662566138,-5.741890199782004,-0.0405503684562812,-5.889191687140505,-3.928331547416554,-2.7996190051409444,-4.235491995049227,-8.620189167787773,-1.895648638229931,-1.425624946784001,-8.125957266165031,-1.968344668807356
-0.6301690939512807,-4.223804941349684,-9.984748182655466,-8.277734956809747,-0.1529160731597382,-7.110805167883693,-3.878222057837796,-4.68811315580328,-6.608961530426793,-10.867853380970102,-6.691927190480791,-5.39612303332197,-10.704684042611758,-4.609731916981216
-1.5432467819233595,-1.6961467403576922,-6.777067589367784,-6.863840677927777,0.5130663975282518,-7.35432485444894,-4.341710157508586,-2.3807703267041216,-3.0946425106107256,-3.845857773889054,-8.726509902732692,-5.463293662332509,-8.700653134750043,-4.730793728483972
-0.4192758618532135,2.7185680334349014,-2.296788408456741,-3.53304875094989,1.0460369810372483,-6.517438558653034,-1.9503795600649971,2.994295946473476,0.2952536716356843,0.072953833076944,-6.4912717332550205,-2.389190493945522,-6.064088060598321,-2.9691556111244672
1.3726345967406033,5.975880724979046,5.2702855072439005,-0.3413154585832316,1.1223392842361508,-5.0904228777369775,3.5254384903362337,13.31731206874792,3.875575524415629,3.1622637681151047,-1.5822721482858686,1.4102889220445365,-1.0901451226766428,-1.0781302029541706
2.247912816397049,6.101007815383425,7.730731517711669,2.085984453128777,0.8948998694265389,-3.362063915244597,5.723039496343084,16.59611512680381,5.71522584580071,4.460807525475167,2.712078855890274,3.704734940007107,-1.584839234844008,-0.4907530228239221
1.6499631060594293,3.860994287597226,4.257422758156864,4.060808743225225,1.5094423272557111,-3.21884188757806,5.0142017342039855,12.353666499108272,2.6890590323762598,1.8418897301883703,3.949709861499717,3.768523513445592,-8.486873059367058,-1.3411624262595474
0.2073996963010209,2.0043467497263734,1.1437281054809263,5.41867332348442,4.304489683099633,-2.7024123270038185,4.125775408918272,5.972803072513837,-0.1940764874282955,0.6922872954867644,1.9659888556955492,2.27670516688692,-13.088630924828506,-2.746164244874528
-1.1099148246163786,2.8150588723871053,-3.651035276701001,5.179665179284008,8.532527372212707,-1.2484833916071203,1.7748048063235935,-5.544617158042706,-3.559466388651467,0.1882732635100011,-1.6860033981206506,0.3259389399299479,-17.142200158963874,-3.902020144639153
-1.8551825339578585,6.248736040699395,-4.545355044743966,2.908117857102184,10.557744919211771,-0.8546005141820057,1.8941436535689995,-9.551026695966984,-5.536673276003082,-0.8348398705693202,-5.294811841633766,-1.2705120537397114,-18.390747753857816,-4.804536654825636
-2.1878982209175035,10.25170056554225,-0.3998627840465775,0.1738845355595302,9.007481686407242,0.3510855334251913,4.939519809498776,-4.96532261451135,-2.983942616242837,-1.5523027707929906,-7.99393152188809,-1.991931029224496,-15.199891802441636,-5.885389688107992
-2.30597495020605,12.734586615642405,3.037471990093822,-0.0149947164542965,6.15461894178108,0.6683754753650227,7.263386833947073,0.3782247226487564,0.2991445036217443,-2.1248150620759505,-9.648077842437829,-1.4787196919787746,-14.737070788451796,-7.069397806475152
-2.009214628015769,13.21136659812572,7.297878334391565,4.070668249067786,2.807935786822024,-0.5684665494137603,9.795289316327914,9.702516491869805,5.20705774785539,-2.463396632711196,-10.29605625142664,0.1773760205007803,-16.254921085016775,-7.436505280237014
-0.9316179708562232,12.672140180252285,7.868126034411817,10.495619960554706,0.5206506114973254,-1.1379161172551535,9.427101467813868,11.367826360110534,7.608428607211033,-3.6620537161112336,-9.995055440350974,2.015094905907852,-16.016929564688734,-6.0575727141393685
0.8213566263223839,12.122400591883654,3.5957243240200927,14.381905005021054,0.0595345814625011,-2.7713023540828123,5.366017182063632,3.864560314561055,3.216203751390789,-5.789821237996362,-9.084145809521615,2.4485515155646027,-15.149217535264464,-3.246463733130696
2.3858647874618697,11.448564254430202,-0.7026189820902254,11.760793669295516,-1.7224237423557265,-4.365704014829364,0.8759726475274361,-3.41849129648566,-2.942032641465598,-10.72239176483324,-8.222216174919765,0.3638454794564651,-12.970189391016133,-0.8285255722353924
2.638594321345785,9.716391698455697,-6.385003469630718,3.293840758330873,-5.424541525524456,-5.7801467754987,-4.989035723014749,-13.495327516690343,-11.867326235310175,-18.99523924272872,-7.862833235171053,-3.794364702841648,-8.96860114020377,-0.851032655939747
1.1149929369573783,6.419205803961162,-8.989805867933006,-5.782101753915015,-8.917346174732064,-7.960928832615696,-7.951664271114614,-16.68497514896985,-15.9882975096169,-20.27140491298643,-7.678094375124196,-8.042116803502957,-6.7803139685465466,-3.7386037338045375
-1.5002659686053192,2.2588758373066185,-7.533147737503754,-9.83985216388421,-12.061427572804469,-9.173246294154776,-7.231343292370204,-11.143615554238588,-8.940437117170315,-14.32203769404138,-6.729866259433209,-10.137188922912806,-6.3484468094218895,-7.625574839856085
-3.828567411293008,-1.3712709909873269,-6.601642688643337,-7.567607755523909,-15.265571991673124,-10.896098020676648,-6.732504612783986,-7.874901113317124,-0.6460956370156217,-4.999030242593601,-4.455354013923412,-9.117603992117154,-4.159232624842289,-9.64671600115946
-4.867607448460333,-3.6550960488474686,-4.916196292988424,-2.90022594505433,-17.9261446647992,-12.754285445989265,-5.254566857523868,-4.380715512292578,10.193784855918643,10.308976547837236,-1.530894488969743,-5.870560965493212,-0.8157508249362023,-8.171184996412237
-4.770120789006654,-5.092538648762215,-4.884256067293748,-1.335859348673111,-20.989017025465543,-13.910324210262726,-5.4649425658352735,-3.890886476064414,16.59260604437621,15.754303471745231,0.4257758417870718,-2.3794562488365187,2.376522633086944,-4.062475409524716
-4.657812869636288,-6.993975588714562,-7.26648092050981,-5.110998451704347,-25.07966408326459,-16.194065820431774,-8.013667433658052,-8.317406227130604,11.19009544421344,10.12423396043411,0.2727600224164206,-0.3671487074088873,5.9283125681393365,0.0809803778831792
-5.643410879689995,-10.227378962801367,-9.581573046359892,-11.65356906149033,-28.83158163863357,-19.30550786797448,-10.692451054434422,-9.316062450010763,6.949143002773382,5.441449237019441,-1.4099265194980717,-0.3780957899705015,8.338743323997447,1.950857226487173
-7.917893252833522,-14.378788084341508,-12.624975006584013,-16.43843595272898,-32.58074961038274,-23.029922800933683,-14.338337984233528,-7.9102587051394515,2.538095318188185,-2.077072944757245,-2.601907175744813,-1.807246413234168,9.350375665191194,1.0555429475578677
-10.675427264499774,-18.04972038533437,-14.39876987163887,-17.181939939236877,-34.574041636108994,-25.665757605253727,-16.127390756955013,-7.843287589460454,-1.8253846370519844,-6.897376640098444,-1.624712814396517,-3.608970284635831,8.664656251109648,-1.378667839787724
-12.883030289615192,-19.970037141793284,-14.489378356616232,-15.359003152706435,-33.92566823788578,-25.725552291255976,-15.65628772999313,-7.829568273683128,-0.699197957487587,-7.288018241612975,1.15500086882831,-5.054195331048575,5.706172859483727,-3.740852666088841
-14.160035134572569,-19.941826055519563,-13.59251711229529,-14.021593160973524,-32.76399673116605,-24.027843895033737,-14.597175405198035,-9.27948885121071,-2.0644122288435853,-12.596445813044404,3.39773438364162,-6.075709273029844,1.868166111213514,-5.286491484375347
-14.970189986564776,-18.86908654622343,-11.019623727609964,-14.57910546991073,-30.097680089891373,-21.18664861112327,-12.137867474696511,-12.702965085061892,-5.739581978161082,-21.41774851481107,2.729995281516551,-7.133828649407519,-3.129788965221743,-6.360955398625592
-15.973710138108572,-17.953713000919308,-9.017643245703724,-15.84465120464172,-25.95526433933105,-18.786597034965403,-10.516090499608836,-13.128327075063808,-6.130694936302895,-23.169269622811505,-1.182942998394097,-8.799009860090536,-5.670254185042571,-7.707221888993388
-17.158889515246685,-17.77568981984794,-7.60143484287766,-15.909030295566268,-20.50055448437732,-16.84436433749882,-9.94983831662437,-10.671464306405989,-4.983571203164684,-18.50496695677202,-6.348058963555872,-11.291569720621723,-5.176153867490342,-9.63226393341587
-17.58876747364981,-17.944285623986246,-7.012138177644888,-14.412374693874796,-13.604881165074037,-15.038379274124368,-8.195244516431844,-9.098167987216248,-3.957253811687516,-11.940793313323075,-10.142922460735562,-14.176971569209869,-5.858734220612309,-11.650422579419695
-16.070972829618825,-17.471078649486138,-7.882171961462143,-12.670249186397086,-5.347079008751997,-12.184942131993742,-5.736522173148238,-7.489884429405955,-1.931546574654026,-1.2790032955492208,-11.304972287265912,-16.394033407580935,-6.819696255130458,-12.692030321324296
-12.236370457919875,-15.50153534950138,-6.6528668999362175,-11.732204070158303,0.7450323561903135,-8.623414630232372,-3.480825934779884,-6.780601362955705,-1.461414594853258,2.345198491200483,-10.379076001440453,-16.721927345674366,-6.728335081061041,-11.657669481939976
-7.094679403226536,-11.906965718898562,-3.386993092752627,-10.788124190964789,3.207401442962333,-5.858035477609278,-1.1777881723516406,-7.605096057291992,-2.379408409780579,-2.258774558585042,-8.50970352169881,-14.549340575379134,-6.091050255089836,-8.091538914587247
-2.5113017570642526,-7.4196320240850895,1.728500320808576,-7.8756236366778225,7.277611684078881,-1.720882307104583,0.4941323552568031,-5.754403750665938,0.7604848933957585,-1.2402475859522883,-6.1637342426729305,-10.479614443331457,-3.209840619168008,-2.730923511567738
0.0583798225384626,-3.261023050783706,9.608523801994204,-2.2069199026492043,11.09453343063034,2.3515379889203096,1.3309494862332434,-1.3772737539643518,6.906322804584456,3.122469076023931,-3.225091917451593,-6.223747085640937,2.216153107529946,2.446100500711431
0.576435943337998,-0.4515057470800627,12.989710501737829,4.443063716074398,13.90536828798279,5.270123162640418,2.110636587497144,1.2126131156405593,10.725424436320925,6.780302392616438,-0.1389970728910299,-3.651781228186629,5.068599967962182,5.0055869015471615
0.3430877253397995,0.8084958382392315,11.590864204550476,8.940902113876113,17.4322818259922,8.509281148847252,2.617981095261195,2.638812407696286,9.449691958492124,11.85068796311817,1.5717595239589812,-3.55835992084463,5.445647195931329,3.509950690925024
0.9157338685066064,1.2464924274588896,9.731234099111967,9.543150655105372,19.890147249561483,11.452516504951756,3.2248452723311987,1.343445337892364,2.1854597525311403,8.812527571425848,0.4715985124916173,-5.0393278096875065,5.086697706021877,-1.2137027066134678
2.967653355464762,1.9625271204934336,5.69803292201137,7.495430913070287,21.904076429506347,14.726141152886308,4.055783944974458,-3.6960541488956618,-9.807467257019688,-3.348077022417228,-2.873136673631876,-5.980359325548822,2.803710086221915,-6.044288564599462
6.035173823754164,3.5962181382121905,6.23270365533367,5.896344126566568,24.08110597681966,18.060654440805404,5.614139439895936,-3.650479035759143,-16.871685426373134,-6.695872900699193,-5.335603929462096,-4.326626294842392,4.475139396666417,-7.147225616623146
9.23621904669146,5.922015494340499,12.251925257288327,6.93681179557468,26.22461197692929,20.74090660597781,8.117254372924206,1.3971027611056586,-13.000349377337429,-2.538524896001117,-3.111063414639233,0.7273304202929474,10.52131138355924,-2.3426505674407565
12.134836770157577,8.23393925266307,16.773230726154093,10.158520568309886,26.33530639600306,22.6006816077422,10.68794190779171,9.548693306737889,-2.803344188597575,6.215684582836574,5.206111055283888,8.308199303865756,17.937568210735897,7.316717263284243
14.870262475939988,10.107341353378464,21.41449018526268,13.258541450871832,24.9232231879902,22.92757874512165,13.506905125173375,22.9931856697013,10.057166900613302,23.510019050925184,16.958564114739964,16.279934057925082,28.250002269978488,17.943528767571895
17.50377622002366,11.713919018935226,21.285371068960224,14.421304267635875,23.5004988513445,22.35213259517912,14.373148153894542,27.82215407900101,16.618068601039095,28.110496218125537,26.788268640635,22.164064390085915,30.31539597093021,25.026447397938878
19.39221188464963,13.344895067345014,14.887170230243266,13.790423422896712,20.659161960774853,21.49245837209971,12.926920492500209,23.31572508291936,11.519627417059226,19.203833299090988,30.127458591891628,24.16479183154105,23.032963267959417,25.997317569358422
19.38674407691638,14.711047409154853,9.64554060631558,12.794214205508046,17.042598854074264,20.304162473810116,10.671516897610536,16.682879305705466,2.508760122973713,12.155316694754688,26.133719380872503,21.95515776459061,15.33888684959151,21.46467667005276
16.79123659695912,14.906771496465048,4.171588374452967,12.33324482788584,12.228897535794273,18.91274484539222,6.946910970709772,4.451181517167998,-4.589888400743455,2.3029352949134623,17.870847773054535,16.865032780012893,4.467070989770133,14.420838480413517
12.185929705027805,13.212455132770296,0.446431519921682,11.891943182072945,8.253985026002233,18.31109457469717,4.93733718625206,-0.8793283790867326,-6.634743058014963,-0.1282055413586212,9.800361835441237,11.221465083574005,-1.0143250589421728,8.15047521605348
7.271426395507042,9.923320305614917,-0.1024390248202594,10.42678371773141,6.894227883443585,17.688759799106563,4.999598268291505,1.9882550844695,-2.456797644452616,7.53165016972138,4.716299879750949,7.056507728636227,0.6571033818888018,4.339930674003057
3.759979872840418,6.268306167555458,-3.4142203108142604,7.843066449411779,5.735784635498876,16.31958243496218,4.83386894704516,3.175606937139281,1.609103979435695,7.865496312010055,2.448300043176601,4.961829699733663,-2.398256470244161,2.5334394865143466
2.2001231899561877,3.425178356076892,-8.793816782805889,5.265761225956801,5.505326979324663,15.66926344467677,5.270487340898804,5.7550763244805365,0.0830208798909883,3.259320941470569,0.9941068067476522,3.931542328089961,-8.119888010382201,1.0349490695447514
1.6865045302395885,1.6125428807963402,-10.454853219549667,3.7594558482969376,5.329627833415861,15.619021312343596,5.220215320250879,5.982660658601415,-3.029823110619672,-0.1821707630710783,-1.2384639525433982,2.351240848339856,-10.409242107063724,-1.5557063895619905
0.6658812995487864,0.1573786865465081,-9.006971887246078,2.982733241848024,4.394503694244033,16.083085969520578,4.415275694727269,2.5117080819613733,-4.42136770241351,-5.236566617135308,-4.056080403056569,-0.6100514727351509,-10.717363016679387,-5.22347231683662
-1.8178074888307376,-1.608625705627162,-6.471717289234205,1.3881066344452933,3.625017283297793,15.116502656938048,3.76048732715877,1.2726488434545076,-4.457465248512548,-4.630133249412392,-5.922913713640924,-4.261452682918517,-6.717296096437143,-8.500191308139264
-5.387318490964333,-3.6088765746596474,-1.7484540301813365,-2.130805279662866,3.153002749130562,11.663599092762407,2.928670292991093,1.1981251199718777,0.6383008518315247,2.6252383815363465,-5.5432676860355485,-6.82737255292497,2.8097600073862656,-9.49331466891988
-8.605732048672579,-5.15587180746202,-0.9999437078093136,-6.864870914239731,2.2881360403778888,7.968944963984502,1.8230815993722764,1.8932029049639991,5.510016267035636,4.853421586949041,-3.094438128791225,-6.703205471280697,5.331628112671905,-7.327163348117878
-10.00043575298433,-5.689829663558768,-4.828362660797142,-10.644572020653245,0.4155689490372583,5.808746174952158,0.488858791980638,4.311417525767687,4.622409630770051,3.330351904904094,-0.1522837775789014,-3.647804930305796,0.839985665816016,-3.017631569463731
-9.0897327601526,-5.282269188029048,-5.827814715777729,-11.583743993111156,-0.0436204982661571,7.665711619988966,-0.8190470937046612,5.631572872887815,2.724673432789273,-0.8696003633816177,1.4450291393759045,0.8588198074226909,-3.933934886821062,0.9421178968944446
-6.738417768484084,-4.471296399667622,-5.258917259062391,-9.523595089812275,-0.1023889746907245,12.38964742484054,-2.0908596330981486,5.947141143920713,-1.841094063621615,-10.140590037409153,0.782707708431019,4.338373630490935,-11.76418572244724,2.152295828029594
-4.650911764907932,-3.770026768053981,-4.354728836840369,-5.947543108221865,-1.0621236286160145,15.33850810910793,-2.427109394395992,5.340334018685184,-5.5765369614164975,-11.8691288573775,-1.7215533848613518,4.7450915535936815,-13.567201926743673,-0.0358880288945044
-4.327555963031017,-3.4135289488910985,-1.9097443045844973,-2.699388285466796,-1.813252903853212,14.065557228388435,-1.6559867123247145,3.124776927805009,-3.2167854133067952,-5.762050199481226,-4.751651196918061,1.7826017574860489,-8.100819429120202,-4.046666131907159
-6.086583300576933,-3.438046602600622,-2.2232268214716377,-0.7801639918671412,-3.556492738198598,9.1551927922689,-0.3924321537975751,1.7000637637461238,0.1034491985198792,3.0898807230669187,-6.857258512941229,-2.761505739417032,-2.986648942089098,-7.19552247614817
-8.726964026489838,-3.7437138986479113,-5.454318352725132,-0.0668447045240441,-5.498463191240019,3.970190049124552,1.6512089167497104,0.94910570278485,4.339406260082576,17.760788311185674,-7.042825828516811,-6.010326231370499,4.121724883154144,-7.5177899024971
-10.120578615544304,-3.96076970483233,-6.135741968779868,0.1943997546387663,-6.041715398217685,1.3849226029493291,1.916091809444714,-0.4153787993494819,6.658040836459978,22.51365952942589,-5.050728243116623,-5.778782789555351,6.270247325738254,-4.900886156618611
-8.534047435712523,-3.4214340658271,-4.947008827829705,0.7056732766208142,-5.625643108164787,2.3941231124905133,0.1381574127496557,-1.9505934091454529,2.8777120498094977,16.066262237646576,-1.4670751199065537,-1.9618205019366144,1.9988486727479904,-0.8144335355544854
-3.936945079555073,-1.5836446185494424,-1.7189932745156271,1.6111008019406086,-4.882701549888929,6.045244642294479,-1.944356400334933,-3.418418187180403,-0.8257955477365405,9.30580194785437,2.3173371799275917,3.436105594687916,-1.353121283034138,2.8451391950071354
1.657433671280813,1.3142904407859533,4.705703279245557,2.3141758908449503,-4.006078557577545,7.960974193418,-5.008258093105033,-4.908573392936325,-4.194555379143991,-1.6549116464776048,4.481001120410696,7.62111015004885,-5.707252552060163,4.7378077254299455
5.2960000434432,4.083690628561698,6.884095051898444,1.8028910416716144,-3.3596680868642235,5.77724772780999,-5.975653459068484,-5.097602780939893,-5.866232951270333,-6.732979886213292,3.613300346000045,8.713063347801608,-6.540378437155168,4.361460159639847
5.063220226296124,5.315552507947416,4.726389025306126,-0.4822012911329238,-3.4561636633633404,0.7640887611931368,-4.439898228283689,-3.813234075459294,-2.8168037344725394,-4.1101062088085545,-0.2911677764534488,6.695724841966779,-2.4896165665486323,1.938350839983116
1.5304182738674117,4.513959976422598,1.3275730884982997,-3.7736849492078193,-3.661380221986893,-6.839823650270603,-2.9697482638650388,-4.2875588243655125,-1.0413285899145284,-5.464758593745636,-5.426984643259118,3.145443764283101,-0.3203146927895689,-1.6116015017912275
-2.5032841520260263,2.596188605536412,-5.081262424231922,-6.016947394489023,-3.977626087783994,-13.69568515129362,-0.764746054422582,-6.387594521211586,-0.1997284061478992,-8.310168742253081,-8.949924622398754,0.1276824984553002,1.22987651733865,-4.678439940816872
-3.88946548035176,1.222777002161564,-6.194988585381331,-5.1769598146226485,-4.5161484630164,-15.712007193038982,0.1152075357445345,-7.388089050056223,0.3678917990112819,-10.153571674078243,-8.677434746329396,-0.9456792320784188,1.9883783810919848,-5.434428637213784
-1.2546190718357764,1.5206651288779651,-1.302871345953306,-0.9331310556794392,-3.6234635925964582,-15.01395671304831,-0.78782396954725,-7.832121957398946,-0.7892670476264677,-12.515015461725222,-4.585423769774536,0.1040971203994161,0.8208064066782906,-2.880798650907394
4.173258856033783,3.336055291897651,3.6646460066252495,4.741458344762549,-1.969715507743168,-13.1244903051864,-1.1056799236225665,-5.988567893125753,-0.6846187549236189,-11.098561095774803,1.0866300233335269,2.353502613557964,1.573981392317873,2.2255970334150845
9.522832197042362,5.608704666189766,10.752663214316456,8.794028266303627,-0.105856771748904,-11.27082797715328,-1.397244360079584,-1.2177836638770618,-0.0945233532922525,-5.514755672498707,5.313232444827037,4.397215492312313,4.006504674637108,7.5148412708923615
12.200383668775544,7.376937745730061,13.281189506426324,9.202931184182972,1.677688901632226,-11.918878170347268,-1.0198518625846875,0.7219398610178971,1.020079403675219,-1.4700069569488676,6.260857162623893,5.084082022743502,5.194139424614241,10.410745403509452
11.44307326266727,8.413769059615746,10.096839553198716,6.309062030718337,1.0775547402148389,-13.347715889124451,0.4176595821106267,0.0637093793589754,3.3027533786222434,1.8065338279519652,4.281405064268142,4.029440382875549,5.725969118980146,9.870344516040944
8.63223447316598,9.01677797865733,7.779525417446523,2.4250634317205453,-0.0280235788799058,-14.790343334998152,1.5581822001107843,-1.0860020254638456,4.949185859649473,5.191090568543082,1.2940164137029768,1.7150720664301249,5.837542058280001,7.105439964304424
6.305805720855915,9.382090051479494,4.567478168471025,0.2056159189001221,-0.392555120013715,-15.497118736782731,2.639829706208645,-3.964556190176941,7.598667743811891,7.629418739255573,-0.743873687832405,-0.8152576148638389,5.057036033666212,4.665405487715802
6.447591358000295,9.305564285134691,2.877759574447716,1.036684548535959,-0.5255737886449194,-14.94915824602501,2.6227557934326557,-5.438434819512778,7.761977621251932,7.297302945164253,-0.9897240132603145,-2.5061972122389733,4.440287736256283,4.534322725848554
8.991556514615368,8.435692438492609,3.748525154891591,4.372637164198807,0.617299115455249,-14.633800076787422,1.1727368811331862,-5.288723897414275,3.198376365837676,3.687149785240337,0.1880227802448502,-2.85713077605962,3.920104894106943,6.64691850601146
11.553244664514828,6.643926120227505,3.1904546111978083,8.158600033343099,2.296500161871776,-12.963075764804318,-0.4466812282215453,-5.634017161281292,-0.5631560390926639,-2.616287848413531,1.8028557110775552,-2.2512589784286448,2.0973125168226168,8.900457022562485
10.893559623453928,4.055679854161173,1.982528964177674,9.965843565727424,2.800686050852334,-11.28346257125862,-2.577027074763062,-5.744759854169349,-6.763914336775996,-12.402934990771325,2.7647745817019,-1.8198054453725163,-0.9357236130124404,8.647059128988502
5.429685217989528,0.8410882767788213,0.7837418805639321,8.316311557834567,2.227741683431005,-11.164892254655888,-3.9043521044470655,-5.810607128396365,-10.587564506533012,-16.80953245129746,2.071337988517559,-2.777463071987958,-3.104709729033045,4.6174712806582825
-3.032278311476729,-2.7809562833363386,-0.9659852172140534,3.5922088343592096,2.1535382191066117,-10.94432423003075,-4.148846858047171,-6.019685616109208,-7.146264600976973,-15.233480572932754,-0.9242434342824974,-5.510872326811324,-4.539345299191359,-2.048338993052165
-10.030185425382909,-6.218882397523895,-2.4770543313973654,-2.063326078530004,0.4591434203292661,-11.848794063322966,-4.829162493169417,-6.892318947467128,-6.126916956265351,-11.047344490567394,-5.88188748717598,-9.038020143759145,-5.943243576344776,-8.376095934105209
-11.51938332280912,-8.366163417226865,-3.766786168552681,-6.009156725151833,-1.4060920645854966,-12.83350795208157,-5.588869887529354,-8.609042961977412,-3.605491096615562,-1.802690539361001,-10.973026405841608,-11.395004125318522,-6.876223791317547,-11.379388016760744
-7.013992839189029,-8.148471586483524,-3.921559478331408,-6.825408928880776,-0.6697285187215002,-11.903971194742468,-5.09361786749695,-7.906410306523223,0.0752392915963345,3.422523433113586,-13.413790127106225,-10.893692667828702,-7.089824483688647,-9.942949772462484
-0.1062292639853552,-5.490580811885977,-2.661307964896866,-5.2074271037000415,-0.3466891482959565,-10.273089010622042,-3.416244342293961,-4.706202165883211,-0.1243791205375473,4.1712332781885735,-11.206337328946232,-7.422544953255596,-6.510916903065352,-5.529724904612181
4.27911984193085,-1.735133540402046,-1.5858220866020112,-3.222113789941119,1.0329704111008795,-7.663229012763301,-1.052415292705696,0.2342164844502144,3.0266503604724173,4.778139961242061,-4.919519300103332,-2.732778569170506,-4.657986948505856,-1.24243640218711
3.694511962468539,1.133294160951209,-0.4443504978883118,-2.466068265243308,3.123105515476569,-4.496672248890948,2.296303223308985,7.789360377695987,7.083235125380798,2.992865623521795,2.185060506873725,0.6759062176203372,-1.3497636245080082,0.1518103823323144
-0.1624560349075352,1.9475169105016332,-0.37045727637101,-2.7201952087542907,3.2353208828870725,-2.2904950721717032,3.970630076893322,10.95165152946738,7.185104859018333,2.3766434943769443,6.23595664172916,1.331018900442757,0.7623310243493412,-2.047301184685409
-3.2558530860473525,1.2039053048428627,-1.7740448987568618,-2.336017797653369,3.792079939334553,-0.8984379907560556,3.724546669910348,9.289532998820617,5.400779656182052,3.208451092130202,5.621266581176542,-0.1375171167049984,1.647309016895345,-6.08399488202258
-2.750166601638228,0.5055461366622467,-1.669543208180955,0.0023139044328104,5.126611132194659,-0.4714647180934949,3.735299070221103,7.844584225534676,1.712081289656744,2.125565348035744,2.271350839519471,-1.5018954928300443,2.05618966494904,-8.913911439249148
0.8814643962708715,1.131214367521011,-0.2901209567828096,3.8421648082951942,6.922984983540008,-0.4845635582013472,3.3538554611665785,4.962563584501314,-3.1900064661482936,-0.1627869603424037,0.130561687313218,-0.64114086442288,1.3125933810045805,-8.153997816777064
4.835313047519264,3.0249167645787907,0.6806042659663527,7.273356284263173,8.462159422091995,-0.1928818858383707,3.4649699831270646,5.096077001776072,-4.742026055624507,-0.0972290277628165,1.9620357921945129,2.9067166656414543,0.5272784270016245,-3.582203761875803
6.782735057750244,4.977976337219445,1.7556511726561113,8.685248627855572,7.926800588150882,1.0133602753035078,4.389460702512832,9.155467638330894,-2.5428050499463737,2.161903956875153,7.103943067300975,7.729124974162062,-0.3617724942474899,2.723507667663569
6.712604279077596,5.635391082619663,1.9724234833914451,8.198166175155507,6.943040537066298,3.5005452940345343,5.571577921092399,11.862837151520257,-0.3153154757195112,6.499157611830033,12.016568228815911,11.672457208445394,-0.9584373345197384,7.655600978125335
6.234899923411035,4.398730885650821,1.0410543101945684,7.316403591698872,5.311849706491535,5.868773563506549,7.355616936460494,14.368031360044666,1.45190537232733,13.843071318440522,13.110680515789795,13.233238901430925,-0.9765974886627992,8.943887232191969
6.386099396509849,1.6844294487299294,0.5329758615955238,7.190852414150754,3.16059449570073,6.660397380293318,7.254244581317148,13.68929195836301,1.5048209081893826,15.64977190948294,9.50943562273494,12.091774691104431,-0.4269560904175599,6.464601313538765
6.372147396764149,-1.3591771939826458,0.1979813642604107,7.347761587619743,2.460867148618094,4.806836740220709,5.066537944284234,8.73567987634664,-0.3769456637101571,11.529614882791275,3.5969284686889296,8.683065901861482,0.96092074254578,2.2047117891805783
4.540804040019793,-3.397032399472778,-0.4129976757982898,6.256111050961295,0.4402077759405385,1.614467788904923,1.1425572915796498,3.673617070780636,-1.2442285065055505,7.306192016736506,-0.8694175258287942,3.6587027300013233,2.8782056757088217,-1.0487533106612543
0.4690406056171241,-3.588104138488461,-1.061062910455875,3.129013101804844,-2.7061012952315435,-1.3887610274662827,-5.278703072041019,-2.4744311958754603,-0.8707763832188866,1.0008520574588269,-1.4083091935727907,-2.0292986305722707,5.457504748244742,-1.4208039927491427
-4.122422460314283,-2.20401642751142,-1.1538972236005651,-1.0038494485769434,-3.78988921718529,-2.4595488651153388,-7.228185012216216,-4.170500656528508,-0.1329915745576929,-1.8025104820391895,1.7990023672938378,-6.722629234169744,8.04719184050842,1.0400619900831316
-6.687273298772652,-0.6892332358706881,-0.6318599061166448,-4.159228625771334,-4.156095048454569,-0.3336055815528563,-4.333547813495023,-0.2826017143532964,0.7214508558651277,-0.0406621796294145,6.550742870361887,-8.31474203297455,10.58156491165282,4.64781182151637
-6.141038063795577,-0.7773502047431293,-0.1111776216219615,-5.321101040101439,-4.995093629474466,0.7710161456888052,-0.3183527618694088,3.289354248027817,0.7414523743970054,-0.0927973228362639,10.430821768330247,-5.565686617437223,11.131561490721555,7.363869388687704
-3.8430832581547065,-3.0857826172345995,0.5560093209449761,-5.37490425002602,-5.306570642308202,0.3387450653717173,6.567941908259978,8.093427729380224,1.0358012877241267,-0.5325598372953818,12.235264613709887,0.4878050408375429,9.284313615428708,8.120593613931192
-2.3094081383301277,-6.372762624665711,0.0771371846252161,-6.047829638325993,-5.895812074369957,-0.385497602592046,8.437818559599513,8.619900586220751,1.7743387806362514,-0.3475149700954302,12.094209003897731,6.558529696645564,5.75807469106963,7.264522303484
-2.941162597547418,-8.328665238568647,-1.7667634646910535,-7.9754147223059135,-6.966910556050479,-2.581990952324501,4.449587066323357,3.5803167022335964,1.4031416920234805,-0.3619104840758832,10.574380588251415,9.033037651678342,-0.1532751095954557,5.9032691084814815
-4.949785879001865,-7.416870974533708,-3.343858196736118,-9.94154909064207,-5.0758370632835055,-2.618114186227644,0.1534207006762824,-1.1504244611837446,-0.4399545989403985,-2.3808515149630183,7.811173844650966,6.455261254284096,-4.192250287732871,4.787183652931162
-6.37557088692148,-4.1842431152250015,-4.967132248591209,-10.090417495421493,-1.703497667661773,-1.050649842947341,-6.493217241464246,-7.178022004330567,-5.334739359457174,-6.710397061213411,3.517533570391265,0.5360155467332106,-6.140697737404957,3.6964818287816
-6.033382398757851,-0.8446362821138678,-5.308259440549418,-7.842169464869698,-0.5055095911454369,-0.4979669022661545,-8.78115636865209,-9.882297052432508,-9.544564857202875,-9.23329878615859,-2.189539421400582,-5.153636197185904,-6.745239200052588,1.84440557620286
-4.463157028238243,0.4979743108502816,-3.960977843753733,-4.542735148250358,-0.5644434355423923,0.5606445547645459,-5.665325327085669,-8.113447490780974,-8.181315616563218,-10.244990203917537,-8.025427181347595,-7.685948629074801,-4.795560162182284,-1.1024301953609663
-3.129800441813586,-0.5841879819015503,-2.660140858603899,-2.2178167597226093,-2.720194475913916,0.1465272443946577,-2.171801247126945,-5.798141022198572,-2.775267807835254,-4.728118566850959,-11.762668944433244,-6.490743307393814,-4.523344510232663,-4.382832519135263
-2.874098440232956,-2.743624512957126,-0.9941040637818472,-1.7155328127737448,-5.842343717908,-0.3841309343365165,3.5676579616937247,-1.4615996862888283,6.539800733028285,8.807043006924806,-11.54769817790816,-3.198491591575589,-5.8734515955922015,-6.5689837102974025
-3.1906399565697257,-4.08310386373762,0.4824544691850684,-2.057395048934609,-6.382781142304086,1.6063901531268392,5.753937495245795,1.2736624065182245,13.249914168724336,13.683806549681876,-7.368539082249072,-0.1469142127169789,-4.531011087849304,-6.746683026271512
-2.8999239963595755,-3.5146023569640192,1.4788685438158582,-1.5426356209762844,-4.667331630402747,4.044926011460102,3.492721325577787,1.8264252191496777,10.990007297557614,10.43021492224442,-1.397721543212242,1.1046494272942482,-1.152747499493715,-5.3396530714290975
-1.3859067977754194,-1.2519331581124788,2.5471984806732286,0.5401698730422595,-2.383986009587507,7.831782832817051,1.5418052292678517,2.0144540478654736,4.867925501485145,4.0113334778533805,3.272518004645349,0.3651742582171664,2.6964267874016823,-3.73046612183532
0.8265154431479687,1.6050272397453682,3.4417100422694227,3.203957245589436,-0.4498145386499649,12.097383622025886,-1.661219461365267,0.7442370550106431,-1.8929652417643152,-9.373825743401673,4.635071565949147,-1.4688147449778626,7.694754870889554,-2.996160007960839
2.568452979710969,3.7931455558413054,3.7758062933749534,4.61997990898351,-0.1021911191362316,13.20372014257904,-2.880964101799145,-0.6019404816348789,-5.681896791930413,-13.44042407043903,2.9351114862714667,-3.084845429769871,7.726117785312286,-3.010531429145203
2.981061569653207,4.440013712903692,3.5111561223514247,3.693206963701641,-1.6567340891384703,12.564915263888972,-1.3809552453090856,-2.021888781301331,-3.3799832239906262,-7.261907802815338,0.0900478844466761,-3.4462964252521715,2.078262963501932,-2.83836396234733
2.062676486314785,3.395590526870365,3.6255273773605303,1.0124771778553168,-3.0308366888545173,12.01939218037736,-1.3366254432244635,-2.856236810374193,-0.0508919212471925,-5.927893447445753,-2.0378471682063264,-2.309624759256621,-1.4481355615172968,-1.9927901448643297
0.5121487830530214,1.381989736012201,4.077866398935522,-1.5148924377220965,-3.677061736540031,10.78786742744118,-1.921305771832343,-2.698110808111392,-1.0352596531657328,-6.066247971478044,-2.957626789144001,-0.3538419536479296,-4.142176054185221,-1.1462111270568585
-0.7886966573615837,-0.2148048739663863,4.071118393418349,-1.98291495028036,-4.021087688619454,9.789916946374046,-2.379217894049148,-3.026480845123304,-3.7009632111606616,-7.16948192457486,-3.40980397259068,1.251919224090102,-5.607161433905158,-1.415750345918923
-1.2073235686534645,-0.0778543047651965,3.772557924046832,0.1965258024712284,-3.4557838018541407,9.15881181517997,-3.299405923933217,-3.5763164373940914,-4.812525139858107,-11.455688580172076,-4.187990527410477,1.6638194001593547,-4.380312352589386,-2.924309558026323
-0.5813311323658468,2.0830600748968777,3.5224455609023217,3.829069892846519,-3.016014170966764,7.114205450723014,-2.5257452562266582,-4.688267332778742,-4.070035905294067,-7.054998698492828,-5.270169431204465,0.9660495905384892,-5.794043050278424,-4.282121400885671
0.6825621029421995,5.103890880253914,3.2255570281555737,6.603823031298589,-2.923151983930614,4.459969568600567,0.0779465512933019,-6.64272457381579,2.8374377231081507,6.28690798182503,-6.10546430399404,0.0086777661757651,-9.510887264371874,-3.802048249313657
1.657983227526131,7.000797757469229,1.7916258973686183,6.501897772468851,-2.7235096668105903,3.3696732415573223,0.8080725647305391,-7.043878478831136,9.346131262740004,11.861393879094416,-6.5689199708850765,-0.4488040848805212,-10.861930509210612,-1.4025118101586145
1.2710120554760351,6.316937876362658,-0.8426622721530169,3.0808349646968622,-3.596838596458515,2.864407880666876,-0.0607101081666044,-5.88848208446319,7.768054964386321,11.323921802334244,-7.384288433171434,-0.5505739006261479,-10.603836013060732,0.7862706560472361
-1.017781386161431,3.114607341162923,-5.702116083770183,-2.243229570517258,-4.836239117036628,1.842935678035541,-1.5155689161878494,-5.3915758388927335,3.363361390291152,5.375042830489466,-9.449550303172884,-1.343817272525598,-10.35972463192464,0.0077449381155929
-4.661183844442292,-1.2041941240110248,-13.238787675665517,-7.173321765498571,-6.157240845164686,0.9417946595133948,-4.329072007346048,-5.119614623933457,-4.867959266731911,-9.647977226144404,-12.738633412117537,-3.888862954727273,-9.401963349920768,-4.584762425966147
-8.182611247420056,-5.0155505090176575,-16.546693698089133,-10.078346232533107,-7.639605947686451,-0.232841512374004,-5.544803007822516,-5.328924119211485,-10.929049750146833,-14.958286661197745,-15.94883944653688,-8.206903864958491,-8.633495548239887,-10.759939300601047
-10.137664255953297,-7.492347075967984,-15.463423830675085,-10.903898055300203,-7.562693118203311,-0.8762426831063287,-5.002102431988489,-6.420314226771732,-7.371277338020676,-10.438284039184532,-17.31797691723756,-12.959963142551343,-8.222743558656463,-14.624179708260556
-10.19902619752628,-8.738973178287722,-13.134550436147611,-10.75066634833746,-7.323391551613652,-0.4634936544039165,-5.758232297156606,-6.210463712231211,-1.850456756911208,-5.80366551842382,-15.88121792040532,-16.147076693857898,-6.443011267538417,-13.551599549275906
-9.397452047685944,-9.231625036050232,-7.873264151076841,-10.613479952566792,-7.47942742860508,-0.0593049225956572,-7.241819078047922,-4.755251766321732,3.901259051114976,3.1182388071854525,-12.068310671477036,-16.28428933869688,-3.432641106990012,-8.20370015650218
-9.173554787993275,-9.34255716396057,-5.289540165089607,-10.52444422254736,-6.603909097507335,0.0302366652173845,-7.925017727739395,-3.5507125092738,6.907223616323898,4.7769741199252325,-7.246353426915988,-13.22617632248214,-0.9030647658757956,-1.985117006762984
-9.975165373343518,-9.34004115366188,-5.874381309709359,-9.861978962846624,-5.7820808891569015,-0.1882941868439464,-8.175583171160191,-2.188206345864037,3.2469171316461947,-2.358684379511365,-2.777585269464076,-8.16301605242927,1.3676536495214195,1.5680374328739894
-10.663785514181972,-9.497997551851428,-5.146427245906935,-8.344844356497532,-5.77752619585404,-0.4750744960065177,-6.723087319466936,-1.2773775087788448,-0.7170064780125698,-6.7268326509987455,0.5741621607776217,-2.9502460789382505,4.868461946640764,1.3290063573385869
-9.38105041773858,-9.846323943093294,-4.421765466066193,-6.541207524496244,-5.16497849630873,0.1268293200747826,-3.1913023918987355,-1.0704771949840428,-2.6239443987752216,-11.061373535826482,2.6083313603016443,0.7601825749283506,9.392373799104526,-0.8960064552410376
-5.225186638075449,-9.775154950158374,-2.4271178195930907,-5.323382826647581,-3.6201154750751674,1.841832512861901,-0.6802413568957992,0.0614774418152597,-1.979345292448167,-9.485598881330471,3.4014929898589656,2.208938708898053,11.60054871509218,-2.0835939534092773
0.720603016530255,-8.209213541498272,1.453458502427234,-4.90088375926527,-1.547840854541169,3.744190998768652,1.0453193820268023,1.989941569039993,1.506140362169631,0.2215544111319821,3.227735607585366,1.8528709237904764,11.459473246361402,-0.4176914116979446
5.984102863398647,-4.563409529712303,5.371439981442818,-4.519808729078221,3.933205963462152,6.426578288836883,3.149208695912707,4.688044892675335,3.591673288911125,6.468139656096833,2.6924398924897446,1.1852677157797018,10.347297268691314,3.505331147499504
8.496095097255747,0.3515464634697736,9.784761991065944,-3.1519861817065333,10.841269359154492,9.256114811695012,5.032400000093798,8.525417894738078,3.409301791215806,10.851766543386104,2.7195584461529023,1.9770180526771668,7.4399097227153135,7.468168991660477
8.091003733651135,4.573957941618957,11.535562486224794,-0.4245158600565304,13.897347212994696,9.524710746416782,6.6086216916558085,9.69521380985235,1.6494402371286927,11.809777453306802,4.167456046617488,5.188216508002341,7.458804161297415,9.552371869749948
6.477947147498426,6.439066715495969,10.069361042831448,3.140470697328212,14.562604770785928,8.453757308227635,7.864897411245642,8.00294417834642,-0.6691034136881583,6.940394057277774,7.281956341329234,10.222966497685192,10.80530710940956,9.531065586751495
5.772314062081421,5.956714244438132,8.754729863171697,6.68569335215696,12.71033955700739,7.63146746735197,8.308862098925417,5.692083786137401,-0.4109691296079039,5.550345314499691,11.418670426232469,15.185355903250157,13.13830615347341,8.70283477396083
6.867318036935302,4.7535747938352415,6.756703896466255,9.663908044452825,9.657287006772671,6.421784115719192,7.830660264296211,1.8309198768240047,0.7261167869903036,6.862570107904746,15.255142678364535,18.089689744808997,15.527435280055162,8.521305939507698
8.937179939670102,4.576495654097954,6.273412600666913,11.918932889972808,9.655726619219182,5.400309426151153,6.763735731950066,-0.0827822035943263,0.4988002679760782,6.003270609843684,17.34867862968909,18.12636579773931,14.84850905143449,9.309590993882182
10.295069189357235,5.768925750156143,7.975076054120946,13.297579287761325,10.739063262469257,3.2418282439895174,4.940934925382517,0.4004976152942793,-1.1320409087920753,4.529842611345055,16.739999107540058,15.96843159769847,10.189754904467064,10.110375963532448
9.732875793470242,7.121381287049047,7.505537229012631,13.409007137179287,12.05009785806366,-1.526790174997861,3.196370490605644,-0.2394902391477579,-5.005625489809491,2.6257585027256773,13.388384044113792,12.958932507583429,5.524836085995116,9.650016525353976
7.28468529974171,7.12330784210485,5.377343391226775,11.91517314627754,12.493837476568116,-7.821381439732415,1.6091218208093765,-1.1696263466415855,-8.434846066574632,-0.2058551233876485,8.305751529846361,10.037047851763162,-0.0851126106442736,7.483559147934443
4.044443883880035,5.3701211476918616,4.14219460543,9.107182598384751,11.192403118725643,-11.770904998095212,1.3515451012648303,-0.7988477717518075,-6.984326061066112,2.134514170805916,3.24705486895752,7.398991528738463,-2.888724741888771,4.362791778107919
1.4326459904101796,2.910330526286799,3.162966282484551,6.16478822907203,10.33840706350063,-11.504895514561891,2.815890182497132,0.544190586464942,-1.6273098883140165,10.114462534276717,-0.0776222116583937,5.015801740524523,-1.961725895570164,1.6260429607090714
0.493398376899961,1.4047247636264046,3.650896642716561,4.694374919031191,8.59027352380479,-10.613318857745268,3.463657700665289,2.937956860156689,3.650943742842818,13.886313013251058,-0.9320957302144848,3.2085880117813588,-1.6459719022846435,0.2156418884757727
1.494443751149845,1.9159232746271757,6.107216939843239,5.676175583292945,7.216061058757914,-9.420376355892554,3.590028759545894,6.688076493211546,8.6600955505717,14.39260817940473,0.0422239982873691,2.5075042267662866,-0.8512786354733696,0.136788884183943
3.827549412189228,4.196376302765088,5.851253255101801,8.47040398939032,7.419165873297465,-9.008912523162198,3.349836701119973,7.561793246014587,8.347470114799412,10.657659852640768,1.3909834205256004,2.917985801342155,-0.5104476175869542,0.7003841752247979
6.209473676545855,6.786692343439341,2.9978152829560214,10.724869565254863,7.110999981421942,-11.240061289623249,2.2327670614806743,5.304642127039162,2.3981359729164686,0.3755196443668592,2.024763266753041,3.470585856146613,-1.2741216367544257,1.204964713364177
7.221751125106948,7.76230546336015,-1.2436374528835046,9.633697934932997,7.187152641727314,-11.956299280269548,1.4855565097668997,3.177420175346076,-0.4818668143355311,-6.569970843997234,2.0028082067883304,2.70351177278701,-1.0265929770924165,1.4013089924841324
6.025300732773729,5.797476144884683,-7.974108102408762,4.018950403795941,6.791706002290814,-10.705333560623716,1.0025299028482353,0.196410409655919,-4.2797377265325744,-10.707164719454171,2.188004079932512,-0.2243055811096894,-0.1328936086099349,1.3815010686424216
2.816386278534395,1.101243404010546,-10.295708579064051,-4.245002579272182,4.926366448997949,-9.754671462142902,0.2436596013722476,-1.325932905383627,-6.093875573440871,-12.812531718470495,3.1075347487305294,-4.764291513555179,-0.3591024002604414,1.1414758212527545
-1.3253127889773566,-4.358959894154282,-7.781548006273043,-10.880415568711356,3.4482433196029607,-8.328108578292172,-0.5803816070860375,-0.8089157693632683,-1.9342349420023388,-10.598661443433704,4.172817929873162,-9.244487695935533,-1.531169736657534,0.3922701479961858
-5.056212287767664,-7.758909382128309,-4.530644010135116,-11.899789733061452,2.5897066262995025,-7.488181681926693,-0.6627768819731764,-0.9955209107291336,-1.992585314679964,-7.839426977126806,4.085342628237754,-11.94869139107368,-2.1400818857420423,-1.1068518608506963
-7.324033238337648,-7.143887673763345,1.1643907810394176,-6.498459902071119,2.742435626919225,-7.819852782884265,0.0432083064610608,-1.232961888742363,-0.1684786490758971,-3.8609799719692672,2.073922328611303,-12.12466134796955,-2.443840023048763,-3.053769244125874
-7.51445826188241,-2.861866718508537,3.748076383728301,2.172827637543264,3.8384801829542248,-7.418802964423899,1.0379756947528582,-0.7093639335722477,4.190265907197517,2.0794196978392083,-1.2193450706597275,-10.19140353796368,-1.5219322732852043,-4.572118016387009
-5.3960225965959125,2.486222718712924,2.49125581039635,9.109336178473171,3.8428334786649456,-5.600292802542205,2.5329481850098023,0.2878055790186392,4.092859426816196,9.48830248665536,-4.025079613736779,-7.143705635698325,1.0048843751309282,-4.806063212814649
-1.2760330203353192,5.764028098038963,2.808924926935587,10.83696293754332,2.4266677413581745,-2.6363660783905294,3.211836018981413,1.7847380447850414,6.037399517918002,14.054780473892375,-4.613627777200321,-3.764201473132076,2.643105710695845,-3.5796087128015017
3.685890903849895,5.497085604047257,3.3615148905122667,7.480169897495742,0.0944990316588703,1.5600110287094546,2.921627843104704,3.878127520313664,5.669337495674725,15.293196172303489,-2.343386257544111,-0.2793470592736184,3.598918663579898,-1.4170248489526074
7.61131845786069,2.851716860907146,3.996002443242656,2.1286618855730524,-2.0305443904232523,4.834897106697563,2.700799012295018,4.592642374442058,0.7664769050192943,12.594381197872044,2.101806086920704,3.372153583166849,4.229727678605164,1.0854734454899244
8.874620158751242,0.6023460976491606,5.419276349429513,-1.6483340656881609,-1.6926357813616784,5.101994358396628,2.2091702054155173,3.774235922260644,-2.0379629828544106,4.385727795052285,7.176408781551061,7.002325901244689,4.007346342665364,3.7740575962902057
7.338511006425222,0.915840662602065,5.657857251564473,-2.058456745938642,0.4634514710220299,4.938356409052996,2.389515604678925,3.2558184535239083,-2.969662371204336,1.9407854709292207,11.132108311777202,9.88124736526224,5.073282628770351,6.677206301566187
4.640450241126501,3.727873678079263,4.807194611139645,0.3425218538739329,2.5683375902786163,4.35074177128362,3.4293591724897268,2.5880985828425778,-1.7735027417768583,5.329691918978243,12.59587432999649,10.982234397998257,7.456543718868085,9.283319527383997
2.9589970567819748,6.949596424979852,4.595264434466925,3.653752833485136,3.183528023346362,3.664869872608948,3.861363098504436,2.5158198500266,0.7442073221193701,6.57832669419944,11.088518878958126,9.658984622679029,8.36238848777153,10.387026578195886
3.194959750419841,8.214239118475874,4.73285918880722,6.076884329969019,1.251009001249792,5.931710986445363,3.8904650652681703,3.3668708373490315,0.2854736515879382,7.99844835378406,7.386100259040909,6.324715031092815,8.096594390329203,9.025809170665076
4.29344559502934,6.679333156378263,4.650961480956593,6.8093055490983545,-0.7659355731589244,7.730957594167976,3.931943534001061,4.144506479992939,-4.712534641666035,2.2995406672936056,3.341576435881912,2.6108906289316067,6.755234420991397,5.711166047848053
4.472056246519742,3.499522665272952,4.615551703046198,6.119657139367202,-0.6124858385277423,8.549811323875318,3.742118845295764,5.121544457116591,-11.352060357518235,-12.18573977477543,0.952844591117234,0.7095654665388764,3.73934393250249,2.529576120396776
3.210912742778831,0.7705023723533984,5.078367514217096,4.88632687554934,0.6519341991132296,9.737390187636532,3.833248269484311,6.36206586655351,-13.095322136259592,-14.175779542778674,1.1525660471145578,2.117272625856529,3.615334464104815,1.6532405626378477
1.975627368244524,-0.0629218713141437,6.064557408114571,3.9805680766269766,1.4576359502515612,8.464412210159537,4.245091198440814,7.763524831049249,-7.451699597653853,-4.37133664547237,3.2786307519085938,6.547680218287381,6.5526611377259005,3.487857883036364
2.823342128917729,0.9069674608190548,7.197042475574535,3.774885421065037,0.3079831440907993,6.309515757599169,3.844332855130949,8.558424028927321,2.031532912075286,8.369730745256671,5.752646093823107,11.894988060160872,9.3721413131413,6.274321285259424
6.191181346774,2.3861632445278005,8.590406334260642,3.973509685836736,-3.624447007449241,4.499600996556837,2.6695950406422937,8.639818000140156,12.568034667308648,28.63380989906839,7.400276470421989,15.49604341336168,13.097583966897176,7.661325616380912
10.07581994338024,2.97673057685701,7.2833666045503005,3.851160647572531,-7.987662186114523,2.320597941850877,0.929365166253114,7.04083049340655,15.466082837773715,31.520064830845477,8.182992693224922,15.870748947515311,11.730090897331202,6.803453071968061
11.50255256267704,2.126966104592441,2.9317623260958867,2.7729569145185917,-9.905457656921008,0.8532549631241464,-1.6492022501285932,3.380764157666204,8.926192840166017,14.562233738054434,8.65607887812621,13.54430971909473,4.35138433113669,4.939592473065446
8.94182211746498,0.2961230393925156,-0.914915921330732,0.6442139681333927,-10.237180571192305,0.3957246153094848,-3.972452574671778,0.0833276306743913,3.696124858435762,1.5507966250982312,8.761368010826782,10.191271750632724,-2.8251451888269,3.867326671547034
3.420459359422381,-1.6518446599391297,-4.913666200469383,-2.0595036952312498,-10.630028773873676,-0.8029226063415036,-6.023120674774078,-3.095483341831464,-0.2314755158487745,-13.251620398474126,7.296684382394673,6.832933300327376,-11.320676257182448,3.827030795893368
-2.613863932150672,-3.2755512769374637,-8.132552811330026,-4.728066304868435,-11.080239198385144,-2.143904049962172,-7.315893242651708,-5.835059230480611,-1.2193137646793268,-19.753368846136297,2.7753260014137098,2.802754848417784,-16.378008543067295,2.9500836632664047
-7.446829997816245,-4.940282541882411,-9.86972152224761,-7.156022261912327,-12.538978122500136,-2.5157695452030837,-7.496492686696196,-7.578654094319599,2.262690993458028,-13.622531256370758,-5.017884587956885,-3.418542281305008,-16.67297659540341,-1.0578834540854416
-11.171148079640616,-7.433857789271926,-15.086860042691958,-9.67323871340163,-15.015224872333455,-4.178915632810791,-7.988453121112957,-10.6629541837348,-0.7465184001332162,-17.010860044738617,-14.250115587436513,-12.182358110892096,-19.22200683753435,-8.500862179251982
-14.796846348849726,-11.074193564540169,-23.662986243084976,-12.66949402987241,-15.29390067998413,-5.000185967940597,-8.599205990971559,-14.932165278768675,-7.900382709870055,-27.15866899096504,-21.87293167603454,-21.417108890451736,-22.726554874107865,-16.818667025342343
-18.503421116095986,-15.023454554315435,-26.03322953082815,-15.892910518774656,-12.987699940380123,-3.4856198725972947,-8.342208905107405,-15.555266537314052,-10.420858133411032,-28.62606672534756,-25.4520290714407,-27.52058325525089,-23.11091008186723,-22.182166646269543
-20.92031930153172,-17.467274649693607,-22.50469969058153,-18.22573229774256,-9.976821138417678,-1.5667865708926103,-7.389427066089365,-12.576519502591296,-8.517700219741132,-24.26937559321159,-24.526514717071947,-27.837583285850656,-21.12379864808526,-22.277191215283743
-20.20457770636134,-16.69457963433768,-15.5330533537668,-18.311375761461733,-6.138081203920264,1.4535654040316497,-6.000164045106453,-8.64450582866465,-1.7652220460725818,-12.762293050221007,-20.524053778303667,-22.670156768531264,-16.87282757241731,-17.950501959647738
-15.866387051537146,-12.348191245088692,-2.855446389709809,-15.619151192418968,-3.1988810571772435,4.651214549969009,-4.013372184273576,-2.6936864622313483,7.731984982254781,8.864114918683237,-15.541603785966563,-15.136116715576833,-9.592166650230912,-12.396668672845353
-9.555507165848326,-5.86355966276853,2.275559439681,-11.012175136040142,-3.185175454996588,5.044330878772489,-3.229160330892731,-0.3672189028044578,10.559481608489415,15.653895034893798,-11.127588805209726,-9.023604495871936,-6.667785335405918,-8.659328484250736
-4.0153653349091485,0.3313813163803445,-0.9170840388205154,-6.218456156719057,-3.398177176160996,3.5675996324245896,-3.821671691704892,-2.3838364512742496,4.871033517093236,6.9725239440198,-7.91138625557376,-6.386167727507697,-8.487804794218661,-7.545579727853635
-1.116216882449265,4.314657859735192,-2.3261520387850627,-2.5809064018511094,-1.6289525195895882,3.123453624332427,-3.615060887360542,-2.8643760164364003,-0.3287032897382345,0.1860945150594773,-5.977649772911093,-6.643882163895171,-8.919989876088758,-7.5399276736335
-0.6799791059432465,5.761005970294704,-4.970841813679932,-0.1620288009507362,0.8770928751462826,2.699940059294532,-2.9826306766231347,-3.1488233178220755,-4.35093702831495,-10.149214399883506,-5.2782247290272295,-7.5948272053548465,-9.59277393358886,-6.528037126471403
-1.0316438394523288,5.850138793197488,-4.71709764011573,2.0123934948107234,3.3830667275104536,2.01051574092327,-2.251469937479261,-2.858791796245384,-5.213603042243725,-12.431308405597806,-5.6153136732401805,-7.291619182235948,-8.230169465753933,-3.701542929283306
-0.6507140829933888,6.15919874560025,-0.0596308582210728,4.828131457327274,4.347841874753868,1.3265988038556105,-1.0653269797477425,-1.1021439625690026,-0.6067275278248714,-3.724667798919908,-6.394735226367899,-5.319593869979386,-3.8229728094775943,-0.075623820859235
0.6122752593011,7.461679708587994,1.8335874822745888,8.130634243178363,2.5851486546227243,-0.8439090928540978,-0.3620820056070564,-0.0011291920349054,1.5031424267744158,-0.1270699289129727,-6.66692678534038,-2.711773434338284,0.0956130052946051,2.613811073576116
1.7786273217341773,9.326428405967334,2.104955821871416,10.794876555611664,0.3494103157830036,-3.4704406761163007,-0.1440877346944278,0.7792087074096758,1.3026585976238605,1.3854435372175171,-5.630860468822348,-0.8277594796551142,4.301534532042498,3.5044985672160465
2.071749953249906,10.685691022921532,2.309959263339522,11.69139936825512,-0.0260675100662237,-4.286643804432192,0.5260740558898602,1.341247344166394,0.8385083998912832,1.9282113854196723,-3.212117078495524,-0.1944073640880219,5.775231489060966,3.279288671711157
1.9575877031759603,10.769648954831844,1.317193612499585,10.61769719890195,1.501756834973777,-3.8410625266082223,1.4966427832371223,1.3318089562480522,-1.063947693350717,-1.0434821827519851,-0.185767619377188,-0.1966771057369669,3.702972112746468,3.400333849103845
2.7969928557623973,9.612697715255806,1.6671608309502477,8.36411839426544,4.595734590175352,-3.956179050497092,2.749784092912636,0.6709512571356135,-0.7273998845546202,-0.9846666689386576,2.263470838753733,0.2069905855191649,1.4749685306768203,4.632114608283473
5.335002857293532,7.819697627277058,3.4653116747383894,5.933048467979759,7.508559138405189,-4.461951532874664,4.460166496322046,-0.8068342151552005,1.1229419140362609,1.779223633440181,3.1470960292981403,1.3781340859545423,-1.8359217145784197,6.165697656851805
8.454606514129594,5.970076415904892,4.082771852727952,3.725303378668556,8.30239891025533,-5.30033191212527,5.11650153737668,-1.0040641895137845,2.1031636750087,1.6085891776134058,2.006390722074457,2.462359101433236,-3.7746394539916657,6.162413380743232
9.57976770885385,4.300663196743727,3.970253707403857,1.510553995335428,7.496286628047327,-5.913898919276963,4.650861524792136,0.1620746255655972,2.03307465677408,-0.5423203008144512,-1.0649055292280991,1.9575476218692032,-3.702940759782594,3.353857556529185
6.729592041002036,2.919304044069783,2.088857862672509,-0.7998383360336234,4.59483218592216,-5.252354159634014,2.927729392148992,0.566282741091531,-0.4519088019346455,-4.941128271420298,-5.4326163240694285,-0.9827380292973088,-6.356684127216015,-1.6134456106688404
0.6127468217762058,2.164480911827148,-2.1444624647607484,-2.436922168133492,0.9816078718999433,-3.933410268378957,-0.5218226986312589,0.6182555596643282,-4.010024825188252,-12.66934699906807,-9.852758918513588,-5.551728877526152,-11.212753473644282,-6.311858626428837
-5.208607334689418,2.5285827925002664,-3.2366714376931243,-2.060197106122729,-0.3070019386342667,-3.082130972939174,-1.9590599366544756,0.2403188601600205,-5.465719810376683,-15.21724768515968,-12.60312806691605,-9.483849316810767,-11.046158161838653,-8.197379284614051
-6.618057784107791,4.07357554854125,-1.2258165857682193,0.9453485580554072,0.5880292924460835,-3.207307353439962,-1.3077629259476369,-0.934697152086706,-3.513132166653127,-12.356969221326224,-12.14180817796801,-10.41123337416262,-6.115032858823053,-6.502414267455066
-2.0835642121562827,5.975946174248655,1.7505682705810788,5.328616425430262,3.541467495789304,-4.008289473765065,0.6089073568309477,-0.424424420380768,0.2396496246819668,-9.391179284222307,-8.09165395140353,-7.409613941131887,1.5663040358481173,-2.7376799279579203
5.948805060285501,6.904068761912782,6.966033468073269,8.352179226420994,7.137948428409767,-4.623067146841123,4.777716804140845,1.814281967614806,3.823605560908186,-4.396499834532644,-1.777800996702318,-1.5953603907709208,13.695667347074767,0.6619657341352791
12.710102554650888,6.118515447297348,8.982075541237672,7.80816962382589,8.421135111093347,-4.213716871941525,6.2746202011998085,2.700884006038646,4.7759141790382245,-1.831792768794348,4.343349280529999,4.614284366919378,17.711547608935334,2.334673803689178
14.563296529185756,4.284872947880494,7.363417311495626,4.078665314015147,6.94754791122019,-2.951352927685789,4.927979025643324,2.6229031520199078,2.2482283549370488,-2.537214561650197,8.145799828450468,8.946554700292822,12.71192498564298,2.810249470310744
11.451105742950112,3.0552965083314056,6.911913176719841,0.2180414941257353,4.245631297381242,-0.6074445055634635,3.093498248133656,1.8324944411685744,-0.1740746075161531,0.5432256428297807,9.09613292821932,10.362595489311971,8.491181795994702,3.459035478327685
6.432986437697039,3.628275096877747,6.405374986430928,-0.3934212046121956,1.878409541405997,1.6914132757011822,-0.4211997059091379,-0.2862026936391044,-0.5718205599069808,6.493357540531127,8.267764458232463,9.18586359159815,2.094655454420273,4.707112268418999
2.967402656477553,5.607869049977644,6.584876662268974,3.027958032538536,1.1986217962072383,2.287998551275481,-1.66552985089796,-1.5929587086603407,0.3473612394463277,9.722069862771642,7.106649311190186,6.500450291359773,-0.1714499912604623,5.3662604505971565
2.422006288695581,7.30148443252672,8.157671758616106,7.807684227761939,3.0356079426824745,2.3775003222635407,-0.2594703698567724,-2.1301073072155625,1.1366084437453852,11.073558508525355,6.091997902572196,3.4899088086280976,3.3649681457631635,3.790059094379618
3.7576916472640782,7.2011106187477765,7.820809538165102,9.943504397527237,5.397996077048533,2.093244048688685,0.3464209500920855,-3.782892888296959,0.2501050914444834,8.456496275143792,4.571229714382003,1.1313296702545372,4.47591854288962,-0.2706940665618376
5.138091281346451,5.215717413356909,5.789507338990211,7.440065140971576,6.776059859338497,2.07218312867845,1.0679317768247722,-6.197002127081908,-3.043640659055417,0.5253254949081213,1.9568745976652109,0.1282910678730289,4.902597338175088,-4.938086843688435
5.60774525108694,2.5285481268553447,4.616067527205926,1.923988320268656,6.884855351499896,3.3759470005545267,1.0618336293426804,-6.4282630996115415,-5.056300679800113,-0.8670329529690498,-0.9123536083376766,0.7768266275161118,6.59684315528409,-7.338493093508762
5.391602362576328,0.3950556695843552,3.791226322819073,-2.8154146820729444,4.750612283782718,4.250820403718209,-0.1875771684378261,-4.502753514478588,-2.692105717224662,4.183767208758979,-1.7817319550150863,2.756782291833556,8.519651332380386,-5.6147695760046
5.043759350192085,-0.8069631326712918,3.478241183999184,-3.942756382864652,2.759423108485913,4.525142951367237,0.0302091206812143,-1.108888829192111,1.5103645284956746,11.746753176404384,1.291173137025829,5.171655567980409,11.103603163763031,-0.1551642389235579
4.701098677860954,-1.4497264831885126,4.129888265098469,-1.5967386714317295,2.119226201791357,4.249222422661645,1.505468681135588,4.5104302040704445,7.244195391674779,24.628388793254604,7.889325058467976,7.042155959594784,14.428691732176178,6.783507676653757
4.16165056255936,-1.911191890937082,4.000539268193731,1.7118952017287783,2.029234092222774,3.647330865559913,2.533176536708292,7.052957587223524,9.328570660282065,27.57234425009627,14.886078299626451,7.964844441498098,15.075625783334708,12.511466328587028
3.340871588230569,-2.229805917957542,3.191153221642864,3.424274251626478,3.036422687912965,4.515389010203591,3.5554332526428776,6.210261734404884,4.552733147963785,19.50091826296526,18.479515323197152,8.345719164070998,12.811721865980529,15.237498302309486
2.346387652075502,-2.445694539166859,2.9191074351223243,2.797366087878516,2.707027748358953,5.472169096854316,3.9326940562001,5.737055526412185,-0.4030227269483561,10.10473999450442,17.07205437715477,8.919008495508628,11.814840890544597,14.583996942346428
1.1682785326427858,-2.932860801453605,2.898056644018036,0.9428111453429366,0.4157949572006894,6.168311949478177,3.3629659302031025,4.390206704884844,-5.761328377388951,-4.387263145602489,12.462267919115874,9.936925504610045,11.426072694204702,11.369487709659044
-0.3661592687831589,-4.08176682251554,2.882399139217812,-0.5244260827442897,-1.960319081887592,6.8628378204005065,2.932550651392749,3.920723518179296,-7.812178360552227,-8.883368504903068,8.21372274913357,10.796622532897237,10.974709894626235,7.093148131156855
-2.1353194030990075,-5.696490924319482,3.029947705978291,-0.8089248469221602,-4.149570169844167,5.92477624046616,2.421820084586497,4.839733620109218,-3.8179330032319663,-1.3100010122165793,6.67317814426214,10.535533401396735,11.178087554174365,3.385370488336587
-3.440418666737456,-7.073184188656864,2.287091999918803,-0.288098492423801,-4.526666953337931,6.092041181566179,1.5048399710859195,4.456246270619266,-2.30890601056846,4.430122620828212,7.391346379552672,8.840359585224792,10.075133987696391,1.459498134178542
-3.626152307079334,-7.999405524454598,0.55326716417199,-0.0350931498332478,-3.578803681215925,7.44958697013506,0.3138719456656935,3.2191726186444285,-1.858200219973199,12.151915056705889,8.299032463814285,6.673001962022156,7.654511749489623,1.6532177728757702
-3.192597423313039,-9.615725171557711,-0.6236421555122614,-1.170678435219365,-3.2722044308105582,8.0768500394546,-0.4311097925351579,3.0949738304391383,-1.440125267276407,15.591957121223006,8.253936336104788,5.831579311479526,8.042157423104006,3.317343403495705
-3.995645081712389,-13.845264666360784,-1.4301917080066948,-4.409489990138841,-4.304269974639091,9.376835627147448,-0.6821682710730609,3.810144956722425,-2.462840978456754,12.473715611616894,8.271027404823712,7.615975124981759,11.13874883049301,5.240509268497512
-7.769335130733474,-21.46665880797148,-1.707925825903581,-9.733917832389196,-7.185214421481437,8.54705974112463,-0.1368165132086641,5.489285216714799,0.2375433784672282,12.969824752430943,10.20307904797393,11.591806911199612,14.104523379564055,6.422019094097497
-14.083433359115904,-30.548103286086175,-1.117013241867039,-16.1458034139484,-10.145663474019686,6.305920601044996,1.4716272735410645,8.561936200719089,4.721205268448297,15.24610955139614,14.326913414476586,15.541982327375491,17.748308476745404,6.662613286710961
-19.899667174023147,-37.02113116564029,-1.3947104578543985,-21.751848687790236,-11.072339542401828,5.867559182640204,1.5773009683135186,9.270815190405813,6.528039263921795,15.369017595140743,18.43184002674332,16.86098067042136,18.382445115337816,6.525135450035929
-21.626691431322527,-37.337164954620704,-2.490116349725507,-24.45171608075268,-9.494145680667362,5.757246961265055,0.155317911139716,7.4965593889497955,5.369206782258309,14.63867021428922,19.475515008365942,14.4571651606383,15.2868671828096,6.723334149883435
-18.05083648030577,-31.12241045128096,-3.720363974984125,-23.027195978917803,-6.998197952271663,7.705182364812869,-2.6529578835650263,4.957353481027278,1.4623172960440387,12.341408847085775,16.292984560979576,9.653651465767222,12.89494304682102,7.485101498291769
-11.397839187491314,-21.546509118188943,-5.45821143395477,-17.93549164958072,-5.41520262204734,10.384473131107123,-7.555230336359487,0.7269327638977081,-3.146322878766097,7.956617825748654,10.8021319485151,5.246184374338796,10.254278013432064,8.432966835700828
-5.440035944370607,-13.03292626208484,-5.91581882286708,-11.171307478912524,-5.533857332066795,10.078206714106347,-9.274519903695971,-0.6126792036978423,-5.121058550514582,3.939288416916576,6.563981239729053,3.370379275517859,7.466648038571142,9.00878455787736
-2.4339625098158635,-8.209205119895522,-4.9277109517781685,-5.205121820225035,-7.027620367142164,8.278396048816921,-7.632745023463726,1.358737401719363,-3.957732680976156,0.104648692583124,5.951617237575785,3.90049753781895,5.210827485279899,8.941962997204993
-1.7756740858941311,-6.535915124469351,-3.733120962038254,-1.677297853341244,-7.329303135360203,4.923400257713244,-4.91972377060107,2.9470739052793613,-1.458180442707571,-6.177903487761871,8.319985711945197,4.7178284540055415,2.491288613362062,8.259199910834681
-1.4382068714363925,-5.466031624589981,-1.8804658895819693,-0.6749325585774812,-5.7593952198890594,0.907894146737132,0.1792959958264035,5.255483573049902,0.1109200557463269,-14.619266749975903,10.60407203099643,3.5930351903068747,-0.422550454678761,6.8812257961530925
-0.4339181569940074,-2.8272474590817254,-1.4141484834967948,-0.9780665684959616,-3.56669838759988,-1.40166966826808,2.247537407275235,5.466583690395044,1.164780971844321,-17.02729375831344,9.737305082967382,0.0339629584656542,-3.396721270018188,4.365865923122961
0.3226448715710113,1.653186303195902,-2.6273342882273707,-1.0278624442698678,-1.4898993364280408,-2.885055249795481,0.8426487555465149,2.9018044782452668,2.578913972598923,-13.140873346991189,4.923356988510324,-4.456579301004762,-6.512032454141007,0.2514044231038426
-0.526305869770475,6.651887227881563,-3.570792958828598,0.0340451640229346,-0.5375484291857844,-4.026171726418522,0.4290154638901914,1.7738050653542723,3.298192168097067,-7.348793469441741,-1.9391039899511675,-7.795275698189261,-11.535674644573636,-5.214698184568093
-2.81691610408895,10.631458763708835,-4.764252744301786,1.8946749746886555,0.131747560390719,-5.360671666102633,-0.2463269259194301,1.38899597203686,5.996225063556597,2.3592465040938,-7.872545117589851,-9.040661311821786,-18.645632269598543,-10.725035596765274
-4.674112191376601,12.869012706770585,-5.8673056212995975,3.4481482093111,1.0765939033340686,-6.957533183582037,0.0562932086293117,0.1670018505610035,6.537686318601992,3.7109691612658255,-11.130333086100029,-8.958385706143178,-23.85373432680064,-14.49736989740762
-4.364039353496054,13.46685159890136,-6.607598648133208,3.7710614823446207,1.6851016879485867,-8.891286705781626,1.9828331504395147,-1.2989961912051051,2.452411234549187,-4.6303656883145,-12.388080501637305,-9.160843044265626,-27.35081308526563,-15.508722218909668
-2.1942970243354267,12.839628203606644,-8.694993955810268,3.010928033307408,2.936231652618126,-11.852031664883144,1.5367116339584654,-4.574841129693005,-0.2786873698743388,-11.549195990844474,-13.928359754935082,-10.791916920130042,-30.37039106007577,-14.386791330657523
-0.364714038505987,11.475768076225226,-12.078501283640088,2.474632528608577,2.911202197076061,-14.638470654532725,-1.0346513762572271,-9.958969316125398,-5.294064870948226,-20.016556626812967,-17.53241349595423,-13.870392511431223,-32.03684084819557,-13.109695247632647
-0.7874236446271397,10.091131657421524,-12.37817775281118,3.721190570728737,0.8783287413316262,-16.288707851073287,-2.6337549980048114,-11.9774350725547,-7.84346660281947,-23.451847800168142,-22.824563154663306,-17.539464524294818,-31.890582205108107,-13.591851821929389
-3.007251839320727,9.619224001018107,-9.581598545504072,7.240809932602776,-0.2034582257618924,-15.805843152053312,-3.892925004843865,-10.649306359342775,-4.3630186669188165,-19.813155724660025,-27.435351300956786,-20.644036876072537,-29.739982460919894,-16.174067004265982
-4.323759971088865,10.661576599268374,-4.666507419133207,11.736225362126495,-1.6295237509914482,-13.79497095566026,-2.6266484063142195,-8.469821034543992,-5.128778228114358,-19.218912580923984,-28.844675064857384,-22.084753013663388,-25.123739651468647,-19.195675606761203
-2.1124564448741445,12.809344352760638,3.50549204461254,14.67881697214568,-2.4705569261179194,-11.549793712527016,1.9103562753835932,-4.183690272050422,-4.974181375191586,-19.835313168144246,-26.38632145212242,-21.012894230701,-17.71577744103514,-20.05573394803324
3.738186432334156,14.64264923157705,7.711461409380647,13.882541460186902,-0.5364159572392141,-10.3388158875341,3.168468475263363,-2.9156608821368195,-3.023416405213151,-17.769754055743462,-21.793487848142284,-17.24068559690974,-13.06880796070174,-17.058358202350085
10.466994710929692,14.683255258016583,7.583282124889727,9.052375002747604,0.2764928429771853,-11.66343044851804,1.4830485264144673,-5.178676885095337,-3.263311975112249,-14.322358499491688,-17.887386335169857,-11.792767602336772,-11.430089101764493,-10.725402235884872
14.480443350250274,12.640057159404469,6.648488439242009,2.246847191071809,-0.4953554983238877,-12.91089579301316,-2.4386973274654804,-7.7659129010571615,2.284038710539768,-7.908561133023911,-16.49384910217057,-6.895775949926985,-9.197437650893573,-3.609015715652884
14.057330272518431,9.9042294122813,3.0848560839550765,-3.06924863037253,-1.358581676148672,-13.107688308451175,-10.137135837625836,-12.020789166530498,7.981054683110185,2.0703835036986327,-17.201451610645375,-4.841846680137356,-7.684938412602794,1.2957723997398771
10.526898303537877,8.787448313703441,1.6578601344933983,-3.8282578049115337,-2.240896859857039,-12.38929072563395,-12.026651891540723,-13.315672834389424,7.840914158603523,4.518302316991991,-17.819213812923174,-6.230236394872701,-6.474463382876502,2.4291514367876124
7.101931371929531,10.940337833695086,2.7921138248423745,0.96337882536591,-0.1045500221475914,-9.161740938775514,-7.785141371884674,-11.063757578780862,5.936684085142839,-0.9804281356622856,-16.073342586707227,-9.08621883398626,-5.272553316264713,0.5237596450778632
6.434162798365085,15.993631974891688,4.1404875930587695,9.516916511561032,5.054599237837438,-5.600872631618556,-2.7374982486917143,-6.6729505543344265,2.224548163529634,-4.585494505382319,-11.257085054030902,-10.021959589398188,-4.0139837147455735,-2.108877319979296
8.801508900495541,21.379509635514225,6.95757408899574,17.909126822078733,10.691052107773857,-2.3340993757377606,5.372049695620061,1.2838483486937249,0.5528269881454166,-8.608609170868942,-4.7337826949351705,-6.897676729010413,-2.467736118034783,-3.2584371282233464
12.152950127654524,23.633331454980905,6.836925846511671,21.918815232641457,13.543767738849985,0.1266675206412981,8.023398177568032,4.777564496670972,2.287377275798928,-8.589928919362789,0.9081224178196168,-0.839478364845172,-0.7831082311486742,-2.211186203918144
13.760010094955764,20.55381904565266,3.4011260376577988,19.282088631099825,11.764839536576906,-0.0634445044648791,4.146031849499551,3.427419272392706,2.828665040329333,-2.6454352739487854,3.381883163696234,4.3270739245897865,1.188099939283501,0.0664374251953197
12.139459697807666,12.860084058690347,-0.7770962897229308,11.132542586246885,8.336068349645135,-0.1232583399321042,1.2467929392850317,-0.2669323687425086,0.7425231341247613,-2.1890164968288923,1.9563460987443992,5.042453316533106,0.5305376381510144,1.904730599760482
7.893723486865889,4.026361002512797,-6.827514163822412,1.5347821905753598,5.098347538698458,-0.1326783113298053,-2.800307825321993,-8.453766894742532,-5.251577973834548,-6.175306143774749,-2.2011907863060647,0.9748123619936426,-3.002639461673547,2.2046842563878526
3.032047653004949,-1.8909222314751488,-8.257209423664467,-4.912876018860017,3.6198147036972927,-0.5677063219820268,-3.610396387390277,-10.723034191729976,-9.378438317072597,-6.4564299525522735,-6.662046776765347,-4.595520420777559,-3.868207030402009,1.092631091922621
-0.5453369633071432,-2.994228114278209,-4.337308155820089,-5.9523350785523705,4.600054795112102,0.7726498999978592,0.1135399198999302,-6.544219362298516,-6.985655563026682,-4.715126086032554,-8.963231500175919,-7.359105540330601,-2.448001277081789,-0.3513228000745583
-2.183175017030975,-0.7109535577119557,-1.7549980717861515,-2.927366282996065,5.422669980375993,1.2967821106950626,3.2967857625482053,-1.7205650618232873,-3.312097554239726,-0.4279278613362876,-7.825412012415823,-5.3324175482036935,0.8723690275754402,-0.9214988554514748
-2.442599384263148,1.6234037898423894,0.9879220639225628,0.5908046785952825,4.67581413145446,0.8021624927212765,7.289916084508461,6.276811544485656,1.7609335793935257,7.834808893074408,-3.775160975193661,-0.1787747084811961,7.380263482303921,-0.0506436859315311
-2.172530261612293,1.558325060944763,1.2923117806762026,1.7074441022153932,3.418158100387538,1.37564800450758,8.755410129255516,8.997083544365163,4.069245642862161,10.038962162640107,1.1796152617594782,4.439991430265518,10.391432645585224,1.9060864796104369
-1.7215275755946973,-0.7560959499680724,-2.098691063339826,0.2107463545002517,1.858029407799587,1.2409730728136514,6.75501961472085,5.407927890993377,0.7894660751971908,6.036627605586983,4.710305022388802,5.860523828625252,9.826261870901565,3.9255493738915215
-1.077393196040214,-3.3479292492652397,-2.6435109823968737,-1.924754614247543,0.0504916096593019,1.2561984203701009,4.383795371260331,2.9197946738611558,0.2321996067148348,4.714426696738122,5.530247251192078,4.208931229896852,8.527211388880263,4.92072410760595
-0.6174995776517171,-4.710620961931972,-1.0463972618618185,-2.840454179897791,-0.7065627674790004,2.240779122793959,0.5503678616583589,-0.5494331084326605,1.343485588360497,4.151547966750815,4.1061785669975945,1.758015152860832,4.924165947852878,4.390762505777965
-1.3298267228991634,-5.226796633537678,-0.3826939935564443,-2.59628195411271,-0.644529466587384,2.7380646037435645,-1.0787553719469756,-1.6077739109908469,1.8252886163143385,5.041230051939135,2.2350681061742748,0.7840186271610552,4.010232848175734,2.771263659980532
-3.850214455493545,-6.375939419453741,0.4080287933338203,-2.812571849175338,0.1781048225312414,3.457109293639609,0.077111651225892,0.9393029943369364,2.613066642455032,8.847312898361755,1.7764332720477505,1.8935864295922151,6.198188583967394,1.2291256809109274
-7.145648550815039,-8.720449873949356,0.0954668060850892,-4.691797102807148,0.888257181627662,4.143375493218047,0.8619427205532194,2.58121609324159,0.3510834104082126,9.700918315913864,3.423720689105732,4.024924264134085,8.528949615543802,0.9434473308530648
-8.546308286528353,-10.904016653034445,-1.7379724384974775,-7.509139234160905,1.0762067532685295,4.389210396009503,2.2611832395852587,4.391436644335728,-2.469384906640694,7.939089285372019,6.325200714581665,5.724921461692355,12.2628698497984,2.300019020083628
-5.8114711270075885,-10.790033286052877,-1.503968660580734,-9.073300804079572,1.056127435542741,5.0798982328881,3.012282579573226,6.316650048950941,-2.3162106823338635,8.128027909898547,8.725476836208498,6.363552409560318,12.9622568365259,4.582089965283114
0.3163442197975161,-7.622897229628077,0.6320523775904666,-7.657382313558532,0.0737928502614679,6.209612449699402,2.688019739461444,7.75227305262877,-0.7916428851368884,9.3497015554948,9.135533711224069,6.310412397610135,10.07742182900394,6.432245507598475
5.750205900865358,-3.0209202268355835,1.9996741986064197,-3.530532702124157,0.1403581370477633,6.692372452339687,2.9297990763377912,7.782264671846732,0.6714571143588506,8.717016242787418,7.310709582817209,6.210570391541747,6.590049154807384,6.778924351017001
5.987497135924977,0.2453141914099887,3.217838480892474,1.2657634043764483,0.9448494988110084,6.722102431269257,3.3538024312545542,6.001934165091488,0.0273037565534884,6.706613585604147,4.516095111127326,6.261319954709027,1.3057012482072905,5.550943279579601
