AF3,F7,F3,FC5,T7,P7,O1,O2,P8,T8,FC6,F4,F8,AF4
-4.889462450321799,-12.230999241697525,2.1695151900207605,-4.611856984853533,1.6915915267890769,-2.037309057159153,6.419285825591838,13.747061704474255,-0.0715114516955708,6.6326209019117925,4.083023549323748,5.193843721810978,5.43226039264195,-4.901829324878317
-4.524146645533501,-9.8610167368021,4.779258021169511,0.017692838619105,2.734455994678572,-3.1407303120078423,5.1942275176229264,13.209942518372335,-0.4448316066181235,8.236426863604414,2.8915651371061517,6.873679996665274,5.703631482380743,-4.740559986347881
-1.4903019864543767,-4.99020612129415,5.776291696562282,6.420888807086829,5.061545296424458,-3.4213872485882826,3.456260216788429,11.245544975102504,0.7974700805945929,9.200687945405605,1.359585077098422,6.583339201756729,6.310386007594495,-2.5699757100457217
-1.8532626720326155,-0.4066655505863252,3.625560147430363,8.992866962823685,5.6305097093624585,-3.6841944658544423,1.9490626074580948,7.030947496826471,1.9992739358177405,7.902321450860256,1.1566242869341308,2.22570943696536,6.993244925206682,-2.653618304002745
-5.338023221258506,1.2616948355389468,-1.3001140087714589,5.865729595882117,4.414729288970221,-3.312504336652152,0.7929943875383544,1.4966791851379924,1.9911547388174995,4.380442242039592,2.4757118282913075,-5.416416141215322,7.449004939242783,-5.147672633929759
-9.10743672416231,-1.169704317837386,-6.711024556042247,0.4906482567165948,4.073963850489616,-1.973391667944232,0.8452963045957297,-2.874251648199362,1.063647291286415,0.381839640711874,3.216594925483922,-12.441432402638398,7.341710658788543,-6.2354316023195775
-14.389939808668377,-6.791404608820542,-10.050732232270832,-5.192024221266631,4.027673680027468,0.4684596307759729,2.463858620793124,-3.864378006509327,0.4793170881062423,-1.9215292823286347,3.737601850670088,-14.514569348829896,6.560080459525821,-6.761449784908299
-14.8203560936117,-12.92751824193327,-10.447599036191493,-7.307907393054356,4.335676657580995,1.5067101998284262,2.486515816423228,-1.3714469533738909,1.1459746561794617,-1.3857695088161537,3.622921522689065,-10.370060925637702,5.591277051202027,-6.52771406589213
-9.634988466512144,-16.41394282849864,-9.20458147347469,-4.82140392522324,5.418493308414264,1.082383785159836,1.038092531538923,2.3750909836655723,2.8015484324046014,1.5264155771636752,2.453384285320244,-2.9949648823174755,5.484227494317921,-4.931219554347059
-5.504137401761282,-15.26846409428768,-8.379460141886526,-2.4338013187474754,5.798673617860842,-0.9290683116298236,-2.4132798877559054,4.404718228066457,4.397730801968365,5.1803149863475255,3.0749287055462893,2.691111761017808,7.0986611608400665,-3.979458560009967
-0.9484027967795432,-9.798337896805435,-8.820046028928402,-1.772285455871191,5.554066299031019,-5.271495907812917,-8.722424808789862,3.0156099691215843,5.08999792225417,7.654177946829066,5.44117541921956,3.6669923929574537,10.100109912138675,-3.51841196822176
1.881102306941644,-2.370819686883266,-9.521941246895224,-1.94274260192592,5.792562498572087,-6.930042961197664,-11.925360347141446,-1.3775569192176818,4.723698355651735,7.523847453422192,5.012713787813602,0.8095147405725527,12.664482820295136,-2.998950147560765
1.7692517069734963,4.094943889858669,-8.836201064917688,-2.5082310823774066,6.2771701901127965,-5.850443115328152,-12.039311376604935,-6.950274113461447,3.4536589883643245,4.377158553979427,2.075517822574368,-2.509305871435984,12.446914017022678,-2.812544144511984
4.305099001592248,7.911621219110842,-6.229040907819496,-0.6990166952478364,6.760431727407777,-4.33595564130604,-11.481301131411335,-11.82248089153601,1.2195546836981066,-0.942686518108232,-3.227219014586583,-3.651868319371857,8.293543279631308,-2.27587635377614
8.835066118758736,9.406512922091594,-2.832647969520196,4.424626623695429,7.396316917580581,-1.2190778867238783,-8.874962191191836,-14.912648209003583,-2.063679723322821,-6.496004805695925,-11.994164101836578,-2.7221465229768853,1.3941980342385565,-1.3806356824269097
9.128966486153129,10.163713590442022,-0.3479165756810474,7.473587151493661,6.851669662316741,0.1388520424811525,-7.640176892207555,-15.939294251417644,-5.738589964970615,-9.982056379572027,-15.556381836677824,-1.7854610353676463,-5.158036948173539,-1.3081583854613368
5.685910119511024,11.395419554340492,0.4564064278108048,6.63349464408277,4.9967084942059214,-0.5863983666490022,-8.02330750722797,-15.06433948529076,-8.146392535027061,-9.898165437909787,-13.59481772046268,-2.515584210473307,-8.268116527314547,-2.001477305379161
1.1308163715570592,12.811348170882454,0.1111070405123229,4.730228998882208,3.953163472763313,0.0909281945770731,-6.616058977867925,-12.76030386395322,-7.632872074133736,-6.499734821839276,-10.93059493602094,-4.762467127283173,-6.922639574885345,-2.219659192053691
-5.760567837753179,12.929016128082624,-0.5395135244920795,1.0380076158096587,3.498227235866361,1.4547639109266246,-4.104888098758822,-9.910566717806518,-4.15899577606411,-1.8363312699527512,-5.494852900693341,-7.217869836380679,-2.950478342647699,-2.1337433372260604
-7.947621815769081,10.546756877052957,-1.436822348139387,-1.5515424631329775,2.451563234968069,1.8862479015422997,-2.6539926246749044,-7.693076500577121,0.1128332844808639,1.3448540404754468,-3.7617935442412,-9.04719992135636,0.1564133696131762,-1.9152219010835376
-4.644008914641178,6.097718621847548,-3.238192119658052,-0.5824289847364335,1.154278153319778,1.77401221078941,-1.9321490648500832,-7.002977885188066,2.178198043750001,1.223210769955955,-6.556660282817826,-10.522337204707163,-0.3963809530908264,-1.3283017367224537
-3.6792183974204256,1.6580767408525574,-6.161757651737176,-1.1528223592725753,-2.046770211936485,-0.4831594146003536,-2.5322803380750907,-7.795912352523089,0.5509182175181166,-2.0190787701949304,-8.4683045369816,-12.06813325999262,-4.808986206321833,-2.217268016931305
-3.4904415120359142,-0.5176325208460995,-9.096486794171732,-2.8238987436036704,-7.468809316039445,-5.315843684657964,-4.965653292518076,-9.045179101235604,-3.479007716289857,-6.438837072812895,-11.132782423216694,-13.063734466717436,-10.631190714598027,-4.69348689889244
-2.63045044035782,0.202275270864547,-10.13121566950175,-2.997750492875546,-9.343939760268364,-7.219846462058308,-6.3926639869327255,-9.551659489056618,-6.944671601110798,-9.73680959074786,-12.237577942398929,-12.04465588539123,-14.621033228768953,-5.985003249996523
-2.220802065311351,2.2034606071410465,-8.184664466832533,-3.439422095994677,-7.707793032861314,-6.305826001647107,-6.963838275897687,-9.006601536584839,-7.75690656646384,-10.80551898089896,-10.996617234970635,-8.313062025194636,-15.14754345813936,-6.376921105349668
0.1228561473670246,2.820912331914734,-4.194899618473752,-3.596656154156617,-5.5022061094662815,-4.326695788691239,-7.519405095241227,-8.335859693156067,-6.416360556844115,-10.286764467851938,-10.307310838174708,-3.2246333089169994,-13.283358092996949,-6.369991254004747
4.484465766102487,0.5097622296527362,-0.6239018259350289,-2.953085307725738,-1.4456471660337848,-0.0005820664061308,-7.458041176256132,-8.919258935765349,-5.337124586571367,-9.771932673466845,-9.445623221315795,0.4425750595833797,-11.695095156360864,-5.405297758915255
5.5435997360679,-3.7402556841116272,0.4147000871132462,-2.689818738498131,-0.0022718102705534,2.5034284781960388,-6.703098697390144,-11.30653273713274,-6.433312996371569,-10.33533194608317,-7.436569209710796,0.6904992053750938,-12.206278568380531,-3.824686350349538
3.4182737745274774,-6.970109118688853,-1.2012014764846874,-2.1259560615661157,-1.7281993054767708,2.990105201628265,-5.146539939880069,-14.54639390183244,-9.1897281913746,-11.586014344100128,-4.544097142825541,-1.9651784853219207,-14.074043418148465,-1.4982688344348645
2.526006659939397,-6.450751079064677,-3.603695955805927,0.5099724769343376,-1.9218100036178207,3.943944400617273,-3.36556052195321,-16.70451384925864,-10.949834136875443,-11.96417579022773,-0.2293205511926013,-4.899560773601653,-14.517230361384293,2.722670445511603
1.8990373037101635,-1.8039719438550077,-4.521605065409899,4.237654959436665,-1.610628467959187,4.39788842415493,-1.308775883798335,-16.107469601388892,-9.140430095556384,-9.99661055079914,5.719709105953901,-5.532794132160715,-11.149763654294023,8.960191994523774
2.092276654205659,4.6437302849739055,-3.0460647174052973,5.865780032459216,-1.7121248997063914,4.491081628616984,-0.2830466692748838,-12.325864852101333,-3.494828900544819,-5.504308502711951,8.007046148764294,-3.231303447472083,-4.269075518051348,11.308766270028634
3.8564792750724335,9.52517016270974,-0.1411714404398925,5.04387488583617,-1.6124372866714185,4.374807016290409,-0.5506531981962004,-6.320641030144944,3.558128896634053,0.1332943365924741,6.34759514297589,0.6083716858044621,3.02294227286665,9.558603538711315
4.185045836734266,10.73171048462658,2.331240141078343,3.57307801561394,-1.823599847386248,3.902453008813565,-0.2787159134851683,0.0660839634775971,8.555117568443544,4.784105098508467,3.847867614882225,3.9842281788325296,7.041572312812967,6.244814604309509
3.307948753215209,8.54011161355651,3.0718241723042508,2.0271945121624038,-2.353043907739523,3.1397883498952397,0.2073206811900667,4.807268247093663,9.311457774785003,6.807140943390618,-0.811987908470493,5.639401814095846,6.203773411034509,-0.1435844598918174
2.0817039713919443,4.870294200163212,2.086845787729873,1.4131856860590692,-2.704049710434102,2.709188844463097,1.3254451544100885,6.394640188068916,6.175243116064089,5.89750320409108,-3.8700718313669698,5.277234429959809,1.9182810756933903,-3.2198105247121536
-0.0838894043347267,1.565103221332424,0.3302245080980199,1.4553626361417416,-2.945235923005367,2.678026608878162,3.4355592889125,4.585679835036442,1.5329965033409056,3.0844025662514074,-4.832927591635207,3.0536933295269564,-2.9028988037414805,-2.48618137121074
-4.075390774882658,-0.7721293637638329,-1.20239257283201,-0.3982764108551673,-4.895280533626478,2.2472295489010268,5.030113816390963,0.9315622612515098,-1.804896233187776,0.0291266183837919,-7.272423588364509,-0.5983925094504254,-6.158917700657904,-3.1166069134173457
-10.069632914435603,-2.5974467181437184,-2.1160416508224493,-4.550411713091006,-8.641413260314561,1.5507208408901447,6.261572031893956,-1.563548824658639,-2.1434858350028527,-1.8614220997617397,-10.279397747248426,-4.569231050246144,-7.594611852428141,-3.636309834142541
-12.158561635692053,-4.425886490480089,-2.6071681474717234,-6.985183185189074,-9.374531290598084,1.947620460133328,7.734848201738882,0.0189202064015603,0.4439577408405402,-2.0140925489819548,-9.84276195927487,-6.957087568787184,-7.941787167798871,-4.324408851477001
-10.110943648074102,-6.133195214261479,-2.9813644333269345,-5.778457657592601,-7.163100343619628,3.4329767159471523,9.19249490320748,6.509078562415855,4.419277177426471,-0.7702982679356918,-6.011174854582151,-6.006116694273638,-7.495105028988778,-5.798126384649854
-5.715997409477791,-7.141337747438303,-3.14952491020072,-2.955790989944746,-3.69880631867501,4.714560605360823,11.007774160206738,15.704979490318015,7.6572740268570065,0.9248496879764828,-0.9351057588027508,-1.5835456362632725,-5.819955411533172,-5.094612198514335
2.6244560096205825,-7.088893917804173,-2.49990808186077,1.7366114126205408,2.151247807211523,6.044250589370873,13.249109832408154,23.495811802302057,8.479833273448012,2.004854610019948,6.3042188367988,4.2780652175754526,-2.7870196497879505,-2.2714366319149524
6.044903382235877,-6.178933994863563,-0.2996798809605252,4.4547844456854735,4.214044660005456,5.978874460780661,13.249115556732582,26.448793934237766,6.504089071673121,1.7674096776353707,9.709013511939746,8.62568725522452,0.5152243338015658,0.0666141693165485
4.052638125319707,-4.883953559839668,3.5803964365363434,2.621672342729348,2.0222493032417472,4.150536694943047,10.865202947515968,23.96260061160972,2.93893279867018,0.2521755486134616,8.579972874894501,9.75482457727874,2.352341445988777,2.4219762104705964
3.1115160158258965,-3.4466750714351093,8.16772902261534,1.139282941707779,1.140957270126839,3.505087464044215,8.378818984852446,18.374164688406708,0.0253806666970746,-1.638508049536437,8.479237338531732,8.413427964754074,2.012758505555915,4.488547462006233
1.190517141505737,-1.80538523428309,11.677520220375786,0.5009173004166095,0.1955842056752894,3.742361401502619,5.197791155064818,13.061121900484022,-0.2659698396273704,-2.460305154205713,7.938962090208395,6.953985597573666,0.7540031082788161,5.787472180759897
1.3192203899381665,-0.0283482128629977,12.607067853967315,0.3876754247336703,0.5042829990111464,4.208195286063943,3.6712518298780616,10.136417907744914,2.45545629975134,-1.0043810245506677,7.689374178632969,7.233317798315603,0.7887584985771419,7.023260595721044
4.443076038143733,1.306768549331501,10.876161115234076,1.5585037643271078,2.9595843959914223,5.474142235992093,4.337189127226314,9.454832691694351,6.652136295833781,2.824865822457216,8.49779848450794,9.164345070249794,3.1417874839807816,7.932500187229584
4.959044928575102,1.3642018202675956,8.003786031201532,1.1169785631642977,3.1131008132034315,5.487874199683896,3.4326166518941776,9.3824977782486,9.858837017422484,7.656559932439926,8.317690327252079,11.100927900354506,6.525876715357729,7.708582302529997
3.5867024376878547,-0.1652113255301053,6.019091750198015,-1.646300581254729,1.3228140424680674,4.166663155839301,1.5092817067020128,8.359164268810574,10.360598962507789,11.24992544069671,7.513506113506555,11.481040093256262,8.442835086091108,6.294002247403851
3.097962736489193,-2.5030152058720248,5.945693235572431,-3.4468279757224254,-0.0939791424547573,2.7309155270783707,-0.012527853532166,5.913377002114139,8.263438655610791,11.803864141318789,6.997721339267136,10.108232599717509,7.455967808757052,4.08814375491046
2.6590597707000976,-4.118896638722283,7.162657768646763,-2.6328626916885285,-1.9023506699403372,0.7091973194562877,-1.7035961479397772,2.576054279916466,5.144771606421895,9.12628901231252,6.532879365698761,8.022189967959562,4.389067154626666,0.8607585253680416
3.937736911433522,-3.82529716556212,8.183685301098095,-0.2984416187524427,-2.921755279565032,-1.086040593730064,-2.776479106978044,-0.8338389203813215,2.662348695859521,4.804042105246378,5.312104550351555,6.363614662023473,1.3536148382638764,-0.3497672550837345
7.441408271297052,-1.7331195179483352,8.085747217081583,3.3235073538575537,-2.800008914409496,-2.501239951423356,-3.051555381075419,-3.741471433022298,1.348154243276248,1.2093547783530774,3.3898438738570897,5.473739946946736,-0.2623962975800644,0.7474697671585455
8.690342876186389,0.7754186788196868,7.234518544531237,4.723968446811677,-3.8873847454513832,-4.208495215604754,-3.6026449857800973,-5.831326003122474,0.5482663337156772,0.0313431515523738,2.827197081299404,4.983336338711212,-0.7510397830059432,2.205952633961344
7.942671713081553,2.0672237395646214,6.676225877288925,1.780657227204208,-5.928710189660817,-5.983008983118137,-4.243026498711233,-6.84585660934912,-0.6153577243652038,1.3392232390802654,3.629927522600122,4.5200872016297,-1.157914339160513,4.833626479857895
6.990235640337778,1.4546481694349715,6.881799367046831,-1.568581050582724,-8.000949328372997,-8.128762938692981,-4.161862562572546,-6.594767470177104,-2.261995735091737,3.747126388762318,4.633319317975834,4.12651649155918,-1.6906222694231872,4.84463232055079
4.930413961646357,-0.3386340552447251,7.148605094882623,-4.62696722181751,-10.507163838692511,-10.73045403713286,-3.462395835020431,-5.208608594244964,-3.6491200358605766,5.450474683810118,6.30190187219622,3.9929553696672144,-1.3079119031489697,1.7770091044971414
4.6235829369862405,-1.7122643200148069,6.300451308677541,-4.967629005452101,-10.88264440507164,-11.552395238129986,-3.1113180731896337,-3.293578584725843,-3.9499776006431873,5.364543204583672,6.306196644533375,3.9824134231865,1.0514825784473487,1.301662751383567
6.364278280969355,-1.272225781953587,4.026066877407253,-1.600861425054142,-8.822414193454255,-10.48776714901812,-3.0307950015118528,-1.7222601007326226,-3.103283450236205,3.645456648472916,4.344651473929603,3.645980260283423,4.975931951174534,2.71317717522012
6.688665704806972,1.2472357119075212,1.5062306898310247,1.0024337480907697,-7.695334083742505,-9.351565408046502,-2.467693349217871,-1.1924633314492254,-1.9264588664366364,1.372217300863099,3.2675966837768167,2.785048335639015,8.514614139866488,5.619399440649147
6.169679380306518,4.720615168344931,0.5691088579596819,3.320449538866964,-6.972763661956744,-7.645947071805949,-1.576234344752029,-1.9112130914845429,-1.4214368464132343,-0.2845956513174243,2.5638370801625747,1.8720508593592609,9.728177412569355,11.148416628851889
3.675719262201545,7.16111071648462,1.984004910100758,3.6079562164644,-7.380927637879439,-7.655806629568392,-1.9415439961124643,-3.5895730973115327,-1.9549986500007464,-0.8189167144101042,2.0077809221460154,1.6860469479515974,8.351632359849962,10.921280547101572
-1.5418010474889368,6.829729544103738,4.409088629865373,1.0841480538237556,-9.62480602027466,-9.837015317100102,-3.599727545559854,-5.631037593531016,-3.0738874840306067,-0.6070191999347152,2.070973552081589,2.3651299699905124,5.928110207299913,4.576378434736645
-5.568625190885225,3.3603263887571533,5.079898995819852,0.3722105883096122,-9.72646825735596,-10.794876691870844,-6.461129804748348,-7.339532011588956,-4.085452472497977,-0.5153511057903106,1.147730025667633,2.8334954123681,4.295577759386582,-1.7214280404004718
-8.72012166355629,-1.857060612287912,1.8521883138610349,-0.7210500031417972,-7.85809289714156,-11.058518042090162,-10.989209682621938,-8.144856752257523,-4.811475372943246,-1.2263566599415403,-0.745133961199729,1.3632473402790095,3.9081705463911742,-9.844195789798285
-10.684366246951718,-6.486868123334279,-5.02934824066778,-1.4547524991699503,-8.150850083283919,-10.97652504407938,-13.16562512678952,-7.893893487188658,-5.783859936692432,-2.776313798022886,-2.693616980327459,-3.017799685954854,3.5728852719070723,-13.553141675732627
-10.544681732496654,-8.832501691346376,-12.924959079226747,0.6277229470170662,-10.043849461622802,-9.954515398594474,-12.817579573838836,-7.046059109918898,-7.709182430709458,-4.613299426165934,-5.023130500223144,-9.451271617626954,1.7625429439020994,-11.559733332605488
-12.464830344142502,-8.980487340500732,-18.57836067282485,-0.3472748722077187,-13.731215275283306,-9.98177831510148,-12.705046834295532,-6.462439583348397,-10.723312882278146,-6.089849277065981,-7.68194096398773,-15.512750415977308,-1.8162347162813148,-11.305974374566729
-16.277521872181403,-8.464543733012938,-20.21400465387513,-1.4407738035095272,-20.080720858297138,-11.04627872227112,-11.906791661615909,-6.7591441417483225,-14.11053023720471,-6.985493378144052,-10.592950133322928,-18.70188184812759,-5.858451317659424,-11.157656056484928
-16.738715144938844,-8.6557866097519,-18.32240661229681,-0.4638952674191051,-20.01063313019306,-10.18019100311466,-10.75561579828053,-7.718282776667841,-16.666574363365235,-7.644072342575488,-11.809774273120414,-18.008851244170266,-8.536901733951463,-10.055523894318746
-14.339970473351606,-9.338668321451127,-14.757943838532915,-0.8092268878619506,-13.109772103446804,-7.602290799203812,-9.527237988568585,-8.377587610741813,-17.296988171263347,-8.606235972323372,-11.088543062075594,-14.392204835596925,-8.93432297520595,-8.9884656658806
-9.21818597686336,-8.878483024790388,-11.20430990074628,1.0927177968719677,-5.419299381770316,-3.979939046768103,-6.534768226818351,-7.839972277081921,-15.377849234192096,-10.002133929281689,-9.461293625740444,-9.958492975450117,-7.553931116896742,-6.254120381143021
-0.1879222603639679,-5.91082096987072,-8.344479772371146,3.257902737033862,5.183115484790216,1.3271242866272648,-1.8128762434306305,-6.080556597675193,-10.843110164931057,-11.176286742148182,-6.345202370032995,-6.631810444008572,-5.606097480072729,-1.8687127675439967
3.187018024854579,-0.961843765238614,-6.118643709209463,2.7008255923092364,10.68302766300833,4.581876485906792,1.6022482390351689,-3.942150012156782,-4.291400788367535,-10.907040419664783,-4.3188842703062855,-5.281050207064933,-3.8884837902758496,-0.1263904761434692
0.5372696638437874,3.617250238817305,-4.386696799335656,0.8821103947502419,9.788879631958247,5.567406092642052,3.83919913134606,-2.2898247099706004,2.824538916198854,-8.199509179663345,-3.593867821579881,-5.660521150209851,-2.310294734500861,-1.0459858726164082
-2.0906264823696823,5.449959863385812,-3.188979841545443,-0.5808237285814255,10.83247759351743,6.662889709693628,6.039700960240842,-1.1623948279850222,8.337625529864622,-3.1820167112383926,-2.534735573893,-6.847867938929668,-0.3835035758099208,-1.0562249510722097
-6.915320169017127,4.060204333954815,-2.523563918387044,-1.255636017112021,11.78249759703684,6.969845065852144,7.540653603723133,0.2199569227433349,10.23892921123954,2.567426714536637,-1.790891925664181,-7.742187303964056,1.9099760965547925,-1.0065176646312552
-8.552499107250412,1.1817181907267225,-2.167321049757717,-1.8533226791132595,12.389831244095603,7.493023879355342,8.467921909459676,2.5938953265428237,7.970878968222464,6.665436957240567,-2.633033106722672,-7.498111603918088,3.73212962045014,-1.8350117435495996
-6.0328296711213465,-0.7925262708197902,-1.8858668777840155,-1.7182152616928617,13.749927920303213,8.481353914536111,8.782711338180054,5.78050353751,3.1126240261642515,7.26633686441831,-5.112941203475496,-5.939578210474581,3.8389835307529694,-3.1210017416408475
-4.740636546052607,-0.7861511810516149,-1.7553561069575083,-1.9250553549028124,13.551349425444938,9.278154501677742,8.712472191718854,8.630271754424184,-1.3771149968293646,4.228457930006777,-7.965431081252947,-3.7810103379543847,1.4930010603431034,-5.903165150754882
-3.26778415962128,0.301803458039938,-2.0926441244523035,-3.1008002821720044,12.017572244257874,10.198543381389849,8.26332251607222,9.824443729824818,-3.03457715584492,-0.7544980235808749,-11.476410517624272,-2.2816182035746277,-2.8672245912378465,-10.35091665640604
-0.9974676747321676,0.7383825615927524,-2.9486609358612013,-2.469629894951676,13.385868260054648,10.987937599371891,8.572509822627916,8.833979642323104,-1.4669347418949883,-5.184487634783,-11.080532161735176,-2.2779748636565182,-7.65936859573034,-9.841153386853568
1.46992637437144,-0.2214621287076221,-3.703038246509648,0.1071356610095768,17.621330327841775,11.6269517565789,9.822650819093717,6.301563658235001,1.668489448652393,-7.189557652240482,-6.118140335322855,-3.2422849540762435,-10.836287092108693,-4.061013396852853
5.239144753477979,-1.4844667080795428,-3.2973566444487368,0.9617553352511437,21.451739467314173,11.519719441996042,10.52413666488141,3.650493352952391,4.2459910120733095,-6.328911479401025,-1.0621230555748855,-3.3177946472551394,-10.795691464729869,2.230948214119276
10.319413800863888,-0.9798775313901782,-1.027745335155199,2.5311869526308595,25.72020495189137,10.53687609696916,10.947339151479047,2.2649383675176136,5.418829145589352,-3.356403554940071,5.271845070534414,-0.6320625232838459,-7.0807380174881445,10.57490839726446
12.695295070909118,2.51303217825786,2.766413888130316,3.836761510272427,27.156440057074,10.612001026473568,11.589052343305992,2.7510056743994014,6.029387097232019,0.5841837840963233,8.816586812819098,4.996329116986647,-0.6236936116745344,14.230793376378926
12.241259334748529,8.110096367642855,6.7406769095274335,2.302099615879849,24.98444876161285,11.702166997683197,12.244828331507296,4.639932738257592,7.431952033549682,4.539729498579829,8.603567436924408,11.414052954560548,6.528220035980938,12.06174766262396
10.467305609438688,13.196204693280796,9.328276521239548,2.658004401750405,22.58858851413568,12.28721482066399,12.668736900205475,6.659020036316106,9.920669599906097,7.793957864501629,8.89161573851249,15.28668693131944,11.950597446995396,10.574042262397397
6.330415408239379,15.169906755027402,9.69015367979306,1.5743518132892127,18.995337857792972,12.723062891528656,12.870765532009155,7.446939590280586,12.26802417925614,9.737781267611169,8.479390285628414,14.3052531381739,13.85853889852156,7.967661848549353
3.995478600896767,13.235684633458703,8.16292150406609,-1.3895191573363244,15.279027066808988,11.08871590805299,11.515753438555835,6.342357237259913,12.796696900845534,10.00967325032482,6.939603771185902,8.79167380008155,12.00073259941514,5.92680279064558
3.7144615357129096,8.905342964168108,5.940126433049327,-2.1501128383393384,11.909420351464998,6.960697750088287,8.39352077547794,3.761792447512489,10.959368710147231,8.831115827366231,4.694161732046371,1.5175946561069615,7.879323159445737,5.3724592225352685
4.634079928518668,4.876058257997409,4.255202224065176,-2.7057467707717984,8.157550409223505,4.137863969632903,5.669761974742977,0.8828787920747345,7.924232370748072,7.024510013341834,2.586171072973367,-4.056484303233917,3.9534774194197073,4.789140621939957
7.931461920125363,3.1611159335505103,3.631315915262858,-1.0759544477107554,4.473126074379721,2.246794834632396,3.073155158355474,-1.1708027274728323,5.590387010825458,5.456392328232041,0.7678241676924741,-5.8152437580861465,2.1313911005558595,4.936141353633994
8.782903390850041,3.8446296759490046,3.6852585910899087,2.023244459774046,2.437371545349743,1.316790534578408,1.12965881054746,-2.0454487578510694,4.929695068932077,4.341777500551455,0.6728256498767433,-3.9881534460692016,2.522358249521119,4.353293676308195
7.135291640817969,5.288957094810744,3.5971288996894835,2.3870331260550723,2.2864905982389585,2.184886840555519,0.3369856936827687,-2.231531350619271,5.201652228139651,3.145136941477979,2.7916468815579005,-0.6804592905942233,3.452114122333008,2.9402648889861847
3.5117576671801483,5.513751478781352,2.8949261213962867,0.2899923470851382,1.0010292261096652,0.6579815658612489,-2.2753884577073986,-2.4731468936064296,4.795146869658971,1.2809654651671352,2.3212024223750696,1.568444537409988,2.88118948027722,-1.7668061565183348
-3.3641804980571828,3.6523872697621407,1.9324091850992708,-3.8806080326816432,-1.1305023330378017,-3.2270901677743016,-6.594187764700372,-3.0415552052856203,2.927584960818612,-1.0370064557130476,-0.5436718904456551,1.2961084266874074,0.1836269807075226,-10.453744617320831
-6.002153200089182,0.4508185714411041,1.6070777381533787,-6.997009877041747,-2.337482511887865,-5.06086486861652,-8.72776236746172,-3.500108673438316,0.5929271247486589,-2.690949748272814,-1.0565971922884585,-1.0798948624490414,-3.1960098338036733,-12.706507842119567
-4.214767098733772,-2.4123974986638554,2.4625776050413077,-5.369496237228985,-3.1099140546786463,-5.507110288045165,-9.021970598793112,-3.1459484971441336,-0.1970349020471644,-2.500487217020175,0.0562650694727335,-3.5488239545820006,-4.843731861083223,-8.540620110262667
-2.382345068795868,-3.523606085870136,3.932301742111204,-0.6453306345813813,-2.083293550843769,-4.273928379612213,-7.7282462740185345,-1.7171840782391057,1.73713281925124,-0.2635814875147257,3.5074138888822466,-3.7550799487112254,-3.361661564057446,-1.513940795578154
1.1952102832030072,-2.525863386147588,4.518251526793212,5.213182556146193,1.113712365261686,-0.4702551835012403,-3.9719895204143754,0.2716714791619221,5.4607741256571645,2.992757138680237,10.297473257963851,-0.5422423183554361,0.4591364817707486,10.890503174525223
2.9374924498586243,-0.0683231291302082,2.967239815636235,8.298527979820436,1.8164883470441444,0.8013291705865955,-2.616856382956919,1.868637843456998,8.416771610075774,5.811891486919402,12.374688811751914,5.180389845357945,4.294804678254314,15.574317057454389
2.224494713197124,2.7924327715925354,-0.4604666108006201,5.917976202774796,0.1172065625060381,-0.4247755658528662,-3.751152956608755,2.40807659120809,8.348475399624832,7.434170823524775,9.647590591401404,10.932865008300798,6.175732048221075,11.625245024656817
4.040020308694483,5.134835075186081,-3.817918515530005,1.6765892059539826,-1.1448106129724545,-0.3599717846274189,-3.8734582451059394,2.004559791738327,5.058557803708829,8.232497825271077,7.512741443855147,14.299024056232714,5.937880292527661,9.497423911440931
7.616506877135329,6.357085217467908,-4.750891168183561,-2.0783459098994035,-2.917180157323964,0.0138397535319101,-3.998898606435752,1.4171385953389892,0.5509427335015076,9.094321108018024,4.259065255598721,14.550248886851566,5.034753195247807,6.185221354705743
8.62004347345275,6.177406501235687,-2.283187544147755,-3.746533675554802,-3.662955524292772,1.1811360018344097,-2.998802180066572,1.4300750278522063,-2.5256264905472685,10.357734539118477,3.966618776659159,12.995920713570236,5.025815722963625,5.252065495989125
7.537377910060368,4.711397663256717,2.40018136710944,-2.2797624369957874,-2.963055385441608,3.696950522210525,-0.3570422525122481,2.2822553789218825,-2.821377489000642,11.305568190380509,7.590284002432193,11.762276466213534,6.1910957149397525,8.243416896362938
5.434424036451013,2.562760486522274,6.866269162567109,-0.3302395204934376,-3.161976384839089,4.471840868238268,1.0024848146956604,3.5865264475594056,-1.0646333918129436,10.708426510925271,9.319215179405289,12.01323260526528,7.460963763320701,7.7596817934628675
1.4465159337499824,0.6314341715493725,9.242952949140582,-0.0524100245703081,-3.87414025085126,3.595202402468768,1.343344390652289,4.7337217015362825,0.8372033108404944,7.973642989936357,10.166600874172095,13.118877092299115,7.557557684760356,4.782757318210904
0.624852579518762,-0.3936019077481498,9.360251066135936,-0.0120291944057039,-4.054644515836431,2.272007631210937,0.869390336735168,5.388535449732821,1.4923714035965563,3.911416471283346,9.838700126241193,13.42869918051904,6.195363608269116,3.2345398645869152
3.3178441442347717,-0.435392351919929,8.371307295285405,0.3760176075714274,-4.014933330651441,-0.1645131018825629,-1.0451738005058746,5.664015657603632,1.047531952357522,0.420661122109907,7.295746911732449,11.859621640835078,4.285465725314021,2.0724874861262617
4.5600738171933575,0.1003374971490345,7.454674169725708,0.0446280526313083,-3.208729671651241,-1.7319128924284062,-1.8231204515370307,5.880022351025579,0.7375363042806455,-0.739398572264041,5.948995119004194,8.814889648679488,3.088044361307856,2.4828219407952266
5.417429534150241,0.829839635884758,6.934553279624211,1.127758808468261,-1.4463535095184312,-2.264025574066249,-1.486731070734849,6.170901908136507,1.4738979551318838,0.803785517566165,5.5207006029229095,5.676016575797711,3.145192264629147,5.139229422907336
4.10816473551751,1.625460257693474,6.5053108792877135,1.692471522740154,-1.487629403780586,-2.7105280908354104,-1.0783034418358144,6.318343599729127,2.8046873303943958,3.693007093198525,3.823794415410738,3.5160431873758484,3.8698128874794286,4.575976279660647
-0.3211489375016579,2.2372438634405247,5.997646518099838,0.3020075751997896,-3.369416561396117,-2.5485304203990182,-0.0230982518547462,5.9763116900212685,3.215178452125019,5.660953539469798,1.3845821818890425,2.357046553218951,4.008604724556497,0.8997493347277437
-3.5792060447657845,1.815450746972804,5.642140561210335,0.8390133939093887,-6.263741449892877,-3.385566329298194,0.1702111849707802,5.09034084540246,1.5062783777811193,4.945104004177364,-2.65288016540034,1.58306581229137,2.52857660856899,-3.981076021065213
-6.219236232119309,-0.8072539865891084,5.524965078469343,0.6818875662463243,-10.872456809650757,-5.347844549998574,-0.6195072114743967,4.09235701324641,-2.013314822969928,1.353495647103077,-8.70329079083592,0.8392492863065728,-0.7044198725249471,-11.31265637676264
-8.096801898238379,-5.976366400351907,4.987331747451639,-0.3840178139628217,-12.932694301392498,-5.822208696535771,-0.5241005678393267,3.5998301125063588,-5.635891626366296,-3.673864330532175,-11.262169449225436,0.3037461676566537,-4.821638965167873,-15.117764752368675
-8.351697248327183,-12.264830957649586,2.8775756609677456,-0.6630162219880389,-12.175214327514624,-5.038902410491716,0.1825372431179177,3.8012378665555406,-7.597752453149471,-7.973082363584031,-10.215531573926874,0.0690581025510335,-8.412105648241981,-14.951224278476833
-9.738233720276558,-16.91010919186068,-1.3601185261083286,-3.446491743790845,-11.208162767204795,-3.823883287370506,0.0076503212802409,4.090454464539461,-7.447891308590906,-9.907373512677266,-8.82012298683484,-0.4842757297515307,-10.274271432449538,-14.643432619344278
-12.034212815611353,-17.600843885064926,-6.780485428133279,-5.897263105202278,-8.98199080105432,-1.665683914489373,-0.8397389903425967,3.39671691327382,-6.210648039423114,-9.192459507955745,-5.819929683830589,-2.3536354207055874,-10.060699926962188,-12.714063120853982
-11.583391330495424,-14.148816719278274,-11.219363625532855,-4.996434608564258,-7.551931262387841,-0.9611751440106572,-2.234463405232336,1.0447245328388912,-5.246099834650892,-6.863450635070669,-5.058352661218847,-5.776079081122284,-8.436896780615783,-10.49132014089525
-8.616362874639748,-8.534973417662458,-12.71129831210408,-2.3011780772420907,-7.25075395482536,-1.9078305221896112,-4.476095564375659,-2.595980502758372,-4.944611388826565,-4.50397915286583,-7.123693362775097,-9.521649821682862,-6.602409716702972,-8.322488819732605
-4.5733504684311725,-3.3074540568438664,-10.92496898929708,1.8415393657496657,-5.929047379649149,-2.0686761752513503,-4.752241764343031,-6.309876454640772,-4.5297714301729615,-3.2816007825503224,-7.1725429067337645,-11.596330795398238,-5.445031083192466,-4.920477158290392
1.302544653874157,0.1663670179917872,-7.438633730680895,5.792653374267382,-4.084056358324546,-1.954855481873736,-2.899520356911145,-8.944897924153281,-3.143868747301171,-3.3857976763867224,-6.063091841216745,-10.913562793846856,-4.942901126386192,-0.6556498986175743
2.3495508453613576,2.0905600250632577,-4.644660490854463,6.063782679162601,-3.801362303007052,-2.0210733012237414,-2.2935567813728293,-10.18372160952825,-1.1040607632080914,-4.142205349748544,-5.19827664736703,-8.393712734701875,-4.327553170995339,0.8779279128772346
-2.1012825954754684,3.223372329730154,-4.163781596999897,3.479397033450301,-4.991123784353447,-1.930593871488392,-2.4128690220457982,-10.468941924650382,-0.0033180777331436,-4.615742378689615,-3.879303426074181,-6.378596356830036,-2.924604784063425,-0.5555602149282366
-5.417455495897914,3.734700714991144,-5.951946877258589,1.8365216069875905,-6.756209353783642,-2.379165022059961,-4.124842745867098,-10.279061958024895,-1.4273396993820522,-4.246750544674828,-4.289210814720513,-6.810416365526086,-0.9558706561129078,-1.3614875182436827
-9.133177387350464,3.1086530759388245,-8.63808537107349,0.8741935402765492,-9.561406336157928,-3.397514015844416,-8.161482983129536,-9.659343188149286,-5.42573998067559,-3.1440577049986853,-6.687487860088428,-9.764267548973708,0.4551378597767948,-2.3303658944299475
-10.72975540118438,0.98742069400864,-10.665662005353632,0.8179496647165582,-11.01961406894132,-4.165424370332793,-9.722221648942623,-8.586590172753509,-10.192099207500627,-1.9678015721776287,-8.788118167567081,-13.544264650071709,0.1459183789139063,-4.063638390048063
-8.991740962128866,-2.122272887832337,-11.30381422009933,1.597987999979406,-10.894218964969763,-4.795825951559193,-8.949933419277544,-7.696383355521128,-13.342430401456385,-1.5888725032919062,-11.084505560747772,-16.11555297195384,-2.106344261750247,-6.075775886163775
-9.769865807416483,-5.063922384594225,-10.84749050671157,-0.0477394190294739,-11.494863894947676,-6.093520682192792,-8.359151917025875,-8.310752931720764,-13.723465243088992,-2.731257689770868,-13.13697560022392,-16.56177489417415,-5.388671693861985,-9.201854462747727
-12.336631478958722,-6.8783105760029954,-10.04693052894051,-3.0727177321384413,-12.275571804766312,-7.976905267633817,-6.976170667297692,-11.365560159101104,-12.199941916397416,-5.681460478565708,-14.551847114374771,-15.451962404058497,-8.409008583231298,-13.456126477119248
-12.766083415774682,-7.387582459887728,-9.388654697084178,-4.533661020517154,-12.853209764533466,-9.000942845885698,-6.785910581157897,-16.14291439639904,-10.79004976913043,-10.083916685732806,-15.169762575704627,-14.082128328441843,-10.465902036174786,-13.911204288092582
-11.825797923025116,-7.043973179422469,-8.857079928892993,-4.3097760351819,-13.514466976325355,-9.201483783305145,-8.14983656020472,-20.224468571449844,-10.96679738149879,-14.903377401475694,-14.649054149059506,-13.424155126872884,-11.72686091304838,-10.280134218842914
-9.619806813404312,-6.396175129146766,-8.283079305507439,-2.6963143273722374,-13.591469700465982,-8.671743078190035,-8.050111183518458,-21.07451685120233,-12.583280561975606,-18.683300424178658,-13.897121516634344,-13.589444655469434,-12.655565191233771,-8.32224485996791
-5.460972729567336,-5.778735457565421,-7.805148189361375,-0.4092830648824913,-13.04630701684281,-7.032335314723618,-6.894706369394156,-18.036260506648716,-14.211745584304396,-20.103923584331447,-12.749653564833809,-13.978891101350357,-13.29335301424014,-7.084056583458791
-2.4975235761406305,-5.349296577426927,-7.858491194654455,0.947715775429734,-12.36634879346583,-6.38309011157904,-6.29536998086587,-12.942603837752102,-14.42583380201945,-18.599374194496423,-10.832061405367122,-13.76185911483853,-13.17187684628002,-5.588841224383814
-0.7261280365218585,-5.116283197089661,-8.606757893954398,0.9571776295579866,-11.405830789385188,-6.751587912123548,-5.820094959824288,-8.699731915612418,-12.868560601013066,-14.67049600470656,-8.251098497346485,-12.300923073750084,-11.878327019697826,-4.795909582548321
2.4419362344758797,-4.760101202205512,-9.390893644727765,0.8420720017501248,-9.897350482263398,-7.346097541032827,-5.8312070700588094,-7.03959002188838,-10.328727722239904,-9.67983867648062,-5.028485039331426,-9.407343001934567,-9.587132582742154,-0.3976057313451202
6.422819469866529,-3.5832107957348747,-8.91083009103615,1.5671786278194986,-7.865327668654113,-8.672899796506885,-6.590854664688223,-7.378991038423294,-7.981078746734795,-5.235977935914303,-1.1146230377287032,-5.465428298703071,-6.987164659400349,7.820399538437508
8.287037878764195,-1.0148493258782487,-6.216387408557967,1.7468591086078822,-6.601927569686047,-9.12105865061359,-5.86728170337323,-7.662460380218786,-6.531935901748717,-2.5138237674803605,0.7933456114170804,-1.3888580326046878,-4.773127505045434,11.116192190932177
8.126965916857698,2.5564775371861863,-1.698409624071484,1.0811031805604585,-6.172307552471181,-8.592508401157911,-3.662127387732202,-6.26388281608476,-5.881127323975221,-1.8459209588033367,0.4350791575337346,1.7081170283048657,-3.315403827041777,9.877376337560708
7.011109364219619,5.507905734717973,2.9445084231584038,0.8619562936673472,-6.2344396215297895,-7.876694552356976,-1.569510532518763,-3.1969686960704777,-5.374480719113556,-2.726722364655366,-0.0754312696938214,3.08606387546045,-2.769000092619933,7.3567854790556435
4.252868236636384,5.888002512534957,5.944112132282907,-0.8166708672827531,-7.154159608432962,-6.569987928779015,0.8600231198845809,0.2794455826928299,-4.318229529999286,-4.163729588124355,-1.423972714819767,2.8701746097384646,-3.237476497573587,1.6659960793536532
3.7069366214510864,2.990689043126324,6.885939418710871,-2.3190969774021486,-5.423675558042169,-4.943361869204722,3.544498462593474,3.029422379994253,-2.374897475563092,-5.18319474845865,-0.3578966520639977,2.0414726389269244,-4.548346647198002,0.405296054495013
5.682709971498368,-1.7754969848382558,6.968629413509191,-1.858757067958392,-0.7975513360495851,-3.0116193331476984,6.284215208448268,5.000075706183086,0.3693217081845077,-5.252082461013721,3.6479663844831753,1.8462150517452347,-5.841658109712068,4.210979591272291
6.846994209239888,-5.644694667865048,7.783415238773784,-2.1756622765371776,4.771378543802696,-0.6340847172321477,9.787837620433256,7.020898228059178,3.6468593174622574,-4.4075509287522205,8.018578742592783,3.045457640212171,-5.676028283936034,6.969951445893198
8.083722723780808,-6.353384085945383,9.777359418715998,-1.4517606187544383,12.19001928211584,2.137774472962728,14.012075526716854,9.878528538780378,7.335437724491845,-3.023884332506229,13.669996882805297,5.6030548500981485,-2.9454051775709527,10.462683713065584
9.994445337810712,-3.5665236087733856,11.953376585382784,0.6452343543902979,17.662930925692912,5.399168385104759,16.946767259346192,13.642705993562007,11.542671024066989,-1.38002699523925,16.39106578020086,9.021978611243522,2.0857246963183327,12.251012019535851
12.22370334029062,1.2198533567109149,13.129302681124935,1.9809399667560517,20.77974137035197,9.169355215513985,18.55007502035211,17.729897767191417,16.285745138004508,0.6235659225580461,15.57203571382684,12.9097972674523,7.723246571472279,11.412541537257454
15.935767416995157,5.973444790952687,13.409855623275575,3.9487486984388047,25.26305538635564,13.813714400607257,20.576434903219944,21.3731681286853,21.020205503315253,3.323747282189122,15.252751644873412,17.126526286487355,12.029314897153116,11.913139555054078
21.257285231510902,9.346472048952547,14.199909156850913,6.318916031001315,30.23820068855744,19.405199925627883,22.616257171523745,23.916201301270576,24.57593047818744,6.802034575902606,14.361198667729216,21.327084154365277,14.235534451172631,13.03236923686016
22.02216708638387,10.931665654714674,16.565704666433177,5.777709274908686,30.75582167175857,20.85243189507076,22.07410851867706,24.792331029325428,25.813746191645343,10.474590673530257,14.42368020417935,24.43538500602658,15.022997026352364,13.451911889687612
17.978460455390444,10.783453846182962,19.578076165204237,2.146997194379043,26.833809297479096,17.7764159110075,18.939842452421274,23.52914589957839,24.592333057263907,13.214521929274524,16.091974592272543,24.817772445173684,15.408888091981282,13.696111377629904
12.224137367657631,9.046901970739626,20.503189937812323,-1.1318379257111375,19.910688742879827,13.803432705728564,14.23844286815267,20.0484589300818,22.11893775880231,14.044193806159182,14.706187888904054,21.33090605662753,15.43931544750428,12.152508112180248
3.209165747303006,6.120023745179587,16.97728547775221,-5.9999457034990655,8.715038808493967,7.664612850183461,7.322154720417503,15.040422321248531,20.13585425774182,12.909748830863872,10.537575640439147,14.499148471104183,14.14014429980067,8.550940884409831
-1.2174824374679176,2.9634517239975864,9.28577822913932,-8.530541582396099,3.4228330342598747,4.66115271482308,3.3535868159320046,9.920655248915104,19.49233770097221,10.886404273301816,7.748567315181982,6.728769157335648,10.865218446736186,5.703361523224315
-0.2738145432938352,0.9205455069385984,0.5976870489215855,-5.18197841411298,4.761034045941241,5.615625982630449,2.781980653411103,6.190515503700539,19.40105646963902,9.54793534175692,5.64409843158258,1.1137158582550946,6.617121529468157,3.3165718771120662
0.3332233601825454,0.9406993903550572,-5.205900948340654,-2.8489256813428936,4.960968334483397,4.257401095754469,0.7030458953930402,4.586453268127501,18.18464172220829,9.888030452387202,5.481963271153356,-0.4608086993597204,3.773188157904752,2.205845409162095
2.5943860070624782,2.78637940559266,-6.320326998912295,1.2260800701306072,6.435876471447244,1.840039111537676,-1.7122756433764637,4.6311356215493085,14.89158206134792,11.57314603203889,8.176229527868147,1.4470143958349144,4.178661002237449,3.064865948957571
1.9896855112797205,4.952794108609327,-4.126254010301437,5.049101942371195,6.294006798547456,0.6316989925935067,-3.5709186184392805,4.894515115272155,10.207876041036984,13.106378893533682,7.3474779826889,4.208664584492311,7.293100190563168,1.746316414574063
-2.376904408411032,5.520125090415506,-1.8326689515507049,3.9976578485133416,3.4665560656211305,-0.1417571270989224,-5.469274715229077,3.7806010204139113,5.68909616565576,12.826238062456897,3.181522883551419,4.871648239166165,10.236633925045425,-1.5656729287163311
-6.760111803652654,3.4399533506604403,-1.9293364635035672,2.7210506846078983,1.8475097145747628,0.6016848891557225,-7.181894986920678,0.4036995357290571,2.027223863341499,10.054678722111444,-1.6469923489781657,2.0537315782895664,9.921408816354578,-7.5998586626691935
-12.462809485077717,-0.6301006452922877,-4.53448997750011,-0.1256695245000604,0.5272998378122328,3.2262985482167728,-8.721136952735597,-4.843792244593388,-1.8332009001381595,5.59340577816902,-8.505668565801807,-3.2939356703760367,5.525008869906932,-17.458626589429098
-14.67794872064466,-4.613499232985976,-7.754354154301833,-2.990246687450887,-0.9966156459291498,3.768813952443328,-10.054069638067896,-10.302509118476433,-7.63997410118103,1.229150017174968,-10.793914423341082,-8.670939913170702,-0.8048596654776823,-20.71196851216651
-12.64359089314692,-6.368687038963351,-9.455981485209792,-2.420417384983012,-2.2507060443227123,2.2971923346263186,-11.148493875417262,-13.763347752893749,-15.699967836503092,-1.3954797535982095,-7.852894436844761,-11.701580531610354,-5.58652275793327,-17.11115295552482
-9.522008082699411,-5.2424648027252765,-8.873085347391033,-0.8780076100201775,-2.3552893439730367,1.954761429668808,-9.024360458071744,-13.707446288056378,-23.771480186161003,-1.7614627730172394,-5.499513321698045,-11.53278364524455,-6.558426650078616,-10.562358792528205
-3.914562263993688,-2.6496652465677237,-6.869094318605072,1.345889540037597,-1.1326699840862586,2.0079554579968324,-3.347887801715716,-10.411707613630902,-28.279903178257143,-0.6491819222436241,-2.166647970533671,-9.12083120031225,-4.074155932403503,1.551568041172059
-2.2507590753751963,-1.0873878468535914,-4.932997283329215,2.998623865898211,-0.2907448980214355,2.29902859782775,-0.3253768922409177,-6.040408703639429,-26.982835281511008,0.5567301721700808,-0.6012173138165945,-6.394532152019934,-0.415835428275237,5.746144210885839
-5.247420294663805,-2.188623001772445,-3.954541034282704,1.95376263324976,0.364775559067827,3.278936804423057,0.4328017258512162,-3.35102043982765,-20.773259491506376,0.8893251872050705,-1.7948886272912097,-4.979688321848247,2.1263255930610505,1.0408799009386784
-8.20682765535971,-5.3087708507295535,-3.792119900606352,-0.0534184152273426,0.1928129090261148,2.617526920930048,-0.4412432854715344,-3.736932141797397,-13.03677478589626,0.4044508009522687,-1.5094066655489753,-5.312404210153023,2.75580178242301,-3.3457840159067853
-12.79491775008102,-7.862585630916612,-3.793125278750253,-1.9372973494501684,-1.2331034028419852,0.2541189327758726,-4.38720417465043,-6.103612345940718,-7.167895205033535,-0.0241062718246265,-0.5731717497388132,-6.5756406448990745,2.26147030368626,-10.689368432980528
-13.053620959548336,-7.2515948264095424,-3.580065790642287,-2.8614024456431286,-0.3621159972754137,-0.3172300840894162,-4.744529838693947,-7.638871935842285,-4.399174702151289,0.5085066113036767,0.3848037593045618,-7.329207076068268,1.997962637123475,-11.411813295137652
-8.033960761939053,-2.85578121539214,-3.299271525989589,-1.6283193118397308,2.757003824329889,0.5951079870275986,-1.4533655239559085,-6.031683160435616,-3.6008011039251606,2.219197507494844,1.9715223286862336,-6.353509715656365,2.7834198959345,-3.852531791412368
-2.6431023582475284,3.5429924819329277,-3.167807351738229,0.4410239829786379,6.913469419429493,3.113767225125624,2.109448549880326,-1.3788712481296663,-2.824877182578557,4.530175824780358,4.663462362775261,-3.247535044578548,4.4892048648682366,2.2738792563785326
4.751093107237439,9.206919433322565,-2.8972325457523667,2.094184078451414,12.932070663871256,8.053610251866404,7.434093109506113,3.8278844243130337,-0.9863249392741196,6.584203508306448,8.641169457468125,1.4242851929137856,6.366946705011845,9.452796015547571
7.837364422483634,12.44695318406104,-1.708042626272935,2.375373529533432,14.782563458030165,9.971465457953474,8.772603327713716,6.630102783338117,1.63906665691621,7.872845972146724,9.913930511981318,6.394462964406721,7.654884549527917,11.658705346351846
5.562984529612954,13.460226682104729,0.9449029445385122,0.5033554779575959,11.972496474618326,8.792044721752989,5.437986449143252,5.792168969762539,4.072675547770484,8.423981718470916,8.335633151770704,10.20362836304238,7.998457703861995,7.038039745881041
3.81367569688216,13.448589994148382,4.572600063576342,-0.9506826663620708,9.254373777954145,7.159498891718314,2.558184216578113,2.4463201512996715,5.503109965426216,8.462423038668465,5.0339893517133705,11.77623974108181,7.49575726425009,4.9926623830619326
0.8981429527516037,13.104641570804372,7.60200985762917,-1.478694552294817,5.181553619330261,3.8124476223789503,-1.2759003124489503,-1.143964143097744,5.669046201056897,7.998709758802875,-1.0702860118520454,10.856944364707696,6.460098790662395,3.85592278960152
-0.3787091335326544,12.054390724964186,8.305034588257776,-1.4989825791058675,3.3852751408656583,2.42890907906842,-2.293199635514924,-3.3757184532399123,4.8266193304512655,6.862789973628001,-3.1729480402585377,8.101221506529551,5.143721139940489,3.2132058201928797
0.911136428337489,9.727261643101706,6.0563604614151565,-0.2256234606944885,4.725783204675512,3.406903923794405,0.4987866291180542,-4.046523498588174,3.66249128995101,5.179990523156556,-0.8793100574945639,4.730196694958229,3.6598348202349857,4.62546071836286
0.7041588744691065,6.548728962416972,1.9010325774169257,0.5565188676726835,4.971271830259872,3.642201603551526,2.150622355900257,-3.692127960425713,3.159280034623825,3.6979991661963463,0.9077046346553616,1.9039084898213936,2.1512207029991472,2.687025188862814
-0.1789909448329445,3.975165714800156,-2.0840277105474154,1.137868535998566,5.129652813731638,4.016809797203814,3.7127641290718234,-2.5879921141111986,4.134486445976496,3.3932617295168197,3.769079154335702,0.1812311260646595,0.9801009842928394,-2.461316041833722
-0.3085842074824351,3.165041343158066,-4.169906982724221,1.9579716543559849,5.644751311122787,3.136421022930749,4.0133595444580585,-0.6097967559784632,6.5094169296152105,4.50990921181214,2.953371678554178,-0.6016795580581373,0.6128833094387129,-4.651044009160486
-0.1674979818486685,3.6714587048903713,-4.015329906171503,2.115404931525364,5.988649668367224,0.5073966600495452,2.1870711032069168,2.0215718015009747,8.944081848449201,5.930742618377465,-2.4850726625649013,-1.0037053219610623,1.1433762601728876,-4.6126868904004015
-0.6154766023276362,3.696605391728864,-2.581317180136402,0.8598000157041681,4.998160656176735,-2.421537796018518,0.3141484614758597,4.19357374013677,9.461035725974671,5.701402877296172,-8.031690607110088,-1.498602621006663,1.867718552582592,-4.375214923956876
-1.5772899759243129,1.8758486235635896,-1.0963260440953029,-1.8276332104415085,2.423428329420874,-6.133660348039487,-2.1654751003341475,4.454106604155227,6.855351168301254,2.530641801339276,-15.02230234561196,-2.1983952276551566,1.4803569208801246,-2.825919337506671
-1.6693891818857227,-1.152087959380598,-0.0239413523274665,-3.5639239320526244,0.7356772474468596,-7.649404402295045,-3.320364182946262,2.3012541351662508,1.8134332205504968,-2.9480972175539364,-17.239599259967942,-2.898139053573395,-1.00627203659353,-2.5507315527203884
-0.970030368181096,-3.110207717719355,1.1041829334720124,-3.0863102483957645,-0.3040590019623195,-6.55370695733673,-2.7269435942072344,-1.088023974754087,-3.294596240465681,-8.360394463027555,-13.581589148429671,-3.2778464588995337,-5.271057316233862,-3.784419049321313
1.8874827321032608,-2.223363448147724,2.958761249261544,-0.6797631408977468,1.6476360337096323,-4.844994861411786,-1.500102036939271,-3.558624309134565,-5.937629959812224,-11.23568898198743,-8.953050718225754,-3.0422638407045044,-9.55248265994515,-3.792368410553813
7.391065942669249,0.8992548012891843,5.538129467422444,2.8331452239109995,7.377950185593215,-1.6780059357814812,1.0034414831927536,-3.5884824579128214,-5.11960088657357,-10.784654411442393,-1.5463666189637273,-1.9567823545121,-11.693143340604264,-3.101775336186957
10.023467059561025,3.5661500122542678,7.942612601018819,4.25300939345785,7.831659645500278,-0.4981434061124705,1.945585594898731,-1.3772943254196883,-1.9335551740285464,-8.28569918556916,2.415973296618526,0.0940945674619513,-10.641605344347616,-1.4987443029676155
9.87514188834384,3.3410030074125725,8.948661813343733,2.178125823400208,3.1725435238883315,-1.7199031560102056,1.107580399308015,1.5366314652366757,1.3968187498477145,-5.778647541995365,1.998169220171244,2.9462567861929063,-7.206722519225481,1.4949677574507612
8.795761080354222,0.2532380392044651,7.868100902668402,-0.2316855496067787,-3.142088644550093,-2.299238656613949,0.4077744494534455,3.6891553278695888,3.1473398444487906,-4.298768430856175,2.349668227569494,6.016752619901833,-3.433921252969405,6.102981737354387
5.500859857357416,-3.2163544453028674,5.047770152712257,-1.9072684072828163,-13.16887375766558,-3.087586998384414,-0.8482987205271773,4.772224118994156,3.106654344825124,-3.2777112811747138,1.803070208442917,8.4085114548832,-1.1228595257169296,12.656870060551102
4.3106337309660585,-4.378140217968173,1.7293766739480496,-2.333532127159645,-16.759226674534368,-3.5796097621762613,-1.1100806235377323,5.446166091921562,2.317228321112877,-1.5945192856390946,1.3116704173775933,9.320294503493225,-0.6934056788438152,14.563826369561015
5.4606233065909615,-2.724626030375081,-0.579997802212036,-0.8644590449783828,-13.063383118112952,-3.3733894694765207,-0.0855611863747372,6.23264875384668,1.96853995501211,0.8422423220691897,1.425205098011974,8.518218860476956,-1.2383392924560717,11.419127534863303
6.622212032473954,-0.3049008891659301,-0.8797490006641802,-0.2295775168166026,-11.36046026211382,-4.268903365522803,0.5923795556335923,6.719378259113558,2.456002186636219,2.615102722219742,0.7297249168692985,6.48650205015219,-1.567526216755487,6.103739101282896
8.843795009210192,0.1683396934661303,0.7666665606014487,-1.086253706491352,-9.36646080706392,-6.119498775870679,1.325561004189879,5.93662825699692,3.289165969940056,1.97050837321847,-0.4158541272481504,4.0802763911867785,-1.2891859939392454,-3.152205850629617
9.10512421488315,-2.3116415613160086,3.192869620612228,-1.567505819959108,-9.258481082619404,-6.8471959012781936,1.8539402412597088,3.543955269725384,3.707851354493453,-1.4479831529753309,-1.1663920687097025,1.9174580462598048,-1.0768662973531065,-7.102992109689382
7.050365026880181,-6.2843320601764745,4.746083442223984,-1.075178989081694,-12.52386168457182,-6.641293499962369,1.9349467129730125,0.5966171944576413,3.3309231138546807,-5.995265997479002,-1.601853534506083,0.0024944834956954,-2.01663139356716,-5.01618610944224
3.821821434977176,-9.183003114196149,4.312505595379568,-0.1180943808774787,-12.296112079691833,-5.615970877893106,1.6092139948327164,-0.99625362573439,2.326570458935141,-9.203505363259424,-2.5483873942724022,-2.091513362382773,-4.624410974118025,-3.8579420652147576
-1.4655361171795942,-9.463635423169734,2.10430070100168,1.7098624986497415,-9.222857584001538,-3.3008353921657885,0.6880590434744257,0.0247578344451042,1.149183730659658,-9.719365746766256,-3.882865930584509,-4.633662685035997,-8.273912789668058,-1.4133796779661565
-4.339248843334997,-7.6621398628465,-0.4313890330038177,2.838252091281823,-8.952891144379377,-2.747468923855713,-1.405285350045567,3.096943605689954,0.2203868542734461,-8.265265817183721,-4.170625636301856,-7.266068376748427,-11.417123192611276,-0.7940308556504083
-4.539404668893788,-5.683519099502586,-1.6334482722991233,1.9550846107214,-10.577764049528309,-4.042456833264049,-4.837549837465915,6.047842332510143,-0.2108940205774594,-6.811035292796923,-3.4293783153358994,-9.100067381210671,-12.460201541824492,-2.9789052889768395
-3.54898366376595,-5.1794917414612165,-0.8697750189978848,1.2907970816747716,-13.19618012147911,-5.545251189681178,-6.963423407912673,6.553857110179983,-0.0989286777196341,-6.7782999109671564,-2.2804157345195555,-9.342198201551032,-10.77993061132542,-3.2296189095915016
-0.1575284987010502,-6.44558079138983,0.9399698734933324,0.5350977251379656,-17.81285655501856,-7.971419521202633,-7.776310692445784,3.676843059604352,0.3527717135946631,-7.911152050880034,-0.3893652250214995,-7.960202212733431,-7.252735686283646,-2.388436888964974
-0.7814707219171954,-8.557433749910956,1.914623830049969,-0.2109592510731476,-19.84125735007992,-9.374965641460134,-8.856312139950901,-1.655125124456493,0.7017943496275372,-8.732912685694615,0.5081567840122274,-5.860659185742456,-3.8668057137859257,-2.074399507159556
-5.795268518741469,-10.325286821238432,0.4542435579815347,-0.0052705496469148,-19.08749238017164,-9.507120017547972,-9.627345353878136,-7.40372817686546,0.4825218255077494,-8.028248118990884,0.2489711111471913,-4.432343240066938,-2.501383469285248,-1.6493307873352172
-12.22706879551059,-11.13139288236944,-3.747397394261501,-0.1166904070210851,-19.442158475039047,-10.286489130992662,-13.031492285187309,-11.663410397739398,-0.4506715452310814,-5.943807660673055,-0.0531634628011318,-4.754488152766911,-3.5855055084215763,-1.861416828435116
-21.73017873467084,-11.08813077273622,-9.523118316908713,-0.5750571406028169,-19.95375249603749,-11.255282607781009,-19.4863138216361,-13.496888712168769,-1.7915882802014202,-3.776026571513089,-0.8485404282917671,-6.950931214837876,-5.638991359731694,-2.916962999946548
-24.409224204447995,-10.65340461459932,-14.864647266732298,-0.9099123716414296,-18.75090365727469,-10.405087661838316,-19.603017090744714,-13.017054418569376,-3.080690646608627,-2.7630536199460423,-1.1797712155751952,-10.040797578940955,-6.237817482491014,-3.5778890677846644
-19.371515872239517,-10.185441469630325,-17.91719888571204,-1.1296227739433748,-16.181624818663686,-7.795259848600802,-13.452795263637013,-10.965478759052374,-4.19991617534302,-3.04216295681092,-0.8999623188131779,-12.368751669918606,-3.873582245123881,-4.015106546775103
-14.055250245674236,-9.761300104038115,-17.824350080288937,-1.0214400063256657,-12.953162939544097,-4.221000179367966,-5.673139061778618,-8.207373198601342,-5.54001437358415,-3.681852137988184,-0.2461931551279789,-12.432172282750969,0.7046863060574644,-4.710607639221332
-6.014991849389177,-9.257015288328692,-15.052830395881571,-0.4378936431198562,-8.76766987069619,0.7868787445827292,5.834562957563967,-5.39107002974832,-7.586156590795714,-3.6654610948923514,1.0889709072322231,-9.708254315582018,4.879217979060364,-5.473398058042185
-2.210822338444393,-8.523838266310193,-11.035853154022073,0.5179025299233939,-6.3717409904705935,3.0618258206845854,9.67331504503914,-2.831120016842906,-10.263572184520015,-2.858615135640605,1.361228829585745,-5.004507892159232,6.147024207829368,-5.603924340313614
-4.011542347767008,-7.515944500591026,-7.282015256751244,1.3935826872572816,-6.092772733184436,2.216593330664611,4.561731908092406,-0.6024831304492508,-12.692468551771142,-2.06018317084148,0.5065777435568039,-0.0534508949915526,4.124874555931715,-5.064424308288613
-2.1844085456153426,-6.300503407592927,-4.478834454346185,1.434639338650707,-3.2481197189881907,2.203713232392185,2.718068277270223,1.2164788483210387,-13.672010473205084,-2.1277509884423798,-0.8057410050666548,3.4532617566453254,0.8213862736111572,-3.833038094739728
1.5987955940639371,-4.954260011301599,-2.2615102047832885,1.2231270675354005,1.7001190948826892,2.061049474025092,1.566146680992374,2.308225459963385,-12.558935897258454,-3.065172163758064,-3.01888945504005,4.75434089745314,-1.1591555703145993,-1.6808034101475902
3.3699945738496906,-3.4503992447332656,0.0966273761831253,0.2306901388121299,3.311312305202673,0.647253341452937,-0.0638858075640434,2.089366967283823,-9.843907925648493,-4.010320998716644,-4.916869642157848,4.211121969202626,-0.955319965192345,-1.3505835751228283
4.296268551922278,-1.6944621287858226,2.6054649656666378,-1.673345617136487,2.061421612394118,-1.6120914323922877,-0.3905695700433604,-0.0169535005351271,-6.956781662314228,-4.181125349052838,-6.442331387421777,2.730180306298891,-0.2212107323297409,-2.986246939394929
2.172303763292325,0.2559894065952548,4.099091716208127,-2.578323251660897,-1.817583167277676,-6.22047708682122,-5.283810174500419,-4.127870202557972,-5.412169927753407,-3.820872260877609,-8.66141201572835,0.9730033765302936,-1.558785440227922,-5.466269964046948
-3.7541533416646526,2.018965132325981,2.991121851706934,-4.364857771411825,-9.579003036237522,-13.454611261450555,-14.778704148149876,-9.53632972020324,-5.859519907392459,-4.0711494472522975,-11.330153699815256,-0.9662452627781324,-5.94894181784921,-9.516752085317
-6.332646748917616,3.076829389611836,-1.2354606941622457,-5.052256685181801,-10.185124163796742,-14.60757298803563,-16.349752574807148,-14.70155632429138,-7.643481331082112,-5.71540425808745,-10.381093342004837,-3.2257531340691266,-11.478823605592218,-9.887915855022488
-5.821628334064839,3.313394722178007,-7.064967460902697,-2.8342129039667974,-3.1276007226496017,-9.343468109738854,-10.293647160063507,-17.708690586026236,-9.15131219036029,-7.970060085960739,-5.55308814674171,-5.618752581142267,-14.548914274651104,-6.145278885245309
-5.367814994377528,3.391996815347777,-11.482103435071473,-1.114850591767906,3.711500622818179,-3.0330742268315958,-4.335933461037697,-17.071068395563294,-8.75359299728041,-8.664383734004183,0.6358962062602129,-7.440248702388825,-12.566757608841993,-1.4829108316602666
-3.469723916643689,4.405198866833045,-11.777406997586304,2.915364706757586,12.851818920329956,6.393970776038185,4.073710594470346,-12.504405465583693,-5.791886035143476,-5.926624730759906,9.22872324640886,-7.817212077173377,-5.86625954937624,5.458615546189529
-1.5904998126588634,6.86263318327986,-7.324548134837922,6.575152651450398,17.02260592700444,11.470244411682652,8.329194431120284,-5.213189390890904,-1.024111659448062,0.0240094167854518,13.573233450990282,-6.270959066797344,2.6590066180471474,9.004302236322111
0.0803150524035184,9.888758765805774,0.0008865522938847,6.2079344341507765,14.723114455903952,11.115593120443902,7.022593821311461,2.561801062408973,3.754853033435685,6.660258405815361,12.884620005041432,-3.0294288019384616,9.718337678834926,8.468637123606523
1.6947449632847884,11.5647169505047,7.055584909437212,6.5575893419347295,14.601176010563185,12.53912475328888,9.871772062482547,8.54599015281433,6.6972088330258135,10.841974400620426,13.103775633797252,1.0953313125005923,13.680588320355042,8.411466152842406
2.818647580586316,10.396995316233577,11.380660004636866,5.350286771613193,14.765746053783898,13.865703011672512,15.336768960044736,11.431882022757218,6.892233435147469,11.022251561899337,12.575078932477654,5.108288217266715,14.980832950928315,7.380531592918255
4.911805090913862,6.732449292600734,12.47820830268075,1.9430021566531013,14.64199415358558,14.081318815511564,17.105057887113844,11.336349926589364,4.768167992480624,8.119008673974477,10.890442437796011,8.244978133083102,14.94198756959287,6.9294448831503885
7.910828993292515,2.767876742702008,11.626997876284529,-0.108440942732513,15.450945375529404,13.98631154124831,16.311975005342564,9.528990232910438,1.6996320274370014,4.464329574771665,8.695323567450659,10.211777181541816,14.366609403481707,7.638427822104199
13.430940182926076,0.9464832213303164,10.58062159057291,-2.7163564995072096,14.411477872270078,12.481505711896151,13.78581973551522,7.6495801007826305,-0.8727793856889505,1.9556702758393167,5.041473150505036,11.17815734954764,13.139699312685128,7.351679101839787
21.99208520028152,2.0173676826864657,10.257790292495551,-5.918154487534606,11.685353992037292,9.539296762682987,8.416381554499226,6.834609278962329,-2.209960639315195,1.0501171865608008,0.0086887814062509,11.533567310162065,10.893231293667297,6.547568311644199
25.152058091991965,4.444276761620625,10.390601723430557,-5.917878310852955,11.549235056792442,8.64225543167101,6.750552228942528,7.167713539633184,-2.443470199590976,1.201195338797639,-1.5470237945128522,11.552316131613516,7.794284041648488,5.92135316012938
22.788966586562434,5.736598927140051,10.221842359474088,-3.91997352325404,13.810990375503447,9.861342282602228,9.113781961168671,7.7449215820948,-2.112913754073979,1.9149607067748848,0.6831664635270424,11.22775034591952,4.6134278596795895,5.238907935908185
18.7981135388661,4.599437889176208,9.47092786109462,-3.773014547071329,15.879958937007665,10.20263775928812,9.364233676422383,7.378669152522463,-1.512322903244247,3.229790213975768,1.1787817803533085,10.450060056677293,2.1253734010411662,4.13654704372348
11.164820257354352,2.074074926488226,8.63774439275425,-3.1703808316167232,18.587953171412156,10.37485564225047,8.84220869689637,5.550755155786888,-0.4128553964697872,5.294248796135914,0.91465131429125,9.36446532279044,0.5686510095704023,2.6604946981580606
6.500155773366769,0.6969366143768525,8.39447169846899,-2.698912296643448,19.475408770544604,10.033029785815987,8.254640336508212,2.9206648435446567,1.6138016992320203,7.757201449965613,0.2791911025358356,8.46890710533416,-0.2973822181548655,1.190154950318133
5.423512059903007,2.38184307923963,8.708580316705785,-2.9283057793162355,18.02744079246444,8.708620017464751,6.72945173451975,0.896684738027524,4.595233664173179,9.78108084482831,-1.6672289051214877,8.18442240714841,-0.7244879655290362,-0.3219256246585823
1.8675920645189856,6.7758453178766445,8.617514843587799,0.9100319114712278,17.285574625809378,7.621048488643566,5.7238761029004985,0.5200653054266908,7.867010138908157,10.677444523681524,-1.6405445086516597,8.208197314139134,-0.7006515289057873,-1.8828113623040523
-2.675574481369693,11.416995486332084,6.9629612532595,6.012191439920919,16.61699971854963,6.564364901957767,5.150649656690857,1.5880663690232095,10.391438631500826,10.439009552635676,0.3152602801709653,7.366936481107302,-0.1659683052617637,-3.411655176220937
-5.591067509516861,13.545645743296651,3.456758936035847,8.057734106289777,14.674686148140264,4.714204139882961,3.872783115468649,2.826201959114464,11.41240890263628,9.591761813737,0.172410083268533,4.377172665749811,0.6061164447061245,-4.450755335107482
-7.4335888778782415,12.126144424093924,-0.9020543181369972,7.405511720584313,11.78924861183626,2.1890349520253194,2.092456457208018,2.9906783562148647,10.876701437071112,8.567975558182056,-1.6300353979529891,-0.944166114023858,1.0028924350513222,-4.911056231808595
-7.920228958429697,8.52810516197195,-4.4552368615793085,4.074832537153833,7.766245826721739,-0.564393281149985,0.9341218068882394,1.8947538667535329,9.309390879378,7.300684395297729,-3.488993601055221,-7.071285793517262,0.5537124476303887,-5.087776617486313
-6.535497953108672,5.401713095217659,-6.005943967073186,0.405383859106914,2.366955740613654,-3.6734315861047664,0.3056232713450975,0.4218326792884639,7.357479804125496,5.446589201215161,-6.121809195755602,-11.463891927400525,-0.5736347316496264,-4.828300376160457
-5.40636770132968,4.663612873585144,-5.49482050841587,-1.0879414820348237,-0.9874037403457928,-5.632653719177341,-1.2536943727033485,-0.430557157701898,5.45348400848912,2.9406379034604484,-6.984244762593,-12.190594357620952,-1.6187810606569144,-4.749143362764073
-4.403863324342366,6.133963372753541,-3.8016855252123207,-0.7231942292263144,-2.1202108833256283,-6.228868451881729,-3.621764220641291,-0.511139761530714,3.809761943778085,0.2642113820097265,-5.753304604923492,-9.264883690127718,-1.8491233018484363,-4.905504266395652
-3.0043127424227816,7.813704753392614,-2.062466431901754,-0.2057873726990057,-3.492325320939801,-6.700495273667229,-5.548294639275045,-0.5654516917338981,2.56266997659219,-1.8335293230979204,-5.104209693483231,-4.646916933318792,-1.193484629303228,-5.315350993674703
-1.653658780504265,7.533675065328339,-1.1625818008642028,-2.0231429007942,-4.30683791292982,-6.636648213995319,-7.249269340426085,-1.3839756495559214,1.796331714133217,-2.839318452161365,-4.446849711244482,-0.91215504629281,-0.2786180536386951,-6.178072134831782
-1.5653946553652665,4.690812651191678,-1.6158751838017054,-4.007276964216893,-4.969130163413661,-6.515355817473728,-7.254319806772059,-2.905578114680708,1.4291040782504751,-2.71311716679665,-3.649735195766937,0.3943552959735683,0.1772147719440227,-5.4033410350796105
-2.9658167561342643,0.7447950923832849,-3.504954504911097,-4.330362689342056,-5.749150928754619,-6.4893418784151775,-5.178665192720158,-4.120106616250908,1.180030772145173,-1.7235981500929256,-3.0989438736659065,-0.4652959939603533,0.0412275647467907,-2.897298527270856
-2.681972616903847,-1.9051438790371549,-6.23303280821149,-4.900121259507632,-5.752715584796377,-5.981730228172409,-4.544350921973371,-3.840690147094677,0.7544807472235249,-0.1657390139114483,-1.6367403476473683,-1.950305156634116,-0.1248550441527953,1.73651818801908
-0.8775137856150322,-1.807017089766049,-8.400660414496201,-2.981850839378506,-5.118892171693162,-5.135544321433716,-5.091603875905635,-1.666077605946768,0.1099286928943001,1.727151474468272,0.6999088322511974,-2.52611088088284,0.3871764508946569,9.170105474746222
-0.0718310820828951,0.3540347041685407,-8.35576715757874,0.0633159941955097,-4.758906099788894,-4.358871603795908,-5.263933426243581,1.6418504444174573,-0.469664846245422,3.6774264046795215,2.416661973677628,-1.69623096160457,1.758836285028096,13.115541550113065
0.2627655328503554,2.21416511544318,-5.374243999621257,1.3245627049337385,-4.607254602494741,-3.620363838684145,-5.724033523175063,4.609519208844674,-0.5937383464367372,5.29912657662814,3.64587876783756,-0.1100000623059145,3.4737045021127244,13.424481658018095
-1.1882145218834872,1.5181372704317937,-0.5367120547925879,2.984138621333889,-4.057573230700201,-2.373311094693596,-4.688445238936824,5.955733329096603,-0.1005325187687162,6.218320209521835,4.650421562165765,1.1492490211565496,4.767118978615542,12.03005257859618
-4.97392496446812,-2.146036304795288,3.717520329185618,3.7284247969327446,-3.272300013697264,-0.6647044750299609,-1.9026390373169164,5.32431382896921,0.7718837692233791,6.268690017990352,5.111621126305039,1.416864240725232,5.230541003500775,7.31229742056492
-6.190278097519213,-7.02515587546786,5.285634721942515,2.3041189146506067,-3.079576657333168,0.1968184713255428,-0.9141221765040588,3.4253134793425204,1.5142216351941329,5.574933644744903,5.401343661848162,0.7925466725139501,5.015320010243272,5.049888918587843
-4.990439662046552,-10.528079936627684,3.9734893593981297,0.7713850562479352,-3.484047657866817,0.2046800369382554,-1.472682119128773,1.5717066088248544,1.6764902035840097,4.487651606687322,5.4560016746225575,-0.1436592729630916,4.54000296227936,5.4495929345224665
-3.6832984292393536,-11.116716787495768,1.489269598064766,0.1839709931525076,-3.3581625867775355,0.0735692340488693,-1.1085429392613333,0.9221980438625224,1.1717684965630042,3.4687877941534357,5.813812265419507,-0.8569265849104397,4.099570709259623,6.451098712868799
-1.242377125635793,-9.266053912862644,-0.1765789008164375,-0.4564804859734778,-2.828470804628786,-0.4962439536313154,-0.4089851013898946,1.8464858791886627,0.3537695025159877,2.966494096495218,6.5836460818966325,-1.155312714327593,3.77948400829952,9.50802086002234
-0.0853764351076827,-6.832145079247567,-0.4414959683563069,-0.4375287133527667,-2.7580358060881665,-0.4833569008438978,0.1314990299577973,3.731506554658488,-0.193573650069311,3.2052647973770974,6.012799927489632,-1.125720457043073,3.640314683914937,9.142157569265104
-0.530952589562239,-5.491467305827655,-0.2715925525956066,-0.1880475184611666,-2.991539552900547,0.2467549299325286,0.8319286407155977,5.326819780280914,-0.0427621024597328,3.910842295935971,4.131129562689065,-0.9369072306426318,3.7932403432151744,5.049782734545403
-0.0889017721940566,-5.58351836543094,-0.7556237089750795,-1.3138286065053657,-3.6856490474411263,0.8151817809341136,-0.5691566582302424,5.460511961336941,0.758824168759709,4.233195215126628,1.200245242291586,-0.7757340818698566,4.155161327454799,-0.6404787617039048
0.6838400253136453,-6.194348040498717,-1.7384998732621284,-1.8082303318142647,-5.016021051741294,1.4811362513277406,-4.288421673593259,3.7411433848883178,1.675088087454995,3.1556558829191417,-3.2229352212476408,-0.9349258239676032,4.1592607789905145,-9.35380839870404
0.7115489931531387,-6.203516761514507,-2.053346136848802,-0.9371295141150492,-5.358453503752831,1.8003661580936758,-5.583245911408938,0.8118642639426881,2.022879858730576,0.2738227926384837,-4.95192681648233,-1.8417588708524093,2.900189712904279,-12.761327584670154
0.2502905687876811,-5.282136115108123,-1.1085596651214118,0.5362613266684766,-4.6827850509523214,1.634428480378852,-4.709232647686494,-2.042396256033264,1.452086776049093,-3.6721461484288938,-3.73369616528632,-3.849644586223477,-0.1917436130503063,-10.234951450498732
-1.590789171532354,-4.031908396115568,-0.0046566398731293,2.411449001963078,-5.191190025156659,0.4733318209633531,-3.4502746329003227,-3.700196365113989,0.2129166425443855,-7.104447544650682,-3.2550611626457684,-6.8536784309532415,-4.663273511850932,-8.290129984683107
-5.084957490702838,-3.2833218302149554,-0.7395696338398778,3.3391000626951124,-6.64524863435761,-1.9271701403153512,-0.8143145216612749,-3.852466494427034,-0.999512406112082,-8.656227443999562,-2.596285280511533,-10.01048346244906,-9.013722065579724,-4.966637704521985
-6.713421678201554,-3.2702517185912097,-4.100871612217658,1.916049307417082,-7.553922607647593,-3.5493849654291925,-0.0261570077946586,-3.018596636100062,-1.5032291365481214,-8.122879402618818,-2.2241894713682244,-11.867794011949638,-11.493078395174049,-4.050903746687204
-6.508155737487854,-3.423888831507739,-8.392171360244944,-0.5735460963691642,-8.244599447967587,-4.474471356668187,-1.3644927053295233,-1.975010977957864,-1.0327268093518098,-6.489678899800397,-2.6856491260350706,-11.008467874822822,-11.170332830307252,-6.614915416004896
-4.447137727701197,-2.948070129226065,-10.484973810809198,-1.6343330243574414,-7.364424764314269,-3.785129196278888,-1.2385649821648734,-1.152574012904438,0.1925909737489375,-5.046422117257194,-0.7544322434925325,-6.959888809418711,-8.488829749327854,-5.747814719696298
0.4289427765430921,-1.655758540279188,-8.409275500389631,-1.5177972636309982,-4.531312512819117,-0.8780244823969674,-0.2974006039104029,-0.5516370366826324,1.6947105754146523,-4.439863933263316,3.500895744227714,-0.8019231524304313,-4.962346416663102,-2.322460777060687
2.6906948801875448,-0.3045534672373922,-3.104212661637993,0.1403781606142325,-3.4929392547711133,0.625773968538696,0.7200339663941516,-0.1629935237386988,2.972856401013786,-4.493955417905834,5.432531515235193,5.090272926622397,-2.305302332113932,-0.1664707037112494
2.3311012131110163,-0.0660582295445735,2.3119846005224183,1.879346185942563,-4.052408319362138,0.951430784705535,2.3627472973999013,-0.3281068188371598,3.5531673414867164,-4.779548290784529,5.403525983431845,8.244414710067776,-1.577460649479825,1.7191640906388594
-0.5544513394189238,-1.4991452022600598,5.0555338679481245,-0.1717532864573916,-5.431538417635132,-0.6150499300820698,2.1200066345486235,-1.5211299660306352,2.980704042409989,-5.168737243665987,3.661339582242299,7.567726289862186,-2.744679723880317,1.0381398599860987
-7.440240775859637,-3.877488778353992,4.670712814427645,-3.894431907098856,-8.472463166176167,-5.007550950304388,-0.1908131544380913,-3.679347791991205,1.0420331658653197,-5.747921387244816,-0.869453441970551,4.06809952520306,-4.743568528987602,-2.990837193074921
-10.33622074678473,-5.516263010961168,2.847449984736407,-6.419885210770319,-8.552974525048052,-6.068996717077251,-1.1639327559689814,-5.78982766823664,-1.776392814703506,-6.2910357848704805,-2.209465512207817,0.227182037158947,-5.980332653782526,-4.798989704202428
-9.234337588352064,-4.960991265965021,1.5392554635164115,-6.010733074906505,-5.450077991311926,-3.888340794830986,-1.232544599753348,-6.31251493534517,-4.079420782483659,-6.056616886718963,-0.2704088601727435,-1.5726982074827944,-5.1339337472086015,-4.857412114349024
-5.743870101204927,-2.1686165205091186,1.3132171455706183,-0.3828911548716521,-1.7353178612896778,0.1366342294254201,0.6422429243631189,-4.266125436796159,-4.172234792608435,-4.331920595851628,3.345414674092165,-0.4544854522332571,-1.973174811514056,-3.0225221267852347
2.149401781288311,1.262875843957417,1.334697167147226,6.862514280777595,3.712673492683244,7.496869990153931,5.268022729622145,-0.1457344307997914,-1.39491446056779,-1.278511301488038,10.152587526476069,2.631228950764552,2.3071921595026907,1.9791922819352503
5.704627971712615,3.0913968311738245,0.6373493436940976,10.24981587785222,5.453725047416414,9.569450850419203,6.529264171644875,4.09614676784561,2.8322665474676825,1.8138820905314503,11.566962569883673,5.71201670186305,5.636507213598719,3.699633880369283
4.719464783614485,2.021181186123598,-0.7868023345374127,7.986647223231543,2.8557589992730485,5.92064148736398,4.528810264713825,6.071405913673473,5.44590013877675,3.2823039469133306,7.123015426231823,7.036527247212035,6.351176440794063,2.2200545914092427
2.9413709507624963,-1.2305864252680436,-2.0526347777130525,1.2661091982302652,0.1334768436721078,1.792327787208054,0.3668939600543353,4.341243684536906,3.799520738914097,2.322309666164756,0.3945020628642314,6.001822329006373,4.383070676460051,-1.233593741432342
-1.7205373937315624,-4.226278474725305,-2.2564935574283997,-5.65032623591296,-4.11545653864612,-4.875483269017829,-7.464278207630822,-0.6706211940541493,-2.066749103683833,-0.3245914613322327,-10.856432802899034,3.416734853661936,1.396955189012786,-8.240409165654624
-2.2293594548525086,-4.399908919984796,-1.141854232648953,-8.153874962715603,-5.225683081543808,-6.885881347799868,-9.806072816157489,-6.752285761591423,-8.921217729383017,-2.824630345156919,-14.920305392033145,1.096111634655955,-0.3635001108092694,-9.885210185624071
1.989460054665368,-0.9375218984774848,0.9347309628136315,-5.177142425746889,-2.362648066537686,-3.221328445121862,-6.262117282065883,-10.964594331468987,-12.364041944030646,-3.5063348698526937,-10.886298013135782,0.9040007962019274,0.2897047453546406,-5.803049884609836
6.292092026051244,4.4173248706819095,3.338875742908584,0.5879893825261402,0.2837438730457144,-0.490421188660539,-1.5783489541850848,-11.20790608139788,-10.01670824536319,-1.967230486511255,-6.291145842690112,3.548886659682722,2.648406554804069,-0.4674445132516125
12.407554643297493,8.37166061496248,5.246188247371322,4.855667056602855,4.003417506636038,3.13261114708115,6.484584486802837,-7.477528449345982,-3.3678857293418503,0.7360031228242292,1.7931786664084233,7.794568306068555,4.725876535475265,8.299450260472495
14.243309112581112,8.33721046198275,5.586934558022222,5.367512554578019,5.331199917593332,3.723284232043037,8.596701303372491,-1.984229828583068,3.2605818052040263,2.8507273762699583,4.152736834917265,10.863386636192187,4.798703501015012,11.931056289635723
10.88109963596658,4.315735145983183,3.4354998588412684,2.324980731979872,3.5082372145504284,0.110481872595306,3.760709447787245,2.138822400578249,5.827932372061696,3.038370728875549,-0.5648560423483041,10.171700637480797,2.6130636488816776,9.548612432349708
7.687977225428706,-1.0498766791227467,-1.0331283123929893,-2.509654555854383,1.5714166220024042,-2.678800162096583,-0.4461802638067308,2.8498164787122846,3.308869637339228,1.1112909208807764,-3.8982237649417337,5.383081480445327,-0.6328925463286339,7.299268629695507
3.0618122932823613,-4.345030853523639,-5.862634839740991,-5.313075840608701,-1.5129301262931818,-5.8128081207606295,-6.329068918906336,0.5341635990707516,-1.9760534833316967,-1.962445636668292,-8.199723489219364,-0.8719946167676369,-3.338615516330293,3.0098126580611617
1.4736931405117042,-3.742199558464449,-7.995088957145754,-4.6874527892543885,-2.124883908081959,-6.300369664507562,-7.448343541067112,-2.4083939773595944,-6.409043049569021,-4.670057361822046,-8.9884615968763,-4.517729865465498,-4.599428376162109,1.200761239124865
3.934569770467538,-0.07196813741416,-5.323761966964611,-1.799824566012537,0.3362783535821789,-3.14250392423398,-2.374524272552984,-3.467036117593608,-7.661903030354409,-5.784495372210671,-4.831641556047116,-2.9290392307750324,-4.530838502703858,2.78326303263601
5.828716631563556,4.055016286585868,1.3626417375237452,1.972000731793184,3.0652494325974224,-0.4519840101911915,0.9097306069134472,-1.8832541060226904,-5.871350506867316,-4.982882447357241,-1.9313410654136052,2.985305290998696,-3.80959804632414,4.014400945374149
8.43910318804229,6.196079329892882,8.377418691454352,4.078645775136851,7.0845778188518205,2.703596607422704,4.099826436263593,1.060309583540345,-2.888134890443041,-2.9591159311790705,1.0409589008174698,9.268188813123912,-3.0509908992420094,6.1976703685089785
9.108039314870338,5.573616593656709,11.494748447348089,3.387518881981829,9.480425096458706,4.443023931248703,5.572100777232906,3.4716575366701363,-0.6270867939431639,-0.977582829408675,2.039043213355288,11.728944694585834,-2.5556263750586083,5.73668437521955
7.044390861244626,3.2311286734179703,9.032094253718782,1.1404474379155087,9.776142829715443,3.9957960444280713,3.95111433464495,4.605794012393005,0.0794295197736119,-0.1127613578489388,-0.0652441201073995,8.931480175492396,-2.4188497022583704,1.9958313671343733
4.521070855829077,1.0738702395758253,3.198767679911583,-1.0428546480472958,10.098545872907408,4.346204400948145,4.854512884735784,5.307696388085645,-0.4671414991192648,-0.6294432428688879,-1.3438522199000178,3.042716289233738,-2.654609130588682,-2.757482880382469
0.6337326297465081,0.6433316245106369,-1.4641899749414051,-2.1893139430346427,9.623721735291609,4.876751252746321,7.698239887109684,6.810229400422315,-1.454293119832414,-1.9026920767189777,-2.5492186396319045,-2.0066685718296924,-3.1475243898410667,-9.602053531813622
-0.2693524231037715,2.332023624287956,-1.3852631047506634,-1.8382380492246215,9.0576181849773,4.929499394150144,9.08139990481749,9.147820094894143,-2.132306872318054,-2.9225938131149007,-2.9046980596031,-3.4397334257266152,-3.596032219886098,-10.755241402370116
2.345305999374036,5.281418782446252,3.549719092626759,-0.7846661838756656,8.578141443590656,4.886900257139136,9.834628935899838,10.794387603578798,-2.038509812167291,-3.0107763998869927,-1.7086413614447813,-1.3160024087140698,-3.666167674263022,-5.42393736868325
5.787044907459977,7.871725459259636,10.140576793745424,0.1406116601258961,8.327550955441103,5.159305001144419,9.130038733368997,9.93225106817698,-1.0484808978827689,-2.226498801312289,-0.6745095788378793,2.087444791450025,-3.273964193991276,-0.2421928728774826
11.262291326308624,8.560768612168772,14.320140536366608,0.6600669864085885,8.582239984773635,5.793965096124955,6.374534092663832,6.185936239217938,0.5561902085654538,-1.1930264547656293,0.6049214937252388,4.303545883422373,-2.6691719786125248,6.6947135612442015
11.01905536560446,6.702584156771124,13.878009820361257,0.6602470092367217,7.319988878696483,5.332456072074809,4.30193078078682,1.2062808510952436,2.1109368070205505,-0.5260335358843662,0.8447280928131323,4.29088201627205,-2.1654352096221885,7.52376425113926
4.21665444804563,2.9204937650402485,9.508778935164514,0.7578124962178333,4.538404727923815,3.7844021195395694,2.661154527972997,-2.460328083095717,2.882350465241672,-0.3434904784753598,-0.3038488120727997,2.5489903394239803,-1.7931006812475658,0.6960023109558416
-2.816527754702825,-1.212459376488681,3.788231781857732,1.2665219648121562,0.736445605661623,0.2202144555744105,0.2466088192731089,-3.2561548393358777,2.570659430173848,-0.25418466324939,-1.810557065079216,0.1158502067776794,-1.306871587365649,-3.340223950438666
-12.029332844996537,-4.023501714005263,-0.7542766658733058,2.4645884014689794,-4.590889356433348,-5.857559745809348,-2.468799583359504,-1.6738528069302705,1.5667174567245183,0.1821728277583645,-4.110251343217955,-2.381558674901157,-0.6054371956848001,-6.512682071619571
-15.068236135377742,-4.612147562908746,-2.956415292776242,3.252874368141169,-6.841436518252086,-9.103019293853135,-4.597740152628769,0.3052118424541419,0.6516715225012959,0.9540050595086668,-3.904600544739256,-4.87029832624448,-0.0807231765172105,-6.849055382849595
-10.44695544787192,-3.234709777659951,-3.0979822869856264,2.7401380471673225,-5.689541845747392,-9.510142189824176,-6.129167428125193,0.8165007461552491,0.3567082200349603,1.566022212833076,-0.8289291665897295,-7.353906721044112,-0.3661136734429249,-2.383830292833853
-6.890258131271972,-1.0282210642874752,-2.1754623390819017,1.0076650175660824,-5.658588979266032,-9.682250125833932,-7.526378917252797,-0.5885340492681657,0.5750684331793394,1.5783364805052642,2.240124389684792,-9.484447520549905,-1.5690413478250491,-0.3403101210004462
-2.1930381802349825,0.6987120804073368,-1.1885155068676712,-2.0631247414602893,-5.759684933297746,-8.405971277117855,-8.559904046630477,-2.8865958537616434,0.7862235164171829,1.2116644101358514,6.120405003287551,-10.612322490248442,-2.762941229488036,0.1240187014635674
-0.5297478502938157,1.1661870829802226,-0.8421504138534814,-4.215054637193008,-6.567165098083724,-8.159990367163628,-8.550658175112268,-4.600415292186991,0.6247523600676885,1.307981240125315,7.003407581292934,-10.233299170370508,-2.461148477865521,0.5771268171089579
-3.453407329147057,0.4303580837551308,-1.5187571066210666,-4.36780153116684,-8.83104237332127,-9.23798378446046,-7.427423414369184,-4.927535837650389,0.1867739948969671,2.48801839257235,4.172761697802291,-8.472868570946353,0.1091768246159006,-0.2765023820152292
-5.343621053442367,-0.8236489742018449,-3.236597791197468,-4.090639420393481,-8.792216735230419,-9.087859969413552,-6.0919246942124055,-4.1251483815852055,-0.2131649955792909,4.256023366668302,1.7715385381442186,-6.255353046887208,4.03739832001439,-1.7293193491448728
-7.578093586983843,-1.8060680692710207,-5.563020879459344,-3.736485246976788,-6.607262647831291,-8.254461101696002,-4.395161196393458,-3.0543904322429967,-0.4980902098661772,5.102048523780979,-1.213940514664933,-4.943948409180081,7.10441379236768,-3.9684301648017537
-8.543311633121306,-2.0831821503968517,-7.677353693761347,-2.730499949402548,-5.624596433670446,-6.3999417233205484,-3.7993970676622433,-2.4464308783045965,-0.9398121247169512,3.809406190632132,-2.27513545351079,-5.508978538539878,7.395672633892929,-5.631557929122972
-7.352539067016929,-1.6833098476678003,-8.707809387431723,-1.2602985284379522,-5.257363203223313,-3.0973149539811846,-4.620035365293886,-2.4997206534849283,-1.7841425505632174,0.8586996638161395,-0.6018190632990637,-7.699915347153876,4.849749554623486,-6.546153880149441
-4.933372834629608,-0.8674587570638721,-8.206615735331923,0.9049712681841934,-4.9066413438074274,0.7358059185476278,-3.705964301181395,-2.9707107390795784,-2.821283165436796,-1.5737000376708463,1.1467988702930334,-9.958273510576646,1.3788657084881493,-4.15550862230332
-0.4859611916185996,0.142915034540465,-6.46389388867334,5.075503878316576,-5.123301841896121,5.318276693778214,-1.316375339288055,-3.4893488554011185,-3.415354500401861,-1.3384256764793747,3.8167080021431294,-10.431941796913748,-0.5929490290242825,2.275786498666037
0.317331853826024,1.2033155313063162,-4.438286823763519,7.097331120681878,-5.438618317562067,7.0454763365249535,-0.1718362468143639,-3.7833906248811218,-3.024848100201723,1.6720078280108623,4.767144953273816,-8.484181341559918,0.0448226856801738,5.237570038556423
-2.8707961179595527,2.056800642181713,-3.3102457204491884,5.094270681527524,-5.923390052208025,5.433231394162859,0.1699156409508835,-3.7362091700368296,-1.7352072158695933,5.1502164735321685,3.499523921530061,-5.394740596047768,2.3885699606881303,5.101933927018928
-7.696704130136864,2.2077313499610227,-3.875905929616295,3.2829299547515127,-7.430622222742825,3.742245146495033,-1.255135426687746,-3.3946493646095632,-0.3069822425985649,6.157309897372443,1.2959746325175447,-3.4216738541342693,4.404497235854819,1.7526903865017651
-15.671846796025925,1.137764193290934,-6.089590482582082,-0.5300544059693648,-9.982247096194886,1.0301290527973024,-5.069662666043976,-2.994792379997307,0.3162055718819374,3.5396083789445925,-2.698331585992141,-3.8562183219256663,4.53597613138669,-6.684443281687219
-16.912394363784365,-1.1860591704196963,-9.005468533261705,-3.5551385610693496,-10.967001062378465,0.1839564674456257,-6.098429212179483,-2.9160074438759125,-0.3350162894808477,-1.16895451511607,-4.370588287418995,-5.7843068787964285,2.7285066708247427,-8.833509084731029
-10.618247466489168,-3.932178000882232,-11.182205846348095,-2.334262633992595,-10.37133713148572,1.856545826973058,-4.414160575017901,-3.4578097318535583,-1.8864883331845024,-5.087380826618187,-3.447990915257952,-6.767565100129104,0.2312846356378486,-4.6080297552240825
-4.584304896925036,-5.63393859027542,-11.368922263682634,-2.1538546992635914,-9.622065834057995,2.241528833448576,-2.004463753050982,-4.52300295928319,-3.2695843892749963,-6.255841486164513,-2.5703741670135654,-4.913080538452846,-1.444444290977458,0.3668208263644459
3.5486301287485325,-5.103226109930574,-9.12532349417063,-1.1856898268537366,-8.126259248159114,2.086588071088767,2.3088255308884884,-5.485172883651558,-3.3318936870527978,-4.834286009679204,-0.7385823861597537,-0.4973446207973211,-1.5337491134307584,8.668773389800974
6.604598464930838,-2.467130231593273,-5.049625365854354,0.9435636101939444,-5.36838580331391,2.417136356183402,3.831312233686536,-5.470162741017589,-1.60750468885783,-2.4278342260076897,0.6626796190805512,4.259182723767708,-0.3600060142006214,11.364521286472028
3.0389959954996537,0.573618981669938,-0.4970405116658867,0.7186472774996472,-1.3571478433990316,2.7265962155315253,2.190404129099793,-3.957090018433064,1.2296034277292165,-0.4731819859925963,1.3321874225134516,6.955317426698798,1.055301087739963,7.429503120679026
1.320229639372466,1.7520826722477525,3.063008225141175,0.112461414811458,3.589712085397732,3.5590514742744244,0.4893642382508277,-1.2628041384527933,3.659985901589266,0.775523641835207,3.9614214404128623,6.711747010865338,1.7602469669988068,5.739001995292866
-0.4669963333695693,-0.0341875546926075,4.716904181677705,-1.327249716617832,9.60652776179535,5.003850841770222,-2.428572990030098,1.5346009963384404,4.346370146326535,1.989515787555092,8.312847069868706,4.503766546863972,1.5312094520006667,4.232902919398804
-1.615200814386966,-3.645843352827797,4.4506995687848985,-3.6298202036896754,11.4111535917626,4.373061856032961,-3.3918227507616594,3.2646375447849323,3.2160127142376496,3.805024078581369,8.973977018011842,2.1686659627912377,1.0258466211671475,2.8970463340285
-0.8375880237878227,-6.38798447855072,2.9761249442555027,-3.7708062411039664,8.446903562231258,1.570411149895184,-1.8796140126303056,3.4283484314962607,1.6414334053480388,6.13724218725838,5.993959697581969,1.1175841662267203,1.28365284086874,2.9994998534304846
-0.1022081156555111,-6.163703176888362,1.152400431680121,-1.2878355377513817,6.8841110828559495,-0.9626252302191473,-0.7424028918588255,2.42693059634496,1.3540953651424843,8.201142205510223,1.7604905606056491,1.6284579890314037,2.822252029242009,0.165747430898441
1.2327778815388644,-3.378679052316329,-0.5895479892994899,2.866121526806946,5.563695242971963,-3.780138259100169,0.8605867516236168,1.0815544532204058,2.848035604873303,8.975383581268488,-4.983034013842786,2.8554526293428357,4.9382997436532605,-5.430006173482749
2.042854039725419,-0.8405051056631692,-2.36444998272691,6.288692912332448,4.82867165516668,-4.839256827770918,1.4249462973026092,-0.0640102313043371,4.659922579950717,7.687464634698244,-8.0108681669958,3.290572589498879,5.845233905694158,-7.913330288438101
2.085025497222419,-1.506934240536566,-4.374035564066844,6.148604962645575,5.759909021248506,-3.564741261857063,0.4990785518121581,-0.9709519560537389,4.310165992844475,4.170874891308984,-6.726297542498085,1.5325245236047635,3.7838516199831247,-7.749956775557621
-0.8918817935706448,-5.879658483204594,-6.288822104257065,2.4904511661606588,2.6364599266570456,-3.870901218339696,-0.3711832673745572,-1.705404990368265,0.2666030234394156,-0.8957857133745506,-7.581942591411702,-2.744592857192401,-1.5380511077589745,-7.6695215250585935
-7.544339324845421,-11.318268532308934,-7.136983604643319,-2.322682536919939,-4.471107378121069,-5.284546167706424,-1.6679500550665254,-1.973309080538911,-6.665172063778982,-6.017399642404598,-9.211671628777715,-8.125264271042852,-8.279485739434676,-6.561437932384928
-10.2773627755996,-13.997182472628538,-5.990127346953841,-5.318459999527841,-6.977143217225425,-5.82622742798354,-1.803895845611945,-1.2584141106724474,-13.683310148581995,-9.421826813367488,-9.243764771541882,-11.86920125284405,-13.311358408147498,-6.254556873454807
-9.32675859095124,-11.947947736674678,-2.9528591125853154,-4.288770167915647,-5.514019142655901,-6.094745609268713,-0.4774019049713558,0.4791796462296815,-17.776153257151577,-10.016643798835048,-8.438977748404751,-11.60308943697146,-14.20160312385906,-7.0914497693194
-6.484804219946294,-6.642998085318595,0.5061034675969722,-0.4609917754172914,-2.8845174792003645,-4.263055061258156,1.2755836475602007,2.3531987655610465,-17.527574715663036,-8.120837515144785,-5.004238168342972,-7.233265584301307,-10.926125832852676,-6.920867071658129
0.0315138855096936,-1.77922604640014,2.4243343600984417,2.3902493563962803,2.675747169414554,0.0928572145437174,3.943893750071298,3.0575689797659606,-13.657393631083892,-5.258191398265922,1.539801512811836,-1.3849175711632142,-5.884064887679756,-6.179093411701666
3.622737977442121,-0.2768147529293401,1.8854511531767455,3.128306201645465,5.238078643659948,1.8548598404616872,4.779888196976426,2.042413549932462,-8.172671192595999,-3.002872095835073,5.020913810897871,2.369103759106565,-2.05647450012566,-4.53391109497128
4.112484567886169,-1.982927009513105,-0.0734167427697229,1.5998140856960414,4.382585127861823,1.223336124621865,3.502592982654406,0.2201448169953437,-3.039111317578545,-1.7788310802695833,5.545554022592378,2.2698003838357863,-0.7367323985156418,-1.6117783006106443
6.283273587007277,-3.931369168071569,-1.113383180695564,-1.744503316636944,6.201004118613391,0.1698083830728083,1.7079126762869712,-0.6389301579820312,0.6524313657675975,-0.6722133655187008,7.448519449702784,-0.1942469783892875,-0.7239055760135216,3.43277281967804
8.75609671256848,-2.856088129941895,0.5880416280197096,-2.6123771951374883,9.49765582739845,-2.4058426848139742,-1.3490062566631809,0.6064908227365322,2.769500407171904,1.5639603684555825,9.525999214143695,-1.5005303134119004,0.3601383793633204,10.973006891672677
10.586091619124442,2.163031236878851,4.8488421711338106,-1.3355775116090545,12.81731106351248,-1.6143954435413024,-1.843872143371595,3.4750769259260323,3.855440875488398,5.245225846334847,11.068821539509754,1.0368032505604106,3.856078148487086,14.97942137225447
12.224017487461268,9.029458658273596,9.615250599373894,-0.5296373590845174,17.01909686039854,2.9826644781960763,0.6272426487568381,6.320228087836881,4.845824642162825,9.380048493323557,12.539245466742798,7.179455533159398,8.935711892443805,15.298811480010126
12.569137283886494,14.315335952697351,12.590632622132944,1.7964086193403097,20.01830298739977,7.411775742034758,4.109363676769829,7.784360717204436,6.729773993604567,12.43262038321194,12.101290005634828,14.104160912165185,13.418667078607768,13.911124089202026
11.436542476676584,15.779502264014866,12.903905267700736,2.299430053462369,21.62679980568309,12.8360051792511,9.670986639754007,7.826582809894262,9.971121253677325,13.402540761481305,9.575151410712602,18.602544042344505,15.553897497811022,9.257255487957272
10.121645308292733,13.70472292516058,11.39468746964053,0.552981093345799,20.863329064030765,14.330808563962917,11.637295168952011,7.380044464752757,13.916906434096802,12.253602560976788,7.434343125272186,19.116269560409197,15.066680828312428,6.87617301353735
8.364044121905968,10.232428253134287,9.457222395634004,0.1733171644382306,16.973859736821417,10.95728281805826,9.503320413535352,7.124700811666003,16.84569417773895,9.550941220099048,5.336758585768362,16.136376263888963,12.78775942903502,6.997596368134578
5.650816123498111,7.55856211410395,7.725152544259231,-1.008763028270138,11.834856853542618,8.322639078711827,6.024580744078688,6.74699127607056,17.028004422925676,5.963288316762998,1.9905466849098252,11.236642822603471,9.675051393071271,6.37170954985
2.13581207264506,6.564768473313791,5.872404543267521,-1.456498317512802,4.925291039354127,5.139555624973903,-0.3472657969032029,5.485375816693363,14.1999678158827,2.186700432207033,-2.2462474881176893,6.044630569965193,6.374161823327597,6.278286406440069
0.7828107724010637,6.762757627255496,3.52308984494519,-0.3386024183524674,1.0925739723403003,4.20265291961965,-2.4437413353267856,3.340744113947295,10.138025367025987,-0.8955766648796271,-5.402832410785205,1.9254162223266464,3.4645091909959547,4.9135868479174745
1.8286504319159784,7.180840430944159,1.0990287745456442,0.2584029147317451,1.030601442225901,6.596336629750636,0.3402887798496443,1.5582661985269226,7.523257937214026,-2.390965228829316,-7.450551987642037,-0.0074009740524729,1.5828131731586552,1.9200750540634024
2.8923253103799538,7.201472588433916,-0.4029621849413729,0.9609693397786618,0.8721363989273783,7.2007640735184,3.565856696219848,1.6971219622429885,7.811308326766095,-2.018022850229869,-9.051488118232166,0.751518845583206,0.9042429184722778,-1.218410798467962
4.702946489045919,6.74083702346249,-0.4578799460338132,1.3114482559794212,1.9517428910735524,6.83274663174317,9.062403020672424,4.089958127595338,9.959076456052172,-0.5469555873908121,-9.687705223894298,3.4825030811787485,0.5694651820148522,-5.000555558184264
4.124873360685534,5.939027774440163,0.3044958149889964,0.9396255982184816,1.595732007095564,6.238497946339191,10.968445516995484,7.234815226959299,11.308313271819005,0.5909571518343171,-9.035349392076336,6.241336869476328,-0.9133388812337272,-6.819182232301149
0.5936477552808093,4.887768024729382,0.5855126063246416,0.1433038683817013,-0.7637083648633933,4.573242834613271,8.50570407020791,8.854553215577567,9.971570065138463,0.3698871594176722,-6.950241789288943,6.9763240187195095,-4.2230421045106254,-6.290227350394718
-2.484901439159856,3.655582807150133,-0.3743853235394709,-1.108117956935175,-3.448186647550916,3.803070002388042,6.97770302908675,7.758978391568895,6.544089796515756,-1.01708189281657,-4.158747347317632,5.046667805469177,-8.043417867225536,-5.926140864793222
-5.92888257088796,2.4273829500526247,-2.066581842631141,-2.3189815889951078,-7.297994633612502,3.895610756111697,4.925091865753898,4.825669056618576,3.483481898751368,-2.3819968499740334,-0.5386595867760625,1.7722218481694263,-9.607682237903216,-5.0575014886492085
-6.872647729385301,1.4629287578091947,-3.158757073576466,-2.3894624363609287,-9.124285644125196,3.193243968181502,3.965029155394728,2.197780581610294,2.7071190592163763,-2.6264437006857126,1.4423415204589107,-0.5976746024803292,-6.934393401748126,-4.369532264949551
-4.557653942028298,0.8506798118353203,-2.6427833873316957,-0.922734414863758,-8.63300848380654,2.019978339149976,4.884741989522279,1.4360602067125663,3.7212562756122463,-1.7033664282042214,1.4026682542776614,-0.6377089347546896,-0.9309922268214876,-4.238637973376815
-2.447760988760477,0.3323773707687394,-0.6158510137123159,0.7353594353471825,-7.397710530834794,0.3849778372915627,4.124603730781383,2.2861399114914,4.119665192845265,-0.6063532561618601,2.3243421915351403,1.2974891628853555,4.697794752845859,-3.216571948626128
0.2999688341009959,-0.5397823880617949,1.9024604864730392,2.280750831893634,-4.556083486850853,-1.9928633914376863,2.15406175011084,3.083348122171444,1.9843810046379744,-0.4436758352721242,3.6095314685904247,3.629836855077251,6.039947466106234,-1.530513016746448
1.8022740878473524,-1.9701766702266923,3.78837187860286,2.348608939471641,-4.213500524675187,-3.473260683293787,0.4067420821280567,2.295816297019158,-2.151319781345606,-1.4564683307756638,3.735635601334806,4.9294947789173165,2.091415109183856,-1.3290779120577456
1.4085278909615713,-3.5851139327815247,4.505951532103694,0.4011488107448811,-6.728955080466766,-4.030223956602718,-1.6651495304111603,-0.2298952161582406,-5.6994154362377145,-2.8419164681570663,3.024573904005453,4.809454526334193,-4.273907999155,-2.573735013574093
2.2554712625995985,-4.56421599514664,4.2292457613028205,-0.8537597106436865,-8.214708182625731,-4.648940956103609,-3.104707628935982,-3.309877414140516,-6.413836371970035,-3.510452089639543,2.110009676467648,3.7471060164716334,-8.47563170881088,-3.2095625430552888
3.8049766365734,-4.234325365171401,3.5192304113110997,-1.7746543935639525,-9.588192359889591,-4.968440377655305,-3.701797380033227,-5.492350868446664,-4.525123885907107,-3.094324972158745,0.7858197820234957,2.3471843819000924,-7.843827860227037,-3.616711609101448
4.6803806727643975,-2.6785923685053774,2.925896187634464,-1.7371960432332922,-9.196837903397144,-4.935516756541695,-4.126232192399735,-6.095479623540584,-2.629130834189908,-2.306146661874408,0.8057123964480939,0.924067385067758,-3.650122222371465,-3.1737394813964603
5.283734945444179,-0.8105629895844402,2.747655927457515,-0.3821032795928133,-6.318873000134613,-4.614201306806034,-4.083671443612502,-5.432385138633862,-3.449369374172392,-2.294203465369492,2.425340551673397,-0.3292465028099798,0.1726814710602013,-1.4548310194616445
5.107526743291859,0.2414042462363568,2.97642035550453,-0.2563240500627383,-4.277639629936244,-3.42245835642724,-4.250495579789536,-4.319530991838775,-7.485512978576452,-3.531140956737147,2.552112115743368,-1.0681003969065728,0.4736422957232093,-0.259773868893189
3.917588189486812,-0.0035376417552299,3.392947119965754,-0.4048630505671089,-2.581831153951072,-1.3053558470940665,-4.706827422035872,-3.498444907524629,-12.545687065908936,-5.260006197127979,1.496355693834431,-0.938061263023485,-2.530865723218,0.6260075811307819
3.768274975704813,-0.985555825395096,3.7663161097842135,-0.2909028632949735,-1.247706726264137,-0.5321550129375073,-5.385856093541265,-3.3984735751214146,-15.427919923193656,-6.105387895361133,1.193793667625409,-0.0194329356211824,-5.704007426594671,2.7905413550380365
4.613508930258345,-1.551922215583943,4.042382972664001,0.1457663158304382,-0.8965098511845491,-1.144652121213836,-6.502745604121622,-4.1534581103034895,-14.241931953148168,-5.387552531180802,1.1642233031699256,1.026737730953954,-5.878654927020165,6.033988442999672
5.324451472209143,-0.921587378390825,4.350889988102182,2.48754144152592,-0.1255593056929403,-2.068150127067509,-7.17456762772208,-5.583494230949299,-9.550335168090529,-3.907234033215332,1.7282910842392245,1.4525253286799682,-2.5127441477190477,8.819642264936007
6.324588374424217,0.6082927670295248,4.7868293257294,5.339233259213524,0.8732449482980913,-3.850401829697357,-7.418085646497901,-7.113220243182525,-3.698435466029906,-3.329108053972305,3.2028271979868626,1.155640448064105,2.1103557278790106,11.331038798808708
5.002716644454559,1.794935960970946,5.157468124694617,5.679967426436462,0.2921286700188324,-5.325514798117213,-7.78510664485779,-7.892653313126061,0.832036764566169,-4.605678869912538,2.5225176542947274,0.8569420639551026,4.97122028232755,10.196728693082967
1.0125645823875968,1.3361653576156698,4.97909795611136,3.0817778871413157,-1.7992268353213778,-6.3861005596775335,-8.104017994601447,-7.292966838133452,2.702528948981467,-6.928042311642457,-0.3795287072020015,1.3791854980744915,4.597732493430897,4.733759663775981
-3.201685996640218,-1.163962487129595,3.795878150939074,-1.119094344156633,-3.6326860477481326,-7.448417497789063,-8.294960282386128,-5.510819058022378,1.934427562892296,-8.335230596384918,-2.3536835938038294,2.5948194965118887,1.6756974592423717,1.1507512770234654
-8.299518832900992,-4.869570305824141,1.563142854760315,-5.735807368252915,-5.502844320511181,-8.191953875302818,-8.40752001811012,-3.702683158796333,-0.6468550578717611,-7.542874545700386,-3.959869375615044,3.0883995170800063,-2.0529785636183817,-1.2407868866796534
-9.804792774270538,-8.243362226373591,-1.252862239274151,-6.615955300309847,-5.894529687234519,-8.087318186192592,-7.268585918567691,-3.295310191104676,-4.020221948489137,-5.261175777956055,-3.8603647005740864,1.083591888250112,-5.195317153125757,-1.788845877276427
-6.9626573574079575,-10.008782957937427,-3.945094583926817,-3.347632840656991,-4.320217038871809,-7.009139563933952,-4.755375152907248,-4.801308872228418,-7.228251752396602,-3.622086432145125,-1.3556828260240326,-3.935351597522328,-7.192877661462717,0.8925814459936554
-5.176983796238868,-9.829269365922414,-5.943583785118562,-1.1919198727770692,-4.642710689663141,-6.671440176383396,-2.6090668840385067,-7.054716078430232,-9.410731293341884,-4.121489714380289,-1.152526897305287,-10.247426938003713,-7.914556416809944,-0.6982179722455444
-3.3472093284914126,-8.258975471655702,-6.977476064701477,-0.1405607946601246,-6.569752125460344,-7.015781203657161,-0.6118032437781442,-7.682884907620519,-9.897258906329682,-5.999640633935968,-2.986635196556509,-14.57968278513752,-7.217437349522413,-6.391549631680698
-3.23711597964251,-6.12517797688534,-6.980892967117768,-0.6466832186767804,-6.658378982766383,-6.913919136607829,0.1238909069540439,-4.748932332793913,-8.403539029991407,-6.693839603570638,-3.188766041599888,-14.207839732909974,-5.042088327256806,-7.898594697800295
-5.882900192616217,-3.937596452677269,-6.003600369961987,-2.431992824903773,-5.449517232102059,-6.69181230558827,-0.87540942055055,1.5478453579624158,-5.145093762497822,-4.090328461019851,-2.5196836874178645,-9.012031089921608,-1.7964392342433086,-6.31163062279333
-6.191626623303257,-1.8118751523138317,-4.3482736966466575,-0.2448941996434969,-2.440946499234647,-5.5374235467186805,-0.343959474456708,8.52524376388783,-0.7573390607387296,1.4301742210241457,1.0666424602937583,-1.8859266493684288,1.5581035764791409,-0.8951958242372402
-4.674579001393515,0.1495620692436858,-2.79767699082916,4.345339930861377,3.090525064180001,-3.233647322266913,1.4820751477575913,12.55032399897675,3.865904105841992,7.043469504437098,8.389166675626068,2.9549245092237584,3.9166852789325617,10.138221175954545
-4.350127159568916,1.53500289265574,-2.524055640794714,6.844485409627324,3.7894104803539546,-2.6182413220454994,2.304850004406826,11.478468745122283,7.673725707234624,9.635683130599546,9.633259366113652,2.636734877831671,4.5943821025043405,12.285532028219585
-4.438456047695377,1.7838761310210174,-4.45789015087783,6.21235981263046,-0.5728328841584875,-3.6465042175653535,2.648184222587224,6.162119219224252,9.570633614989871,8.17864427197172,4.795160824940466,-2.6248410152929864,3.603688651368401,5.229614303415853
-6.095089392367516,0.7080269877736072,-8.444409461308823,2.082793916630389,-4.606152414050054,-3.5779957888130407,1.4497384545590704,-0.1893440117066518,8.744334651412458,4.301653463641927,-1.072845118091835,-9.892360006629431,1.5370019266992472,-2.8863871485771075
-9.86509521675953,-1.179430643835289,-12.9119109300522,-2.9535431097157643,-9.917766370627517,-2.8918160911612194,-1.7570341587055938,-4.330604167189179,5.18907173256504,0.7226902293583777,-10.170506057339413,-15.59556632957991,-0.7538350235135169,-15.39445691029068
-10.472814866841505,-2.924189510699435,-15.557393032075469,-4.516994734344226,-11.780560265615591,-2.3594933889882,-3.964707782869821,-5.175430246621275,0.0249491620601673,-0.9128127829832948,-13.583850232253528,-17.73789451696257,-2.4861211999454014,-19.46469874933766
-7.974612121381352,-3.7834717782826175,-14.789024803083514,-1.9901305905220967,-9.121948940361756,-1.562293834077852,-5.403951241438673,-4.229052773062804,-4.84355643824442,-0.893804617152739,-10.231755694599116,-16.72014810434699,-3.231229265600774,-13.405371368267687
-4.368295789995611,-3.6760565363420312,-10.95538918808355,1.1773302538937631,-8.993684195582864,-3.548556581781331,-7.718302073980922,-4.118706009654751,-7.717499039465906,-0.5203919669393926,-9.219326285221369,-14.493745512115057,-3.115085208358529,-8.906854987487238
1.5643417533990218,-3.051921347974627,-6.378397241480862,2.5335868215798034,-10.25674626170698,-8.631867965495866,-10.385660260914106,-6.554311052180289,-8.12282527748092,-0.5951881457394421,-8.465885182377699,-12.997979891372404,-2.786201545123156,-2.759067001407344
2.5565164690422786,-2.3961663597988263,-3.9942128857716384,1.0632495254313792,-11.113679269504642,-11.22045570467436,-11.8742133020361,-11.27256469822906,-7.088791322328383,-0.8645144396961726,-9.248642208650551,-13.107564171050662,-3.026173973680024,-1.5675099850550598
-2.0084170172333917,-1.89794868234236,-5.437951683382238,-2.603858141626733,-12.660185511031688,-11.754114036318112,-12.200528627031892,-16.486208911376085,-6.419630990446635,-0.74865087818673,-13.018777492641478,-14.584063609662117,-4.163368689549927,-7.38536595036376
-7.375776772965866,-1.5401308643599947,-9.884534757853109,-5.562668681093526,-12.388950001988825,-11.029553067652197,-11.730593291462393,-20.15728747706231,-7.437981444856845,-0.3202290459736758,-14.50880250856874,-16.606870099148,-5.7362166142786,-11.046174090952256
-15.39185566674465,-1.3458664693754656,-14.485954423867,-6.973578819972269,-10.109801648478054,-7.824224854306954,-10.057477128809843,-21.045106241022356,-10.059142721443967,-0.347118414122864,-14.267029444342924,-18.19392184751222,-6.7590248902378605,-14.48414895041377
-16.280957579035395,-1.3740128378068626,-16.141643387400283,-5.802316738658948,-7.407163242127117,-5.299009321037211,-7.234918748885271,-19.00102525096021,-12.807938732359853,-1.3450811773124958,-11.959220126322514,-18.28998070284964,-6.4354964023105286,-12.753825698340286
-8.783415307436334,-1.4459768272488618,-13.40734656347072,-2.3134329511477145,-3.682171163055835,-3.3258964685133665,-3.1398714945644137,-14.671255736602468,-13.743664624850918,-2.7032540390550666,-6.451675157053013,-15.853604937673786,-4.704749048176977,-3.970402783348048
-1.413449622052518,-1.0303600691139805,-7.268117721664121,0.6482982901457008,1.316272871368999,0.0159458484802551,2.04902350945388,-9.021111048902284,-11.672647128904716,-2.883414338117962,-0.6074132173522382,-10.284134372290968,-2.111448372533556,4.6878815790036885
8.330442537120714,0.3802893212473961,-0.3181712516011146,4.648621662568334,7.519510708636815,4.16610636501852,8.387188527774919,-2.9348124868011034,-6.864552665039543,-0.5946134447592737,5.994067164468454,-2.025786002239478,0.8545090266966255,14.856518334971682
12.443259065237289,2.662086906510148,4.993247390756746,7.396302448719204,12.21862050056372,8.301075954526263,11.43501302877013,3.0320568852245096,-0.8316759639871876,4.103114188685311,10.099787317516492,7.225245326642529,4.236460727781505,18.325201438815167
9.195424177073988,4.907576594453314,7.784868825229669,6.801556069560699,15.193650859656438,12.561602706311875,10.722639712271,8.681633863595142,4.630879481723397,9.70880898846204,10.863138639948312,15.103880817104134,8.34375326132292,13.253121491933852
8.303368355855467,6.078986254125212,8.888604691011267,7.076154844865571,18.32045294975265,16.632053919569465,10.999856329868402,13.93426527639869,8.442679723710214,14.224211653565169,13.564820322189773,19.698885014891324,12.961511662803892,9.349447163144491
7.648565710698292,5.952671404176755,9.756125819425442,6.025838208651982,20.90301673749144,20.303247157625087,11.243783888867789,18.45098081494387,10.585395204132574,16.349969292720463,17.37165048142318,20.479076262443154,16.890076326577955,4.333992160739277
6.555965765821045,5.373091571820012,11.078748890008583,2.725065719307975,21.199307638453558,21.29579746147373,11.661684897930916,21.4583968711378,11.6622906440938,16.1053388810234,17.930481557637144,18.413557857003184,18.446758439601798,2.077746806008976
6.396005139428758,5.404998949466439,12.23093887060338,-0.1396821250252541,19.14955808942002,19.173645849177984,13.003331852800054,22.04993231744615,12.171478536543384,14.574380270282631,15.761581839892784,15.283418177859524,16.649974447801824,4.319722787850215
3.506344838470238,6.128744510529742,11.939732148303284,-2.9813171979441613,15.350820967403452,16.574742668133904,12.381880760742051,19.8494952937943,12.154743507784616,13.057839975244889,10.191731642737164,12.713352907354334,12.08689046208898,3.2896059520020686
-1.995342926056285,6.354000756415971,9.570666612942851,-6.381281059010184,9.309397023485497,12.872390696115142,9.938937857843808,15.540494505479565,11.440900697547209,12.192791851863014,0.1879523776519626,11.50412823473561,6.6738994250902905,0.1612374132780918
-3.522233759837257,4.729291070061578,5.914268392208889,-7.010565164727916,6.53029689539442,10.330761042872211,8.173090183111665,10.76496133137752,10.111591765897629,11.574211817062276,-3.9107486300639622,11.512433896842822,2.4605479547474403,-0.8177018639422575
-1.2943318336466585,1.2774360252340955,2.784562789635089,-4.800216483897655,7.463451134716662,9.545989511751314,6.646333905140144,7.335901942951395,8.655832315434978,10.126555607085436,-1.7943679804524402,11.977591937718358,0.4156617946304806,-0.6419193347084153
0.8713578064964632,-2.2108982080597315,1.7490110020290075,-4.580659142576673,7.539461375797005,7.221812924716874,4.308448734226805,6.238305081561407,7.661868708804221,7.005042394049795,-0.3523659575854316,12.063217932658617,0.0792802168201376,0.2235523354156997
4.3110375107652645,-3.494118036779554,3.042741657641841,-3.0260694943850552,8.067344261845877,3.9657428639786527,1.5094817417773676,7.09455790624186,7.371461230164755,2.385448112604749,2.737928882465874,11.383618075713102,0.1973901649963494,2.4100035742417285
6.3936995851334695,-1.776952244298755,5.54286308235568,-0.4757124476904998,8.140938582247614,2.5382033769027377,0.260011305959353,8.474506880663753,7.508336998690481,-2.499222548946093,3.011059056524333,10.26467997251089,-0.2838462483541804,2.8817054593427334
6.528921953157887,1.608590628417005,7.754464972108082,0.7439024859914524,7.151451958642887,2.671857308680326,0.6516503596150194,8.843850242476492,7.480249695802627,-6.165941431968221,-0.5877709768949726,9.514986919609669,-1.6182101812349572,1.5099238605965395
7.987056213617373,4.4109851708057874,8.917350079436261,3.546780173039675,7.036153384564942,3.1164773350243937,1.529610438302876,7.489240739623909,6.739253213582131,-7.90973872759767,-2.656969587946759,9.738425017810329,-3.3490809704276785,2.3276034509945087
10.090835668334684,5.386808997568636,9.315269162683336,5.593706529820455,7.453057792645297,4.3937989588532345,3.407820133182028,4.783990279035322,5.072046644586749,-8.204520523732455,-4.388896668542184,10.647253669016976,-4.826584144275998,4.853242621560667
9.044674142621366,5.086707751429273,9.637238845508849,4.620856985688259,6.569069844213607,4.077638589326273,3.3237859469998745,1.6671710847845702,2.753119668330058,-8.14430264481237,-5.2301219325397215,11.02381046065463,-5.670134045677386,5.284001841445695
4.962562905924743,4.811819483986724,10.06865714126414,2.2561674422852134,4.516316507922846,1.8525478522695376,0.9457086001335095,-1.1751419545176134,0.5313135437826588,-8.428285935359725,-4.3358246328261005,9.555026431880066,-5.890251644811912,4.080101660676925
0.9244719929348648,4.910487044948567,9.954948076958615,0.1714218196036142,2.162351716542247,-0.4272580720990787,-0.9068925195318676,-3.717844707236949,-0.6735613346200608,-8.789011978842737,-3.265077451146197,5.951083344481219,-5.734087708454595,0.7506685488947975
-3.784269617014487,4.238859838771184,8.303244986306296,-1.950292779571517,-0.8585157220012105,-3.4079485068417217,-2.941072316053171,-6.274562164426641,-0.4069996747910238,-8.371880050776852,-1.5960100996022448,1.336821967966415,-5.50356375129725,-5.582085833429549
-5.846138350190359,1.4043808615809965,4.65772290684005,-2.410260856871804,-2.528625657267109,-4.851519378471795,-3.522218727692485,-8.80379493421735,0.7024818711910257,-6.72873348973522,-0.8979563565447514,-2.555040431104743,-5.487762331358141,-8.586480287460983
-4.457356670466382,-3.429691440682696,-0.3771871271455325,-1.0906037106907436,-2.599232088632564,-4.390108014920751,-2.109059214068615,-10.56660218947222,1.0165144597910114,-4.5247466222696175,-1.4906686632398618,-4.737991781808461,-5.929811351901336,-8.228052502645408
-5.51079486291068,-8.036851919498133,-5.345278625608266,-0.8104375358175158,-1.9427758807528563,-2.3557634270595083,-0.5698524929838819,-10.55345796650014,-1.016370588255569,-3.264254977912472,-2.289102088106909,-5.620880541540998,-6.894369215022095,-7.838836733139637
-8.256122480292408,-9.582938529502492,-8.690929461818065,-0.0799476034165583,0.0424162605118427,2.0257035085628416,1.638173312429769,-8.370765657926654,-5.3843778427560665,-4.173707425994294,-3.785098241736451,-6.341352226005824,-8.1016208567615,-6.005000258489207
-8.753594638824076,-6.858987505068029,-9.547732631211936,0.7454573466138027,0.3244591225565481,3.8896696562903696,2.703190168905349,-4.785356556817376,-10.0101483016576,-7.142362329325536,-4.104700504634786,-7.490027413445134,-8.99225439568825,-5.763200535672623
-7.787113040524087,-1.3573134381082426,-8.12697576336602,0.5423856800393103,-1.2990523546988408,3.1006615086827294,2.2486767790765585,-1.3416896293940963,-12.04569167684474,-10.635148291060858,-3.045631303028124,-8.561556138486083,-9.141927463886717,-7.553484641855785
-4.780966809096816,3.728251989767749,-5.561012625018904,0.9934734629497936,-3.834445171648373,1.5161776401091964,1.4064254072337512,0.7543461668599107,-10.176015911123926,-12.694165225926907,-2.003376604616582,-8.677302212063495,-8.712163406340856,-8.630991348759094
1.0175591316609027,5.716091262911974,-3.3257815493495784,0.9674085456932284,-8.118357972634415,-2.079911216469215,-0.4054861822112066,1.595668164975308,-5.92172123297631,-12.215874278480108,-0.502749006689447,-7.720127941241934,-8.39693172624574,-9.751622298859584
3.3201100069315177,4.076128207348084,-2.513545395830832,0.1174302139580898,-9.424830251385533,-2.6782367211207943,-0.6375400399630542,2.505370372116424,-2.531616979249968,-9.482744602074646,0.9485012969539623,-6.539872780102286,-8.714078783245348,-8.816500322645075
2.0342772381680114,0.3683751345566577,-3.2790514563057656,-0.2131827915648285,-7.474925903543465,0.0584581153325978,0.94121424843201,4.860429625421332,-2.2172566722291123,-5.646389247837931,2.186668289443076,-5.920310265897022,-9.226173717766308,-5.290362888626921
2.0757781879627184,-3.152606697872152,-4.747709826586444,-0.4287281329121093,-4.65843287552858,2.971009188765806,4.09135019687732,8.708658880855815,-4.195028777212542,-1.7925936368522528,4.5237881240837226,-5.447028943277168,-8.559700505262533,-0.7701302410948978
2.1671522043180267,-4.967409133634,-5.49555746083584,-0.3203343498856543,0.2260100151503102,7.276952992074294,9.60891348515412,12.398209987533122,-5.428640180806994,1.543318005457813,7.880858883887313,-3.6522969978374817,-5.458300418087937,5.439559777876385
3.297088473940517,-4.778384424612938,-4.396160291101317,-0.0395756648271435,3.002569593759289,8.161957410700108,11.943812889919451,13.691392978566792,-3.466644935670537,4.170513606666173,9.3664275745784,0.4972501501507551,-0.0575012645730765,9.003829517785325
6.214541586592351,-3.108616849933512,-1.3409345555047167,-0.6253254775733761,3.2685299603291647,4.9535018244345705,10.922188617990887,11.544593451619663,1.2586482355075717,5.852578817994477,8.998619800287008,6.191701832812427,5.815926950802819,9.44938156948496
7.432005646514906,-0.728477716960036,2.656945766409745,-1.7992187977637375,4.550233478258607,1.6462523588865527,8.2457135847752,7.033357253407552,5.811082862791654,6.2990408470138135,7.909661993389001,10.924135641149572,9.74292032712317,9.4104137941731
7.236456770923041,1.596568627993335,6.079783012818687,-3.103763433410867,5.863928011934568,-3.0277216055211853,2.4688964098469834,2.557387930924051,7.386752139529833,5.5106873634422335,5.411066105200802,12.210652314308422,10.384141410357678,7.703163909550783
7.2383174563367,3.1642877410177856,7.829124446166784,-3.230075223569603,6.474037665762091,-4.8089091425148665,-0.4351933608238423,-0.002086809653381,5.697233824513081,3.983040111926499,5.337905219964148,9.43182677048921,8.379122904154286,7.527224702528018
6.822408304250712,3.5485090866483047,7.815360884629655,-1.8461890162437584,6.715226544780387,-2.891506764516848,-0.2064278757052375,-0.5120813281602246,2.993255324985697,2.4726463237516185,8.010951537127463,4.295010405738555,5.815032326462104,9.254537318870137
7.12367428348984,2.9367347053024817,6.841552945596593,-0.0751393275055272,5.410526846550371,-1.5206042075806134,-0.4588088296186517,-0.1452625458601009,1.96542840885394,1.5749048247998,9.294995773877565,-0.3027496593506384,4.807842252930907,10.944060065780988
