AF3,F7,F3,FC5,T7,P7,O1,O2,P8,T8,FC6,F4,F8,AF4
1.5337221225807234,-7.076428814518248,15.317492831318484,-0.6470939306147301,3.47473351288275,-5.12669462440776,-1.5816403556972556,-2.61315480984889,3.5985631322577376,1.0923762262379348,0.5166976555466327,3.891829048314365,0.7376670639303526,0.6323855332429205
0.4166350585991054,-7.766003438772714,10.8106582826045,-1.8854452834485151,0.8861176698277724,-4.936256958869447,-3.5032954522977198,-1.4771033796209068,2.34181119795312,2.7956910016060057,0.2617741796295476,3.084903684482142,3.928108418434309,-2.0159248050684533
-0.1800610621639293,-6.38525372841719,4.851224904303561,-4.708898913061141,-1.5467327828691817,-3.4758256163974988,-5.334259573587028,-1.3791642326753788,0.2117657280096576,3.2855204658298334,-0.120985922141088,2.71162689523998,3.3629521792057915,-5.269335317149139
0.1390467302606772,-4.157179684931386,-0.2226257727887856,-7.414309949028212,-2.0698203052923,-1.7929104980502706,-5.331552520352243,-2.4974047325576976,-1.4712696790762283,3.120176943290012,0.0697927236934496,1.5925240616759644,0.3955439225457979,-8.299410338279015
0.3228081100924669,-2.8954383091065488,-1.27217079698749,-8.819856109902968,-0.4240609084063536,-1.8428743748763976,-5.33027821857636,-4.135251212264414,-1.4550176362969318,2.846448604011897,0.486665517942825,-1.871463049663352,-2.7345396083421143,-8.90807215943708
-1.30819911106963,-3.95091290133378,-3.3784523922668184,-9.475260852550104,1.4694055086210724,-3.281536696517834,-4.923124468847451,-5.306515136769303,-1.0574966810531383,2.3382894076159992,-0.2575001299000838,-5.314997564647297,-4.9889989183353975,-9.505590598484924
-5.548274349144393,-7.448162270029616,-5.779396190585292,-11.020448031664234,0.9881021004890904,-5.67263592331385,-5.065761128928778,-5.430665602445529,-1.1239332235417214,0.8463633182882297,-3.3585728999564104,-9.651508239088225,-7.010874560710239,-10.183702614734331
-11.348144999759535,-12.124727247182268,-6.011403571406077,-14.24653579702995,-2.628115511643891,-7.8153100167134335,-6.911711382940641,-4.599060785428296,-1.0681834425170174,-2.127958835457644,-8.348732122732201,-12.332640014228344,-9.735428507541975,-9.461887160948784
-16.192085143468354,-15.846800232800868,-4.023683744323231,-17.78509895847551,-7.072395820972076,-7.656722602663765,-7.724452616627888,-3.324781320950393,-0.7550406674460833,-5.840132982475343,-12.798856865872818,-8.97925030290158,-12.733511821024036,-8.907503618732024
-17.563791230352273,-16.659975970648887,-0.2916039588580748,-18.877953217813037,-8.579802785445676,-5.260745369751292,-7.901279712733841,-2.085993112265772,-0.684245208861729,-8.211797961028509,-13.756046981424888,-4.545530657571064,-14.095741679708134,-8.209415645798446
-14.495821769730023,-13.935013481701375,5.642406388634767,-15.732361950469958,-5.193446333608687,-1.8933841090020604,-7.321385424702471,-1.0357513008236268,0.4951603500982337,-7.040840660435787,-9.962145959103566,1.1663010738946171,-12.085821050629551,-5.693888988518252
-8.20476550415918,-8.919031017148257,9.850784551632476,-9.373821065525991,1.2172805055660874,0.4615671919985984,-5.566270173807876,-0.0505219731967763,1.3888855551925907,-1.7580245456585004,-3.044332837479345,6.103729474656334,-7.007300215060003,-3.990856895014677
-1.468006459037614,-4.156176340694433,8.702955848383775,-3.2190086505579814,6.1637957574033,-0.3769279964605286,-5.7773195439982015,0.959156035064435,0.7785175883770562,5.708199775196778,3.4549637903620614,4.9570932436166375,-1.4310631414157982,-3.9677266164374494
2.831545194087401,-1.9502295168987889,7.855154765499312,-0.5844684161544649,6.079758391754311,-3.6718409746867335,-6.404723714478772,1.7346315044768232,0.4303124006010984,11.868187348930924,6.575062477848718,3.596826141085234,1.60252071167454,-2.9390717362060768
3.1431647633136883,-2.867379858398669,6.49843794317666,-2.205258779189476,1.1602341602739337,-7.381007005504087,-6.749746575350677,1.6577710940676766,-0.5963396610735311,13.896163607404684,5.965107769263938,2.5655565767519937,0.931111625127432,-2.5887640317238017
-0.089915768999095,-5.450975079880124,2.12298931678318,-5.860128571344221,-4.940522612761576,-9.15060347120847,-7.218195450180209,0.1809076016691975,-1.1033956232531046,11.50092517017909,3.768523427312114,0.1801257073603786,-1.866285332544688,-3.813101376373788
-4.84589585106418,-7.477119639025281,-0.3988270416795061,-8.365081132913264,-8.20217926595949,-6.564293548246882,-4.621105657934752,-2.5443865779217347,-0.0798969932464906,6.980604349406288,2.5152694016629944,-0.1261869779424373,-3.851973711949121,-4.507764118041622
-8.74639941785795,-7.801116001760327,-4.311995219142317,-8.182376933447369,-7.377068443789625,-2.289808217350672,-1.872177793497924,-5.398885446772543,0.0652442790362344,3.4104420070430166,2.908821482343221,-0.9621538727497978,-3.175024657347967,-6.064297889128039
-10.37983901335313,-7.25391602545163,-12.432982576211709,-6.458805940962389,-4.56356689561049,1.1739693647327545,0.1808954235261266,-6.80244245680576,0.401163042542933,2.3894883395897786,3.4387896951882126,-3.986554322014253,-0.5105343679153709,-9.398989100803783
-9.945263564476376,-7.777185983039924,-14.735566309027517,-5.750249339051049,-2.995567131042794,2.8223104262874235,2.4138824922241806,-5.771679686795318,0.7203327394832717,3.098980622771192,2.0470559468859264,-5.042095373546856,1.6370723044248656,-9.928897090147196
-8.824858702393731,-10.502656023207376,-14.163173147517906,-7.643727790633642,-4.203948349599521,1.0030483692341026,2.2320018488488484,-2.7011471088137835,0.0434813829435214,3.3343301721188734,-1.7832046825298669,-5.185548403144692,1.0467281880016923,-8.195596112439532
-8.390564627876058,-14.454974075824987,-15.46652528371878,-11.289844420005284,-6.988546468332558,-1.659734329166178,2.2506061637022823,0.8611953168672475,0.356368656342617,1.5634493279199315,-6.436275565660658,-5.899788402114447,-2.502503316752853,-7.124956198183136
-8.917669420672166,-17.07560855409579,-10.55030573328274,-13.973547600289288,-8.806970909693973,-2.5844176871836897,3.0562994822833853,3.336524163816062,-0.0920958661075788,-1.7487147642761798,-9.510349264265043,-4.573071926741173,-7.1993828500962245,-3.419838571697447
-9.441263457797014,-16.202781240490886,-9.61511732403061,-13.186914636377129,-8.079005969759738,-1.6018131770749606,3.3545457154539777,4.205226511952562,-1.2932533060218847,-4.642385283884153,-9.774615226161265,-4.406317511585581,-10.648556045308757,-1.1996382521540605
-8.681584244118634,-11.86307090591433,-12.9419226414228,-8.589312078538441,-5.365821719145753,1.0182660850324483,4.404696019351239,4.149210831253251,-1.1395317473130566,-5.488625592262514,-7.998757266063621,-5.024366543692642,-11.51232590469504,-2.221033717508452
-6.284652855229889,-6.364399407373598,-10.800265045242469,-2.439126963940524,-2.6386962907942806,4.555908697658683,6.378400557285292,4.204867314810292,-0.6551428883592905,-4.474792790719968,-6.097093695147538,-3.842664214461375,-10.167481179075338,-1.246694222813866
-3.316887561010008,-2.613315409935847,-13.27402307667796,1.7841642660309276,-1.5496497206417184,7.051392631752243,8.423887435093043,4.772640416659593,1.5527662469361745,-3.406799611298561,-5.53298635784721,-4.029774745469576,-8.136640842976732,-1.6815736685061866
-1.5378977525546365,-2.046058729842944,-14.380493003805276,1.6458752331060866,-2.2529276565585947,7.010593635923755,9.577477699814708,5.381397338816249,3.927214997205012,-4.031229235172987,-6.376013861692086,-3.481466299409243,-6.913629218575495,-2.4643544855946526
-2.01006917967943,-3.811751369129446,-10.752918868576558,-2.5708781985124927,-3.583072170338685,5.90102643831535,9.611644203107904,5.319290130185579,3.231861486250533,-6.4408280943305884,-7.601236725856908,-2.41117742940284,-7.036443103289972,-0.5970051016297244
-4.19842145467518,-5.721620244928538,-12.01155218544459,-7.915148032555146,-4.171624803357508,4.539567150442182,7.838472095450117,4.427386134777673,1.1846572119425187,-9.01387883593526,-8.109611668044485,-3.198229636255258,-7.930779155687233,-0.3191395000184519
-6.326234063193571,-6.021654638114554,-10.077970331322364,-10.606357525166397,-3.4686071031783667,3.4584183497514767,5.306598378154762,3.277324672088077,-2.153094874416376,-9.86826013112258,-7.526237969539592,-2.411038767402137,-8.50470793827216,-0.0957325537677215
-6.699197022666469,-4.504408785842874,-7.024153814398418,-8.526573752358262,-1.9592597919803167,3.5028992805684878,4.013078151469864,2.6184967786791784,-4.558818636496856,-8.432216522485877,-6.256826628685511,-2.063844991751228,-8.012813212203644,1.82284035729256
-4.916804285110901,-2.217486890545948,-8.249249795647682,-2.67724383801798,-0.6210831957063863,3.4063530358179803,3.6904357048538263,2.677207095908852,-3.334792857552152,-5.76392084210784,-4.970193268125867,-3.1638588610569416,-6.550468984373548,2.4921844827327195
-2.0372971743861585,-0.2868448128795338,-6.131050807700595,3.4861882711802323,-0.1715801764489812,1.7777358540854744,3.2997741629541806,2.973033176059168,-1.3926974890356894,-3.5409781504244524,-4.040042522160014,-2.832400482701566,-4.824863801037066,3.3572772966787467
0.3200703091621715,0.9853705214713072,-4.665831641576863,6.43586145866211,-0.6419868243930604,-1.0615214754772762,1.9172596924744485,2.779258360980831,0.2025159392910142,-2.8022529219758527,-3.3691554854558903,-3.774159185888595,-3.4425331379355817,5.601214409276571
1.1144259335081,2.0360898571949795,-5.508811380851163,4.956624562732667,-1.4711554158247344,-3.073638019937879,0.1632445077622948,1.7585839165902015,1.0796230736897854,-3.4726900493723045,-2.650559025153341,-4.756456860807721,-2.3854910245772536,5.518886224016983
0.397985162349377,3.258964960726231,-3.1667354842190094,0.7905998730028507,-1.9579892258675344,-3.303549601735829,-1.3031642425823102,0.2045426454131199,0.4600425038724366,-4.737850449715664,-1.7778137368833753,-3.7476141389098783,-1.176276955658397,4.067804206558472
-0.9941824479557582,4.41303040318034,-1.7720219148838394,-2.847678500834492,-1.7325419973613965,-2.532201807030492,-2.524921715292522,-1.2626774529785776,0.1012279691874744,-5.631012437884392,-1.008749058994204,-3.4313661445741994,0.441495400443507,3.453362929930175
-2.110509683419949,4.812095868638149,-1.7522244418512938,-3.631954037805973,-0.9476694817029891,-1.0475191421329912,-2.8249131178059104,-2.196975577311129,0.9076813714896288,-5.382481187308185,-0.6975998486661612,-2.6996318482969253,2.018998168425779,0.5226630876023068
-2.3578360102246,4.060550406409629,-0.5267960814858337,-1.5442522662608562,-0.1021289737196191,-0.2926334444808111,-2.927304103513113,-2.569557493587523,1.2870743089329149,-3.6350577928059145,-0.8298864272737247,-1.9038275316989848,2.6681249479617364,-1.4377271144957648
-1.6423427227522174,2.5678790280814203,-2.061798045675319,1.5386880884328518,0.3406916663943389,-1.0273913172793867,-3.39343195629382,-2.6263010686731514,0.7114334246314238,-0.7228858640567037,-0.8648906888815451,-2.2297691115968075,1.9099849947950325,-0.1903948720875079
-0.3508732655696325,1.3065766395266123,-5.23824223587234,3.4795888302074607,0.2532003161700298,-1.1577857038908097,-2.954139434655046,-2.6165955423690703,0.3183608233247197,2.2171735095254808,-0.1706159187358813,-2.3547683170690754,0.3476816016044655,-0.4747420081474072
0.7515226763045166,1.024530659641039,-7.480648501238155,3.349857371503244,-0.1227608876453469,-0.1437107511699144,-1.8587200981258136,-2.689801868585432,-0.4988822634487002,3.739568344179845,1.2885024861398078,-2.7100688371682486,-0.4995752829889666,0.1714411472858054
0.8784566744460038,1.66526246932375,-7.852759214209689,1.7974455684519932,-0.3704432563807565,0.9094834019205636,-1.282784619210574,-2.96412250374211,-0.7162389182021643,3.1259563062483604,2.7680481714409546,-1.495693815371795,0.8282709175611158,2.534641708575653
-0.1141052276473031,2.570355221913349,-4.105561177538822,0.3990926279177942,-0.1351350209494688,2.036038021559728,-1.0643207106166506,-3.527704200221982,0.1083819124743775,1.1597016494029555,3.4599093233574387,1.0262641015689633,4.647478532325112,2.871798974965096
-1.2031821746682918,3.293780489411195,1.922568479594448,0.6908239611239178,0.7419288701223943,1.910316968496459,-2.325143391689421,-4.249175744389331,-0.4845675746346137,-0.2116684672074855,3.546357052361159,3.6051718848181,9.7621466409969,4.170944868203341
-0.5216116876033929,4.229258623575266,9.340473314239002,3.436495216320121,2.197937334199312,0.2121230072661324,-4.412842191847991,-4.614862649088866,-1.4661812478998018,0.7197578368836055,4.4347797940341,8.145077526815113,14.140145913867755,7.310216706372472
3.3032997486242524,6.353811450990877,14.849588328933406,8.278668104071224,3.964381081045751,-1.0453515236714943,-5.0894729543500254,-3.921452712136,-1.576278154422478,4.043527969257525,7.602484949964483,10.415814803878629,16.2168055909454,8.215544370320924
9.68351360681094,10.19827041589041,17.252926876558465,13.77213173311236,5.608139164834284,-1.3434087691387808,-4.851625583784975,-1.8240288425270847,-0.8471744974147781,8.094101339750768,12.899326635845732,10.8778862332829,15.927723439683044,9.139791334780666
15.872576251831427,14.956394777063622,20.3886084284465,17.89234429649617,6.645885068209823,0.0690845789891138,-2.742023739433056,1.2098256044007163,1.6379426197075015,10.753384466739844,18.004591798392838,12.70367050052575,14.7042950195809,11.420003110826402
18.61629580809021,18.658125572042888,22.553704558851067,19.010266881160604,6.748058241469692,2.284215283109692,-0.220320683856544,4.0293752768139,4.549424912354205,11.111020316835043,19.915714230951185,11.89307677367349,14.372612922399362,11.503944519883149
16.587685782370407,19.452251402058412,22.849626667260583,16.88868594900613,5.942639705622072,3.11147620013426,0.0266311085281746,5.506066475512185,4.890017570308267,10.052085726072798,17.40809902489758,11.267398324340956,15.714838369250272,11.37460147670448
11.58949049919128,17.016970304623747,21.479424026054645,12.94858982562615,4.665252281702563,2.3568321213865158,-0.6615025594362771,5.256472388867697,2.4119706390724933,9.278371006601464,12.227939076583398,10.6144062741805,17.76379870800676,11.396101077936326
7.332032844635829,12.9055669497982,17.314578528567413,9.415420381163202,3.56925817978313,0.5900397576531197,-1.8104157009673272,3.795467256105617,-0.973361188232404,9.669024026995622,7.743964454700777,6.751134036326614,18.413334271852595,8.928116338986667
6.637652661170287,9.483383306164706,10.968056835998269,7.852901989326199,3.168942101439237,-0.7276651904891798,-2.2754062967771858,2.06185233654149,-4.7428611088112005,10.477625628270683,6.161562822511788,3.593145733708969,15.962744940838114,6.3930788742607065
9.351175216736769,8.285734896368902,7.801379590364855,8.200119937889916,3.523621873286351,-0.3167197060030535,-0.7509953261659217,0.7940745067108486,-5.776843156165271,10.08339083120232,6.867807326627315,1.7908253471389517,10.49993145106158,5.411266077566437
12.668292915206251,9.0721561865003,9.0331404362961,9.06345382132993,4.177615825738051,1.6666770641294366,1.425263584710225,0.2509471466720026,-3.0667849193705945,7.578410276199138,7.439969042541992,1.7673305309788572,4.105976503475114,4.105486262822434
13.507486096293622,10.212005387891432,10.125994385959654,8.940258780000613,4.424288350121132,2.748728230780181,2.153128803850895,0.3356845465744884,-0.5878251615007687,3.712126648287244,6.241124841373575,3.871131063454062,-0.3285679133981132,2.984705206409181
10.858493334189308,9.94604749519734,13.338288473230987,7.278981512543829,3.739792816161138,2.362514035139199,1.6976862782893378,0.8158315124208917,2.2766265255909754,0.3420752101536788,3.97362239124938,6.018334339621196,-0.9290841011899742,2.796839678305449
6.23876942426413,7.490808004136904,13.280186331677742,4.543206900299182,2.0920762225611647,1.4831674857404225,1.143988040919952,1.397328115468766,3.69376930467154,-1.0632571929946293,2.68343460512766,6.324491028581389,1.899284665595233,0.3055920928656128
2.160416251926117,3.2765424103942538,6.814594594926042,1.453390276769153,-0.0917245409396478,-0.0497868479516602,0.633944428521319,1.7232188671138484,1.7541778888363035,-0.5095175422735636,3.352909354566456,4.181342560364309,5.641105265066043,-3.403745541861948
0.1242679907208623,-1.601291569634892,1.0787485914172616,-1.7010135739908607,-2.249370745947044,0.5810849205491133,2.328963376061038,1.4912079564497305,0.400150967910848,0.7156038783981575,4.636747087593801,1.1527736976385072,7.215538468948103,-6.403298617696873
-0.2506888222142089,-6.113579653898714,-7.1691368269064135,-5.018319952677131,-4.012903868490404,2.634611849671111,4.765671953821467,0.682816158322658,-1.1253070840617003,1.1560961904146332,4.044405894394889,-2.4192255622612664,4.89439693373196,-11.52171479805386
-0.5779484539283395,-9.674721638225249,-13.522299045692565,-8.397987321043505,-5.274055786922397,3.269643911174227,5.314296919322013,-0.3329738287209682,-2.0881469532250687,0.1575608974776123,0.3280275664137719,-4.590775693444214,-0.7118260222767274,-14.292275409989095
-2.3654469335352903,-12.061041743890634,-14.132721699574391,-11.151105362854072,-5.985388060693745,3.1996537997426344,5.079104126525572,-0.99018081433396,-0.5391495423154895,-1.9894858944892373,-5.326699417689183,-4.993457137700046,-7.269932770230357,-13.48781926478884
-6.034389699896257,-13.138437649403606,-15.9864223583704,-12.285723882772764,-5.957510045450508,1.072850106845577,3.2483132109010557,-0.8817177475505931,0.4584000250985086,-4.5215757130997005,-10.372273445459598,-5.623067156152263,-12.421853387391373,-13.646145469858997
-10.730637294483216,-12.7348780344025,-15.96034739995918,-11.224495871637703,-4.904324409259097,-1.7361229608474866,1.1134924250460958,0.0163739906101212,1.1677142297137462,-6.657926952685775,-13.006431508806305,-5.40183146905979,-15.211403573118194,-11.178557194960858
-14.767028478856409,-10.790400260781936,-14.938424503298094,-8.291040007546254,-2.72604778271046,-2.267427974528841,1.0359654088550745,1.3927158882108808,1.254628615987531,-7.74575441129961,-13.2469138768041,-5.396439880421054,-16.152066211417605,-8.769433131462831
-16.39609344899607,-7.625002567315281,-14.451171487347198,-4.548352277550601,0.2314801299441402,-1.5971567001340898,1.8185268789119755,2.7887467258216456,-0.4005485492297456,-7.322698769595757,-12.220603064342598,-5.52788589197447,-16.06649602104259,-8.961538747158512
-14.6871468500556,-4.014861872565659,-10.898772524607692,-1.1633491761329076,3.2017207782066253,-0.0045726011247142,3.0734840462685664,3.7368127043661,-0.8699037767812875,-5.361173543279859,-10.785199261980912,-4.240856426920296,-14.946346724576518,-6.721618862881733
-10.181411408387977,-0.895792080858605,-6.588077426783542,1.1734551568651297,5.326437400589962,1.3144162428776562,4.162648596605021,3.838801942135229,-0.6101944837393897,-2.5444699433567197,-9.02468441492114,-3.1329430518633594,-12.039012781549046,-4.566170143600821
-4.845596241341827,1.1395193628528808,-3.4667140760052213,2.390278642406196,6.072759046554296,0.6765008933606564,3.809975285158196,2.9103548947072726,-0.004361561341641,-0.1422045855743032,-6.892794684002901,-2.2976040198004863,-7.121469054974036,-3.6831204287137056
-1.0830845701595526,2.1268185412426392,-2.731692739320043,2.7707364622978385,5.47655596852995,-0.7833383680160257,2.478865360202208,1.1825323805622276,1.2469039338409629,0.6804967034067011,-4.909311135926119,-1.66616225778195,-1.620551174695494,-1.7491919421473314
-0.2663117288063289,2.5016632072489173,-3.3988336908382184,2.605266429222393,4.084862629749597,-2.082659266550779,1.1368714982610113,-0.6744777567488172,0.5824391475748877,-0.3045803934200082,-3.8845845240352648,-1.9452699734942425,1.8077349795472824,-0.6886726851231628
-1.831812775828954,2.538204689368322,-3.825297922489575,2.0417159438922496,2.6470953589273187,-2.604625039503848,0.2770478265811478,-1.9013954192386509,-0.4281290456963568,-2.13520884869724,-3.957935178818687,-1.9989742169113915,1.2190098125558788,-0.4221740655525205
-3.7342508771722014,2.0087552984184778,-3.634876322532404,1.168525460228944,1.7170693426163668,-1.940017069480459,0.3412255892658494,-2.194777724474535,-0.7150373048107417,-3.3337306449102124,-4.183581325600695,-1.915820522237034,-2.775907927347414,0.0792190197044477
-4.016692341885885,0.4606902259872498,-1.3234686746602466,0.1510974886355463,1.3647915366474503,-0.8640122632585039,1.201703156433728,-1.9532073855799723,-0.6898261844127535,-3.077196990080054,-3.3526340358472417,-2.8788390630567893,-7.076257060170458,-0.6713461090552086
-2.2783266399981663,-2.1092090639289,1.7945613505355986,-0.7696193254415984,1.1680404990366349,-1.0267064338519327,1.0141698831953896,-1.9084623947974613,0.7475526955321167,-1.899119723718756,-1.2950576268951348,-3.766190654743762,-8.298276242978307,-2.586279605086341
0.1553977623003666,-4.880220020822765,4.185330057913996,-1.438896593129606,0.5281854702793796,-2.241594934323332,-0.346119973212434,-2.411860363496379,1.2574197882089406,-1.2300602589371306,0.7798326231698942,-4.8879644715237,-5.374165754608949,-4.802748023091576
1.4779242453333552,-6.624897985082103,6.071462440711311,-1.944526969063882,-0.8505182700858154,-3.3529304470448937,-1.761916888556354,-3.050062122809216,0.3798365049349888,-2.0525926610406158,1.4218825334964038,-5.342094678580907,-0.3069839703235872,-4.743835104385237
0.977380334388894,-6.64970673083245,7.136483677653992,-2.5710024096436186,-2.645905396081119,-4.080812369529861,-2.96373448278772,-3.0029644847611903,-0.4200547451282362,-3.8340052656737873,0.4676941419428464,-2.4906218561036773,3.579021673852718,-1.8591566072190728
-0.397685767376249,-5.404974187948674,7.505347124209084,-3.52824260145888,-4.046678755803463,-2.505237997017048,-2.11806363241979,-1.8348010629955736,-1.492092684783452,-4.8194407170563744,-0.6573052209559915,1.2432405336037202,4.32944120457686,1.999716556468564
-0.9025776095404096,-4.131095491527942,7.799982248045275,-4.663743907628644,-4.296942903221645,0.4448831795141974,-0.0336407603424097,0.041575221605516,-1.1359786902120852,-3.593461503775265,-0.2637981106438234,5.4139430725194,2.6624278139715947,7.990959255505384
0.5348692495215004,-3.788339764560551,8.347124831732996,-5.439878135836662,-3.272552011202348,2.0281590827927247,0.7670361472391201,1.6741950806782309,0.2231115743681202,-0.521498155691956,1.9678573956786507,8.957171693390675,0.9446803576294588,10.769334853814158
3.514820343025095,-4.227665219503942,8.44774175899708,-5.267180134242185,-1.62032585269721,1.992797379590684,0.0757919496859978,2.334103822735831,0.3848151597590246,2.397987327480417,4.729041955477146,8.861737255803973,1.037214144024786,9.891026019957271
6.610419550334672,-4.381308771828044,8.217112942323972,-3.971113245725925,-0.3113697337016798,-0.0724643175408869,-2.2711292250754704,1.9860921873487196,0.8909006897797871,3.303343169048321,6.433432868672618,8.019026413063994,3.000884039729896,10.291121753035345
8.503129043750679,-3.315225616441362,7.945785258309945,-2.0124532538577027,0.0495380656111272,-2.791356445805734,-4.642270898125709,1.0802642895599657,1.3028572755720258,2.21393724063168,6.682508019818226,7.222099677182862,5.501818394154348,7.712730916682296
8.760947717283107,-1.1713175022300764,6.413235311920185,-0.2445114764529099,-0.4034228797057202,-3.466550904156718,-4.802629650084757,0.0079658622559692,0.7956625899018752,0.943038966671626,6.255443002800711,5.349031678211102,7.051070239660527,5.852310236134139
7.729662046485616,0.8793691507365784,4.53366592450418,0.6396175793041194,-1.0272593740064533,-1.3840394827928888,-3.118594696284688,-1.140651511463069,0.6074923205191667,1.1204707126310955,5.721415881873984,3.54713176050569,6.752605551678099,6.181208027319473
5.921611321630444,1.635828733356028,2.38872683093648,0.5571347034382388,-1.2517550776411284,1.7153706099378394,-1.4251542435360345,-2.3158243511104706,-0.4048352399794722,2.2764071394897867,4.391916419937121,1.3149611084280484,4.252414798631,2.953764524061548
3.65295896642341,0.9118434920173152,-1.2234410170814156,0.0438973320297151,-0.9746207789936376,4.287527959195466,-1.1766308384136364,-3.1806312292642898,-2.593352142255411,2.080896578397866,1.018280249664156,-2.6514847613647,-0.3519357815618122,0.6195300967979946
1.211155047183393,-0.2999599610525871,-3.4528904726462737,-0.1623213960363192,-0.4654965089104341,4.916533899174778,-2.462409767609422,-3.2374560622280817,-3.4453753894025567,-1.2493842958483334,-4.353941943438899,-5.588374646785747,-6.097577338672804,-0.1250388474551806
-0.8688442698260048,-0.6534184781056123,-5.137629868548965,0.3816906020636863,0.0261606447719153,2.839156476677677,-3.875385183256258,-2.355198630080347,-1.7427494447810308,-6.67901031500907,-9.461917782700924,-5.701576059292464,-10.817343220129745,-2.0537147791597543
-1.9644398593364023,0.4863026591219239,-7.852479149549612,1.6135993623276748,0.5120077709398405,0.8242705866672462,-3.4294870109806115,-1.0902492130918175,0.2084407349522785,-10.638448403323382,-11.174529543553172,-6.144315574861501,-11.902583742267618,-2.0105778735267825
-1.9197954968492703,2.6188804426231496,-8.869635493368968,3.1229404827041813,1.13301306442838,0.2069503561169346,-0.9954115315039516,-0.3338037598463406,2.9826169965054588,-9.903654531303468,-8.113560016067586,-5.780494501559354,-8.141762528973606,-1.246808683620717
-1.3476787309904943,4.580902316418498,-9.26408059411064,4.450828488654743,1.8610406901767225,0.5748412768330635,1.5208373727732274,-0.5377337278416503,4.788370982765222,-4.500756939658167,-2.063105889864711,-3.563330944366294,-1.1172328353941268,-1.64389586017372
-1.1543182500598306,5.4232253096395535,-8.291394295105302,5.26260586389398,2.4005025418533443,1.554474488681563,2.173639589141384,-1.273327455076508,2.681605344894739,2.134372851150133,3.321103500556644,-2.4642036210043257,5.452945801002105,0.3321517188143679
-1.5812623220900566,4.987656893589225,-4.399239589551637,5.3526765480718135,2.407482532599692,1.4366667464413585,0.8440594409035598,-1.5842389924673477,0.2112404768873525,5.998532174866183,5.440825666146237,-0.4379623539235587,8.301054708324212,3.3333015626993543
-1.7264672399050225,3.8527936842259294,-0.2428926496969739,4.658174068643377,1.793406656762779,-0.5122878545717099,-1.042771057901151,-0.8021184586846606,-2.704256636129168,5.800785514241955,4.697347809630594,4.098004410485223,7.043639206450728,5.864046041115432
-0.2259597096269257,2.838649201041469,1.6542282564679365,3.3915709143224406,0.8064343505033649,-2.605409431044345,-1.983321799377676,0.9447837792112844,-4.681536764244195,3.7202457519322376,3.763784713001321,5.432111736153993,4.294953150669047,8.28999337904702
3.321902113824408,2.4767983696439915,1.547111915242636,2.1191500260858795,-0.1705780308203981,-3.035643687556032,-0.8427410716119992,2.933108000632821,-3.310028635450577,3.0816653792051825,4.982199384156419,4.675768251478242,3.321335337513448,7.089957410971195
7.485268337351606,2.731680583285641,0.1843582686580115,1.4929167224338276,-0.8981686637861772,-2.3438311511858965,1.6352316051357656,4.426780684978135,-0.5568778286124304,5.234151339077603,8.285130900473746,5.225110351448752,5.322178354211385,4.253916294964119
9.68079482004331,3.039857518026722,-2.488074112390325,1.6485481160362534,-1.3929663779090444,-0.9344235751665444,3.3867830264811,5.025123429035137,2.868105288396248,8.498038325521632,11.366781094205525,2.4868414840345774,8.673365845878736,1.820661677996438
8.05725171756501,2.6157477987320834,-2.694616767324808,1.7791658714248202,-1.8233841563541249,-0.0051887706314747,3.375561367202211,4.576253963284461,4.143277529219442,9.929626662777226,11.699577288432971,-0.271255678924151,10.565332500650976,-1.663825828355253
3.037164462912542,0.9085503875830336,-1.9448988230325803,0.4897022578586982,-2.3197539378569885,-1.2506518887271847,1.4516582634130772,3.015962666094897,2.156385654902069,8.011834286898477,8.472749639478945,-1.336037385118476,9.32754139091117,-3.694610014371544
-2.880342260191344,-1.9970537211148605,-2.6869739050023367,-3.068982492008943,-2.861555491995877,-3.0556884112459035,-1.5033127344199435,0.5049033111464274,-0.3754226323836772,3.747915151760336,2.8920973774999577,-5.799976950552738,5.387083685692303,-5.4204037103665526
-6.982008627947657,-5.307633201800863,-1.439606090399124,-8.141923802025689,-3.3076556391162177,-4.026007219562093,-4.108509754829196,-2.285650767992788,-2.900769749809582,-0.5710680215875454,-3.0590192086570687,-10.300044400319036,0.3740039110792765,-9.340965770783722
-8.307356573648342,-7.912415094960776,-2.33842890956878,-12.456675006808524,-3.525435888537392,-3.9100612628204927,-4.967767617368935,-4.2635160996006185,-3.2293509856839187,-3.3955910681328647,-8.010500400513948,-11.329134817430658,-4.372957658944049,-10.48261394928067
-8.047345785078843,-9.038872098791764,-4.98764707696129,-13.682114273732918,-3.507466762647128,-2.626965712248299,-3.684465946708312,-4.586791570576063,-0.5319574405204603,-4.736872543841384,-11.548318605337643,-11.411315150159735,-8.399585385267464,-9.340843141316991
-8.110266118640496,-8.702633523204685,-5.20978637721221,-11.224637193869192,-3.373990124207737,-1.4959557509575825,-2.5087018714429687,-3.4054661351982745,0.6356865937114189,-5.31849668235862,-13.567910177665487,-10.105977337327772,-11.562322402138596,-8.842152323075888
-9.224600232631849,-7.582030662198518,-8.154546491749915,-6.836669899133275,-3.2477626491170137,-1.2718012954584974,-1.7463553238243708,-1.8827917625397583,0.8146808313832171,-5.367790244873288,-13.67189677073488,-5.986038144610061,-13.272366076796231,-4.89553364544072
-10.30358258265044,-6.407002089286962,-9.075978059455412,-3.388585844822823,-3.1117670215683857,-1.2906337356735536,-1.3893547747632806,-1.295560466860787,1.0498419584917424,-4.481158871162897,-11.409182219409898,-4.023350728512249,-12.568712240080966,-2.240812772414285
-9.570630905162202,-5.381711673162325,-4.666210391714485,-2.704536528705697,-2.801497722966584,-0.7799088780539084,-2.832634048241764,-1.936908173810329,0.3353833089399068,-2.5410210495858534,-7.076120973630896,-3.040131252666028,-9.001523300467143,-2.2736893040867234
-6.320154053196282,-4.133220374634604,-1.6732211563324428,-4.199327565139653,-2.1668773946823934,0.2430535003584274,-3.3332192529609275,-2.8437503752276414,1.3858890988512995,-0.3735967252631265,-2.0703385423010063,0.4967248303278142,-3.4059029669731524,0.5455349091816979
-1.675095579538948,-2.196855355950145,4.048163746131329,-5.408597971320749,-1.2571578724916035,1.234626656893771,-3.0764636426793035,-2.662273604698277,2.996182157725733,0.8302051385516513,1.8059546466649796,2.5860635509204517,2.26215111146647,1.932412070932759
2.2891838032118565,0.4401026338221192,9.723069090169297,-3.9477081116330073,-0.3304888177000524,1.2513669646135943,-3.6100440627289103,-0.9098222036197448,2.538080639665624,0.7855806944554318,3.5761172434737603,3.9526987758392393,5.985462817571832,2.112775829486078
4.174546080219896,3.243613359482374,9.925131692520642,0.6726726152859186,0.3387617864020367,0.6888557455676623,-2.6426564038195064,1.4924861309762534,0.8780546999214047,0.5863972091887393,3.6921323593119046,5.074383353211413,6.836514612785671,3.2355760643052305
4.161785148312949,5.534651028182897,11.433681586290271,6.716647040666331,0.6667978363932104,1.010797297357033,-1.8368093779782375,2.884403207702884,-0.594515464346254,1.643286924950535,3.395568447953647,3.7029435080431794,5.383919794656316,2.0159175392619666
3.486955353843715,6.960716064048755,12.825015537814156,11.470550518745291,0.7728704155612742,2.5149463098773754,-1.0592048507488154,2.1485945537557893,-1.258101055153193,4.027146957130404,3.444838676847439,2.050882157994307,3.12542140479649,0.2275032912009754
3.137435351114497,7.586726777020594,11.12309319720345,12.999373889240411,0.7963228117203593,4.2742493794288325,1.0183719959920716,-0.4481890653829803,-0.7972038198926411,5.949965268740554,3.464337543051468,1.4557723116253831,1.4238253348685852,0.0642432762760292
3.0369401275219845,7.58686009103983,9.1265406008341,11.149316260050483,0.7264553571187404,4.12897190557528,1.6403474856580231,-3.46200640921224,-0.2278125539219813,5.1289510800811975,2.552294844805268,0.6025023896390929,0.7242126057739489,-0.266757931738514
2.394478053060745,6.9398575308437165,5.592929371877069,7.288924394131773,0.4246235952627202,1.8675464761874532,1.577053610529652,-5.259716223754647,-1.935914771587655,0.9568508063634568,0.5039333394694014,-0.3822321633474224,0.573552867698925,-0.6553477973641817
0.7448476913597277,5.499058886267017,-1.0024965220054307,3.2476853061225275,-0.1991149073140248,-1.4100280277766235,1.4344672728616386,-5.000449128173817,-5.406371450686016,-4.479868048638105,-1.6328177453510662,-1.3053155156815035,0.3430321746899523,-0.3582835688780471
-1.3883300001810008,3.3697634650167583,-5.255043255914398,0.3368867320547518,-1.0426061741362442,-3.429528155707509,0.7185621915502406,-2.980685777761704,-6.703311304737536,-7.576183413411683,-2.2822908229516683,-1.588920762707703,0.0061461845387446,-0.4393719406631202
-2.826847954399067,1.1508563696799865,-5.778596277971114,-0.9754459512901984,-1.812743847032744,-1.7928184740177926,1.836105636716664,-0.2610031817898335,-4.029470286688073,-5.759618797191373,-0.6680871313554997,0.1504675254884166,0.2725745444448039,-0.0186665936384574
-2.713992788916408,-0.3049085092913977,-7.016531231479785,-0.8113604880569505,-2.112900611817682,0.998195820501405,4.103034470743834,2.051061294223068,1.2560624496284585,0.5583949397859138,2.5254693915737683,2.983258467777109,1.9070892402066049,1.4822158744050844
-1.2234576763859368,-0.4748776013492297,-6.808775718783957,0.478764165242765,-1.5228266974930789,2.9240739827570885,5.955390952231069,3.373461922957609,8.332957726398707,8.114242769300963,5.720831603207479,6.6426216051966565,4.780482878305152,2.822863365701334
0.5865570712574097,0.4198017689618218,-6.11353608656178,2.440801952452469,0.2966339735388672,3.174339811490771,7.012652393968841,3.763472675665853,10.598371099281277,12.862985512222362,7.587602358229888,8.12197750097539,7.502015961588968,3.14197876683012
1.5618474770702138,1.5607884948537074,-7.0740241628161975,4.4613471571270775,3.367627220639943,0.9855329982709244,5.794431700288097,3.5735647721498194,5.285917570714797,12.43148521294682,7.642475134254376,5.948608948312543,8.071286516077736,2.4504254958125125
1.1708646764555892,2.1176451252239823,-6.778013292503518,5.808411273184591,7.082077287866045,-0.6343042922063113,4.288553614021075,2.957757753294757,-0.6545854179390569,7.258065686661354,5.935971028304603,3.3936716064788506,5.166712171309393,0.9359495665607488
-0.3659381500707228,1.7544989150404695,-5.427758322530016,5.884047265458577,10.125533871375664,-0.1104648061276451,3.7616813582382207,1.67079546689925,-7.505704822438869,-0.1609110502328429,2.504634371381064,-0.895361149419207,-0.8662464861883414,-1.3103389742724465
-2.45664528175962,0.6620192276550094,-5.016342586076148,4.510306465382996,10.96147208512197,1.4534013970320956,3.799726891728297,-0.5924210753898137,-9.818874505597584,-7.0806601616520055,-2.5658763939973843,-3.241740885738304,-8.078413896581537,-2.3905966639804745
-4.553652190099966,-0.7836473615480348,-6.266539408403218,2.0117585024394407,8.789636306439284,3.112933193967714,5.427194176918616,-3.545127201220462,-3.858687603094552,-11.91448989766965,-8.496903204546824,-1.707340254035704,-13.995785211279788,-3.097790270198537
-6.248303642332717,-2.282547002913922,-7.334186244504571,-0.9149633943743912,4.345628937772318,3.052667939209706,5.546432236810202,-5.966693261562033,-0.085117697421649,-14.360194943558898,-13.490763512523802,-1.1300404501856858,-16.914319983213083,-4.303617778639117
-7.116153948567691,-3.516249189539125,-8.68992936359281,-3.373315600083279,-0.2144684576165745,1.4154029957170495,4.159204895522302,-6.179197961023839,3.4549954378314203,-14.574309316370744,-15.428042921491738,0.9859378558762308,-16.497912469934917,-4.528449991182411
-6.659253578052134,-3.9214609500942585,-8.965838094100857,-4.421471124880419,-2.521519561931958,0.3458741577046462,3.4068186374849216,-3.1988333454886484,5.6338393133326985,-12.484611968651649,-13.206151565356585,2.790372782386628,-13.407647630862565,-4.591192226827603
-4.567397179252684,-2.810807463872381,-3.7818618253064655,-3.366208876876841,-1.5551307325956691,0.8667005778980196,1.6240025028417495,2.270278693730733,2.3370129108800444,-8.001600167140339,-7.56244945560101,2.3403064538906238,-8.532205868842206,-2.8928516780782267
-1.1387066460724422,0.0279373952040327,2.513509233933536,-0.2729008330551465,1.6228007420299964,3.2831820128088727,1.508260228910829,7.892844368466004,2.1702777854923228,-1.835740754354696,-0.6451595046483325,3.526335963232876,-2.659760999038456,0.6934933046183885
2.558007530228293,3.751509217714063,9.06931267794256,3.644747794359765,4.612179149836155,6.12243706288987,2.15819659382408,10.972175907841413,2.589832766308048,4.10932407642741,5.237668118941272,4.384318571108923,3.163332702553727,4.146176693105488
5.079062380550036,6.608269148133506,14.849207263080316,6.324910762914646,5.380590098575272,6.797755462054703,1.0912373500847288,10.118634720973088,1.063809422350825,7.470384864518861,8.611718003049925,4.118391209538054,7.243452355895127,6.246283905298427
5.423399681818893,6.969891674387755,13.369853756246773,6.002324529800884,3.610059406186268,5.064438826561434,0.7992511427451685,6.111291405102545,0.6094456505962663,6.899895705372211,8.984656554602282,3.480535521100366,7.706188521255294,4.976246280063779
3.728855077571417,4.538261585067666,10.23846782238349,2.511729603554281,0.669182383318045,2.731607064419085,-0.7958629166260007,1.3157673710488194,-1.643142557633154,3.097505497640144,6.54020749571843,1.6428953881874628,3.867570020994915,2.1499462797350546
1.2917321494063767,0.7022731644642946,7.5774422388205025,-2.3533990332845214,-1.6380066677684653,0.7522026053479924,-2.9026791467590707,-1.8967453020315244,-4.082474198894742,-1.5170789744555029,2.070202491783101,-0.7676939812711346,-2.606036935327916,-1.0918755089418175
-0.1958638465219913,-2.354707661773924,4.874128375152601,-5.937667167638729,-2.418108812655399,-0.2222352729573791,-3.1718312990163247,-2.5624809869689464,-3.79878509584231,-4.3098959278707625,-2.8175798133663257,-1.9069894758278996,-8.095920456783597,-2.702203830222682
0.2990467532036334,-3.13865787831293,8.152247018724477,-6.572570382794439,-2.072749614664417,-0.0224779934135548,-3.622099854306752,-1.4104580415403625,-1.9984616885956143,-4.019033285731791,-5.902517995326292,-0.7494184250380848,-9.162803924175766,-0.8480076446600798
2.541792267393106,-1.7587758909228055,12.902727681805535,-4.73391848473198,-1.6192829671364528,-0.9918183260578514,-3.115724558197844,0.0174643788370083,-0.0156289884780399,-1.344258464201669,-5.442581600489543,0.7669698457511501,-4.964232782568885,1.3325740677623026
5.2781224151469495,0.3814026198573561,15.831309983407548,-2.547449417745405,-1.734935896659236,-3.147827134269701,-1.7950661905029537,0.589098251755841,1.7392520799982365,1.7088970338566547,-1.5735302053439,2.769995381823782,2.0035953158052706,4.14619032190306
7.109093479396465,1.7348475147128395,17.33355441167846,-2.03654546261593,-2.353512265883964,-4.3013637832496165,-1.4989664167062953,0.2027477078538524,1.8920407889616104,3.139421607790309,3.301194669392741,3.86593559217033,7.582923537043397,5.473863071867315
7.33146661223606,1.6173416452600158,13.684276269270825,-3.562816419087749,-2.970748124113701,-5.118786854910101,-1.8294877526458853,-0.510378776938369,0.6729277706252521,2.0771079368286536,5.885578892598531,1.5685208164124946,8.838035285217188,3.4513208076653017
6.195666910630322,0.3840992527284683,7.276492619454329,-5.738079023253931,-3.1901236149390115,-5.413181066011488,-3.0835688616365315,-0.9414754801383722,0.049059001750752,-0.810056839279266,4.343346386038483,-0.9748713441197984,5.948035874242187,1.798594267594145
4.535388961389415,-1.1051885738566796,0.6170329702766062,-6.809283549318321,-2.9989070781056792,-5.005723053060547,-4.800955390728424,-0.9906510757719325,-0.2022023115981016,-3.722146184389692,-0.2402930173184909,-3.75201615130148,1.7358259752797895,-0.8474379288509606
3.1600543664684047,-2.116706057234337,-4.7654684285589015,-6.244251001504056,-2.66278833311603,-5.156045856196751,-5.314171322120612,-0.9412498608470212,-0.0708323986017723,-4.728143648141563,-4.613862860378898,-6.047446474248254,-0.6474952518680546,-3.0717131343722097
2.451271694668569,-2.32098341887139,-8.256230636654802,-5.091517087230495,-2.460191713309737,-4.807767344924967,-3.993677645328532,-0.9857786107080556,0.3850095752917805,-2.914010723694502,-5.829782348535133,-4.679307489477449,0.0040197678837188,-2.48529408139516
2.334337313854353,-1.768768320244277,-11.791675040266805,-4.8280560593129165,-2.492610607128678,-3.772611233385317,-1.4693511894218168,-0.9337556981152167,0.172987925523863,0.9433553618878444,-3.4183059817003727,-2.84243220083668,2.402303609831237,-2.7456002599800367
2.493745370123362,-0.8361807904492355,-15.036249674297212,-5.833445493829329,-2.6553585912330835,-2.3618257940950063,0.9818107346352168,-0.3808335778716127,-0.1948464375998415,4.705628377685468,0.5051079875444326,-1.114296951762784,4.142966156599904,-2.8003761685512862
2.6048174815178147,-0.1924103003170056,-17.77064539490725,-6.998666721416301,-2.743608493887171,-1.150256619597443,1.6553581793653551,0.8468679086028512,-0.2374668452429425,6.183314360431769,3.1613752531280124,0.9805484714696114,3.721520980332894,-1.6221406795833486
2.456213736168557,-0.5760645427954572,-18.07973826518108,-6.869491941704926,-2.6208295221508315,-1.397969291487728,0.3570468594760833,2.407414946475429,-0.1835389037513926,4.636578741054159,3.290683987906263,0.8407058648580089,1.5624712531381366,-1.4150879236575589
1.98607140392982,-2.2883247327636536,-16.078676061387736,-5.16393009191596,-2.3249179377304934,-1.4960857601426252,-0.8517052742774929,3.5998446990822863,0.0346448764904249,1.345384877085353,1.7714121780006238,0.4433711004734004,-0.591913443520788,-0.5852271097102526
1.3128778160865764,-4.73506846302941,-13.303818443719823,-3.070642869957968,-1.9944854961736915,-1.406902370183518,-1.0504699208921748,3.870444130141699,-0.1255100502114179,-1.293161424489135,0.4294003806279214,1.037868718813726,-1.2042054836333094,1.5823506141523955
0.7663924380341847,-6.548418413882612,-9.049076080062065,-1.9661102639885044,-1.6535441525122287,-1.357753102614666,-0.3064871103520934,3.278895806118939,-0.673790781053333,-1.5225373282574477,0.4097304679926097,1.5159313653213824,-0.0249556667943267,2.8947193886975904
0.8193592448664333,-6.418491792597877,-4.921873753354872,-1.879753184135705,-1.0914816017059756,-0.024405565360977,0.8462651974474206,2.5314622986818414,-0.8270616676708837,0.5388985716467083,1.6051681513984128,3.0400631398497104,2.0305817215103694,4.291684899748778
1.8294526297384357,-4.063656632212133,-0.2934002563893116,-1.381919349890751,-0.0390263378135973,0.7472342334876396,0.7336709317879531,2.482503335837356,-0.3958893014224732,3.1779758469327763,3.319808728303599,5.336953377136863,3.8370748599646056,6.737017352411586
3.6856955343477047,-0.4968671283805133,7.000241347180558,0.8893649523772353,1.4794096012461502,1.002811577886614,-0.4677706779243259,3.418701799808914,0.8091673975419528,4.597758576972316,5.113274719516001,7.156283768840817,4.860155604911919,8.44915130123265
5.657509967809393,2.711511469023911,11.294536985331051,4.620797743052702,3.0075695927477053,1.6339302354680596,-1.176691648370234,4.685375361988498,1.7781257411799396,4.333700246523781,6.8798570144229405,7.201117645489022,5.211095948328303,8.532366764689211
6.69921928134951,4.552827247576433,11.872128397135828,7.85216135471893,3.96594495557736,1.3378382653194871,-1.1102680508786849,5.044008851608222,1.2440638091394292,3.392524633374091,8.346910454389226,5.050909519466374,5.1992033449685096,7.149960920481531
6.093931349397268,5.072197628574562,12.700144744291055,8.67338483112571,4.1515167848033485,1.664715614978142,-0.1261705524238563,3.600548755391017,-0.1280265121077999,3.122669153062308,8.90115204950663,1.7242601250861262,5.00062678392419,4.052155997368503
3.938398539693861,4.821105131619758,10.11690742860735,6.877161521694337,3.894693231195003,2.379594431658812,1.0138668416520324,0.615153151458685,-2.077088434682293,3.948616106234333,8.147605857517263,-3.20244228858447,4.7012031280454565,-0.6235474933257767
1.0154424925664074,3.899951519343429,7.743707788342378,3.930443600211289,3.659552987127224,2.1775396578624653,1.1281822281089038,-2.5176208232271904,-2.90309041129988,5.124437046904074,6.559483539251797,-5.858668373195199,4.449963359570869,-3.016579020430337
-1.8574609106536075,1.6652836548898762,6.778488262460296,1.424532308117218,3.485933051057792,2.335310499545564,0.802334896894633,-4.214732032052055,-1.2021113914183337,5.618134417946887,5.31517203601496,-5.4738944431908125,4.417748886433305,-3.78667547010228
-4.382739705114787,-2.484929210061772,2.5965477327369597,-0.2867361922880782,2.8933578088278478,1.5629921491652734,0.1596013167780012,-3.8889274895729713,1.1974076716361783,5.169500685649474,5.291244943894675,-5.687852531762575,4.6389279672015,-5.277323156468272
-6.692716724891731,-7.987669659534308,-1.6613480358633146,-1.8946604250050851,1.3929674488211852,0.2719342078074622,-0.2384023977513335,-2.417503109427233,3.938471092508544,4.487382856841766,6.183537975929344,-4.058182658898879,5.023826907500432,-4.924117688866612
-8.747793161043269,-12.87489947632294,-3.387196387623014,-3.797506878189964,-0.9159603451959236,0.222645831574069,0.0584814199370222,-1.4743861642252265,4.763620646727487,4.458783403155227,6.685513781599358,-3.263978928836635,5.565439735653847,-5.50656462007072
-9.945536852003515,-14.893565420386372,-1.463519877705851,-5.245005256703163,-3.3084672737962286,0.0554742723495436,0.0830441152185728,-2.217690755674216,2.354621327386061,5.1931302402271164,5.599644302126816,-4.547836420329496,6.405069108326032,-6.205492934566846
-9.485142090267203,-13.148349532514588,2.9363835039557062,-4.968619032646796,-5.011204558373088,0.095852005842384,0.0516742647591284,-4.358287136226281,-0.4637419699280418,5.815352367017404,2.8387485550606364,-3.8816582987565473,7.523172250771463,-4.419479491518667
-7.211270215632581,-8.82539449901962,8.661462881196153,-2.5992847431894326,-5.78988433209955,-0.1159319795190265,-0.1726698564597546,-6.3486813611888735,-3.9208655732535975,5.165888105834526,-0.5608918933006208,-3.912576297341353,8.332763639841577,-3.7089897042458055
-4.0592360258829885,-4.296081517659136,11.094694406721684,0.7104497794910891,-5.939132384671009,-1.7029854190555462,-0.9085820477521354,-6.565586084493802,-5.403443220926048,2.7518483283626445,-3.301298205728361,-3.938907915860754,7.748850122659796,-2.33872430211342
-1.5259109767633705,-1.337255003596443,6.942951117917811,3.1880946940345893,-5.736326108668969,-2.9131455348940625,-1.6302724460333402,-4.590838079786419,-3.171643267473629,-0.8421169514315068,-4.69832367310185,-2.4903183303297887,4.931839147942327,-0.4526338799984619
-0.5474989837740729,0.0125287154882265,1.5985074526540617,3.9778701679400257,-5.02608810426905,-3.408255764262416,-2.246177946515754,-1.6063822019195977,-1.1295872695480111,-4.338265609472895,-4.881995220614261,-2.1226941224653504,0.1732740480761307,-0.0767761140578363
-0.8033888751519491,1.0443809382145837,-5.272328146526437,3.767968713209676,-3.4655326957671804,-3.069465236157592,-2.9583828525649185,0.4241650398243166,1.6669901261216613,-6.574901974639667,-4.393610417107585,-1.178166470390236,-4.9209595583548005,2.038043198636349
-1.117496656502098,2.909473349463024,-10.55849163558475,3.916657245761229,-1.208472648657711,-1.706075935972592,-3.3544216711405768,0.1851910613159333,3.430932833939736,-7.15311475639913,-3.760538572871507,-0.4424025104486684,-8.30120882687396,3.000594995679742
-0.6076870412608031,5.47486047552335,-11.390965991916918,5.004767867717007,0.7569088466750244,-1.5399429865851584,-3.1949454266079544,-2.049177065057417,1.6835854798031844,-6.558355640882898,-3.441584577576652,-1.5656462536547098,-8.854081297297562,1.4906563313207135
0.4679461770790496,7.48432701174184,-13.102440098544347,6.274590049140024,1.1394159101157122,-3.133457812533148,-3.2383519700591186,-4.6988809048337234,0.4148377140202411,-5.765107925318798,-3.9747530197376335,-2.443242651345679,-7.244923339878341,0.9599959051924208
0.9411939631307789,7.759242766155586,-14.272965877058631,6.473622428664168,-0.5979747893568259,-5.380667890404763,-3.023729698081718,-6.134576542452672,-1.0417657750220346,-5.600949460908646,-5.868755952434128,-4.017231806552895,-5.504905480112559,-1.5808387563004285
-0.1663260589877833,6.284606413190518,-14.179327051666917,5.213743446539086,-3.600497122816501,-6.87654526520469,-2.281118977490116,-5.841876962309103,-1.843753616745559,-6.236713545719162,-9.0747013962261,-4.807815895117672,-5.5660102172390165,-3.284712306724749
-2.6499753425344927,4.252915944337119,-13.547906233868453,3.485849324106109,-6.046712599367799,-5.492212802129915,-1.641451919513052,-4.525467733782804,0.2305677218258986,-7.09457852624382,-12.46637430282937,-3.246138045746491,-7.76916730164006,-1.5726318249656122
-5.105615019237895,3.1343818548480264,-10.660619363213506,2.8388072264395454,-6.350216369687612,-2.035959531439389,-1.1133355468187636,-3.163316807317526,1.7559807870970308,-7.231658806946298,-14.028753171159506,-1.726350309065325,-10.484089232825268,-1.197081217086169
-5.917907766218262,3.6301811092351137,-6.383957549102345,4.020595289941392,-4.182912222614705,1.4807698907528368,-0.6727376951053382,-1.9988984447133296,2.906975961258662,-5.968731401868961,-12.019362449672052,0.652222313590411,-11.238847414775044,0.2593152380771692
-4.461661661859283,5.304030452371887,-3.036026152641088,6.327288887647812,-0.570779504347021,3.198950101267374,-0.5178926796232084,-0.4887201246782489,2.9213402181495782,-3.3830896762049747,-6.467002128904284,1.4393982591384076,-8.635317948561196,1.5534537421487926
-1.5870287114106194,7.004589851322919,-1.3571208401665955,8.174616832589848,2.8720244830128028,1.7795993338259446,-0.5294359432128817,1.7573586290437344,0.605892237882832,-0.3816563391067014,0.2105120638714535,-0.5145003480130853,-3.6304632539824606,-0.4636417097293824
0.9518697745446988,7.608206567036976,0.6597548185642832,8.30667974383133,4.88835198532765,0.2542896735843348,0.945204989371214,4.053816878766052,-0.540148500925037,1.6820816290000895,4.291739608986452,-2.195732429222085,0.8871163937605129,-1.5855070462252745
1.673024798120501,6.57139567214605,2.692554900562418,6.631556962816584,5.095991012482925,0.2328250270951655,2.803481732117433,4.802399134941324,-1.5675105607957098,1.6809656254020826,3.093728143347485,-5.514306297116532,2.049752106168121,-3.066125770521205
0.3069219980912772,4.113624240499352,3.6664665504064473,4.161518175813724,3.979078262758767,1.593673644076016,3.566801801856317,2.778563622872805,-2.327827935625874,-0.5968561639066383,-3.029417984383553,-6.049769815451152,-0.8991237917518795,-5.201990106269152
-2.1055566545531423,1.1152938727553128,5.115703644240551,2.292129134350992,2.581557399439817,4.978996743480608,4.622165919634494,-1.5563337037249334,-1.7706965118396862,-4.090895989397218,-10.610806088843376,-2.383664359727592,-5.95794387489882,-5.034158708889523
-3.959219761941839,-1.1909285608863414,5.602650394787081,1.9789555495279565,2.0633203169867897,7.108772396178958,4.046759067111857,-5.961491115011009,-2.899909683847238,-6.786903493307323,-15.160120363147373,0.4431304918094917,-9.68813942132047,-5.303607990406388
-4.135380331896048,-1.7314436786909069,4.382431616134324,3.214032663301513,3.1406280005891407,7.563457374680988,3.454822309630928,-7.781027733677124,-3.522636657731712,-6.785578187413602,-14.014512815485444,6.230517929366495,-9.548654275361756,-6.09317503103742
-2.6617953167111565,-0.1945013075670072,5.287145934629352,4.981076120008458,5.571654859059578,7.560446475970531,4.834009137702262,-5.760339198831193,-2.1477189570200204,-3.6203720650887465,-7.936219439241313,9.844291987517638,-5.551606718096103,-4.361341271737645
-0.5676267462670381,2.624257067964166,5.780294870634409,5.769279847918666,8.102361783965751,6.394290308359079,5.021446485875906,-0.9139754827910878,-0.5666094671568336,1.1430361047304878,-0.3767336400723557,8.333069440013535,-0.0970891739739236,-1.870678226048716
0.942131833345332,5.12121502522222,5.0368219472377245,4.531589822386742,9.164160106377745,6.906143017164808,5.929232618231246,4.199810826227299,1.6654233546735826,4.739009162565534,4.954861611409058,9.070674456723552,3.797811085812885,1.253111174081032
1.3959916342545515,5.835967922912275,6.523388835020206,1.5603068907965856,8.004391571473043,8.237116543316333,6.314307522151791,7.213584742587017,3.156323891709968,5.122787592042975,6.419947532821482,7.48896186189519,4.546280170075709,6.989266360399383
1.3647991592597857,4.482916933873293,4.869436164206746,-1.479696283249785,5.378944392067723,7.967510552332569,4.184725502636366,7.404334389467506,2.388942584174021,2.5727445392815973,5.102860783103953,5.47086312193213,2.8796592906559706,9.288068356150085
1.9132484909530407,2.251935008910232,2.3764477658204664,-2.655373712980865,3.1185964196059395,6.908020673504265,3.3991634459627686,5.886329293946394,1.2892782197833066,-0.4300797341294302,3.54908121281796,7.474991595899948,1.042854205812194,8.338456983348568
3.62034704304402,1.010987370214889,2.087310412750791,-1.3063565973574516,2.7838804629189475,3.531881374387312,2.293163664240098,4.548078609588342,1.7798353162738874,-1.13634403553006,3.715479076023177,6.947906967620733,0.9829970508539816,8.252461928974
5.983821367087077,1.912062909539305,-2.2331552553430583,1.2680472262846845,4.454821068277601,-1.112914801082849,0.8857853578040304,4.614478315037731,3.180399236134185,1.2189213715139458,5.667591094784954,6.175537992369816,2.903283714198512,4.7250320393340655
7.730224373874183,4.468814145619779,-2.940644829543557,2.6975905465995584,6.649176772352295,-3.2205432809083057,1.3876294444239727,5.866747205755653,3.8495109878386895,4.746525389380005,7.82809313310537,6.547198843069241,5.236466281082183,2.8630667618103183
7.780492683445546,6.872025240094078,0.3525353803083703,1.3784641060973093,7.43522486577096,-3.092928928740436,0.8741357185488552,6.971485308561211,2.499538342573933,6.450040487558853,8.371229425636317,3.354188377276921,5.992851030377884,3.1676561170002504
6.055023878746207,7.320976926960249,0.6507217567689583,-2.2438159954941286,5.834335894869144,-1.6079708230897805,-0.1284333867599775,6.556236682942147,-1.0796249779955136,4.730177510937127,6.610977390084222,-0.0553081172876368,4.376172732470109,0.1529523585741208
3.478657932488267,5.30694334788574,5.803305132561132,-5.997558053917485,2.4369714398495725,0.51022028627371,-0.5022562853303721,4.21024801089083,-5.539992616067671,0.7384056928918215,3.4170378962869234,-2.7649440529643945,1.370880277659003,-0.9605710317756884
1.276081817575796,1.852901858333463,7.6150610655847455,-7.611326091373209,-1.1426984159977058,0.8819729441923185,-1.2006778865723595,0.7411820782590057,-6.848769202603988,-2.558769796270889,0.5184325928635927,-5.539244595272043,-1.125432737662801,-1.855978488336754
0.2132499550090072,-1.3707073931589688,1.9595950394072936,-6.332474935603807,-3.438213327902637,-0.3741170111475428,-0.8482883632411626,-2.406583075795835,-4.03884783903698,-2.794713684583643,-0.6782000506234764,-4.897269848552417,-1.836977623588231,-3.200588018196587
0.3362355487946127,-3.2130212545466077,-0.5352074337259839,-3.3607644779587726,-4.015916700552044,-2.442684596222276,-0.0316685647719269,-4.092993160372416,-0.834850339925729,-0.0535155251655368,0.0725254784245059,-2.7236917923784527,-1.0015761831168255,-1.3599930106798992
1.19907108249906,-3.557090166938453,-7.337124342738615,-0.9144093174978636,-3.508432794646067,-4.084997058294255,0.3311554095392714,-4.103637387102122,2.611524737059791,3.355139771850424,1.8373850326359875,-0.6891061280956854,0.0706488900143265,-0.4938949869853425
2.203452704759634,-2.977950424036365,-10.92787975764777,-0.6916726390711414,-2.920431043766788,-4.183885305472843,0.2827026007001384,-3.057304463484817,3.825246048498508,4.90950039833824,3.2348142903104087,1.0471078569365029,0.2709837221688502,0.3096695098817495
2.8025213742183386,-2.1233360438941347,-4.461914252114348,-2.778490852145904,-2.81097456012505,-3.5093156478364373,-0.672616843029592,-1.7621122514429093,1.467733268190377,3.902985284354786,3.4057259578317574,1.0532952332667866,-0.3811088293550568,2.874325734277976
2.64408152944884,-1.4653554258576025,-0.374036064072123,-5.676940748686096,-2.953808059272076,-2.002461472215185,-1.3551526090612296,-0.603190176805322,0.3125854936050911,1.794252627898434,2.5774761777089576,0.8151310517717986,-0.9311493304104754,4.261070379331116
1.764315779378446,-1.4590465353426063,7.755267199380889,-7.413544094898633,-2.667968556559261,-0.9068100942631252,-1.5551014054118175,0.5235152040013862,-0.5434546647685745,0.7087311208307217,1.8021687657435697,0.9800747001428226,-0.5203603588668813,6.995952970679431
0.6912957431877462,-2.6001443372212574,13.33015941347247,-6.995162059212637,-1.5169806048979488,-1.1406585184744524,-1.7074494325942484,1.7494159653371888,-1.1906132876948754,1.5059623874410717,2.0178492713693945,0.7037935009748261,0.7469847131431031,8.442308855794582
0.1959170686143228,-5.027323865530661,8.507980205760607,-5.175109632804441,0.1828152694720142,-1.7116243423452522,-1.6252257948462658,2.794271872332981,0.067409856805406,3.109903270631209,3.158932085933552,-0.1826209946634483,1.8679446048137525,4.752545493019498
0.7162515551850746,-7.997665651453301,6.199798276951447,-3.886896680504842,1.4587093913774505,-2.513059244280976,-2.1656889841266107,3.091805867428816,0.4508728602395194,3.5961574291999074,4.119533855826212,-1.549523331242743,1.819006679161813,0.7242455780901529
1.9010043806651744,-9.977944921952842,0.8638153810041992,-4.697409487440014,1.3335540371489325,-3.1425192130107127,-3.3675741791479026,2.413799802933104,0.6670974651171062,1.963511070584218,3.704350834126773,-3.655057409043789,0.4254332646184107,-5.032528124279009
2.732663323848703,-9.663094988697813,-4.017228142825422,-7.517018779780663,-0.4674827604857299,-3.374407666899515,-4.367553759117106,1.3129756642764914,1.1006785584851608,-1.0203485746773158,1.767240299912899,-5.3294487234810015,-1.527156720684422,-9.492161759628855
2.1990228133410064,-7.256985513781448,-1.2394826869313451,-10.71225462129262,-3.330868899501528,-3.5190504456360445,-4.862045551807683,0.7795815811877578,0.4358019313776576,-3.5968078882732257,-0.5613452194082988,-5.620860232707826,-2.9768964415625394,-8.151841392281618
-0.0364963363120427,-4.8068632871809225,-1.353429815282999,-12.58280080822479,-6.250472213082524,-2.543412517971452,-4.181579588113119,1.296546584332539,-0.1603837712839493,-4.625801296969044,-1.879331422985267,-6.145909899014367,-3.426560964157946,-6.89199699394704
-3.498813706712678,-4.955229865564501,-0.6845904516577109,-12.869064718029914,-8.57633760089817,-0.9917093994241544,-2.552604048582126,2.200800809265834,-0.958868372644264,-4.524692046083604,-1.8602118788274105,-6.498535030605855,-3.23469209763034,-4.807285036023648
-7.294865844953579,-8.826434496863545,1.2551540702137922,-12.833374325716814,-10.3471416993591,-0.1850325683065505,-1.3379996304568953,2.095969592157409,-1.339808398491595,-4.697531261971385,-1.61177379289634,-6.091055913799548,-3.183293489903642,-2.9437871143300454
-10.559019085295242,-14.72231090129398,-0.6425077822442837,-13.76801536912652,-11.908238191200905,-0.117091668184226,-1.2119462523684543,0.0727307029805448,-0.5633503383635553,-6.022777127052668,-2.590250650527622,-6.250754385971712,-3.769076975457328,-4.051435496172156
-12.559688821621387,-18.884541124080396,-0.753253614248502,-15.355947567594818,-13.20551822825684,-2.6897168553539617,-2.866824762375563,-3.352580916636649,-0.0339155218795493,-7.8379564184520305,-5.039048219663869,-5.912996405033805,-4.831082365454776,-4.112605437674319
-12.594369410648078,-17.98773348005464,-0.3081725244467563,-15.576351827321124,-13.50022176774943,-6.299644993189266,-5.104781695363839,-6.4898902193670605,0.8537917870351632,-8.415877263905797,-7.482528610015777,-4.540129331400215,-5.7552257984810655,-4.037973837558436
-10.117634691537043,-11.548297446294423,-2.1579212479002017,-12.43806279717186,-11.88430352149718,-7.3587008795308995,-5.809936683204678,-7.7422013763967055,1.4216536960702593,-6.563341930850353,-7.879057278772997,-4.099082045823455,-5.986254372703296,-4.14574567815829
-5.260116520150266,-2.3792902892447394,-3.858262968756754,-6.021346093480982,-8.18922011895912,-6.387155418518822,-4.7028604911337295,-6.78454493194622,0.7617442616949224,-2.904951966838228,-5.458300658227676,-3.2811673336489107,-5.389088431760298,-3.6566111064854487
0.7145982166567517,5.288021742333838,-6.461588516534643,1.1238264191425884,-3.429732953586445,-3.248153869358178,-2.099838833907808,-4.668073420255494,0.5222420229759065,0.3802338195276853,-1.55317454778287,-1.5648618589089651,-4.23131745933463,-4.141912567221467
5.674652377327469,8.578552430526228,-10.63038357966078,5.735677973275095,0.7141041047969079,0.1158587467116998,0.174957562888845,-2.867562446289517,-0.2029767009664491,1.2541706745518653,1.3837982246554894,-0.8473470222962323,-2.9114294732131967,-4.429499740049047
7.724696055588176,7.572964346392624,-12.657072721463884,6.27774368754956,3.001617100249005,0.6547041762092844,0.3769518692587069,-2.183815386728485,-1.1898605074135014,-0.4805898561709973,1.7332123511187358,0.4143777063395373,-1.6979610119272,-3.33406431450648
6.419804553450005,4.684733582630546,-13.182677545604168,3.934396100542969,3.393255969951195,-0.5588937621303458,-0.9504492695574596,-2.3885979493208804,-1.1001271181430106,-2.978495951870986,-0.0904602700012393,1.6406609564340435,-0.6350533211718528,-1.1485549151157894
3.073321827728069,2.5255774632915298,-14.232389502080345,1.3710216389663188,2.8464838089329927,-1.8946723645459973,-1.8995964273864727,-2.7116759363563663,-1.1589255717990965,-3.85749626350659,-2.1823200248827472,1.6233480060106475,0.3933449790752679,2.2180197093380936
-0.1811565635668657,2.02043353470385,-13.48946836558017,0.4879181297225479,2.395686105827929,-2.086644115181909,-1.383110784750114,-2.557327145889364,-0.937065323348122,-2.1116688100958942,-2.8262385134620462,2.473154057908152,1.516541528699122,6.499869177279001
-1.8441267051297512,2.13318519736766,-12.418357833289852,1.1942007745914367,2.376629777957664,-0.773588357937754,0.2160356766053587,-1.824588832047734,-0.2258487300288624,1.2171231076307585,-1.7584455319826438,2.872101472801564,2.728386898784509,7.417169321632821
-1.841185683973714,1.1924175189999762,-11.163586278789396,2.1117819573956247,2.4368519998489946,0.9585944051721956,2.141149189846328,-0.7454008725547308,-0.1347411890298029,4.100433062814204,-0.0150935578355921,2.181654327730349,3.832860014523392,4.947984127579063
-1.100666899559009,-1.3997648923821018,-7.164287369958124,2.2669006832580205,2.1859780064134435,2.095795481033359,2.226153825235995,0.3999474560910112,0.2716349708331835,5.243225479145227,1.2344241795151722,2.1276303518847746,4.56281727765915,2.043085417937541
-0.4763956184812903,-4.467459010201954,-2.8130799323440248,2.0452408111465665,1.7569639534856556,2.23592855557441,0.8911744846758332,1.3782278980599507,1.133406898270696,4.8978502346859765,1.6325710898046235,1.0867519390995046,4.816184248616202,-3.9489615575537225
-0.0835118772670489,-5.88886560324279,0.1073046829309615,2.618354911741868,1.711260972453532,1.974074358247188,0.3005575199860041,1.955295035745816,1.3516643285606522,4.202464287980026,1.578280737731366,0.2461329196284038,4.793203890170947,-6.230328186588431
0.4374175430213274,-4.265672436806477,3.486631534379862,4.615636359401357,2.420014935026185,1.843419410287768,0.3668550958286171,1.93789241450696,1.1854443675602917,3.9164379208582094,1.5131153829069763,1.2142518753710991,4.8482221548148186,-3.233626800665139
1.2092577133639413,-0.1050326229799019,6.045074415404568,7.434637610719395,3.578221545990287,1.9529484478477543,2.226523495235828,1.3571889793812837,0.8437540804169419,3.866355116463341,1.4519659901921464,1.697917238555368,5.145568018848939,-1.970735057022308
1.842822808437365,4.42629987158708,7.748289368232541,9.777413790642672,4.369745624598346,2.2193476610676712,4.449954025644123,0.5727377701881871,0.0127632157203663,3.5093827140983667,1.1879386755381989,2.5604770783320614,5.455792105574414,2.723835182349129
1.9107593033747712,6.992358775058827,11.006063050014657,10.751585136382024,4.159400088848122,2.445527846590561,4.505011665987728,0.0804278699176028,-0.3847603413960215,2.802461658909502,0.759847840360834,4.193216411822574,5.336719234636963,5.966738560591263
1.6028133914901854,6.66300287035858,11.237621572289918,10.458890246133729,3.0744982548456683,2.626702004900424,3.5023885159870245,0.1255185272066343,0.0892772599521291,2.3328807709380595,0.5381898190185161,5.075103370875462,4.556769192088513,4.400240925015861
1.7540170714128998,4.386835199205339,9.60651327470145,9.670926111581672,1.9349106799797,2.5554918095960626,1.9599594286982556,0.4925112317123372,0.126113078755882,2.590797545712035,0.8268446389381552,6.326260591076268,3.3524963194253186,5.924224907247494
3.090053392195217,2.113870674122221,9.583611764537473,9.100300367917283,1.5844874782381142,2.249673411828892,0.8326437811413856,0.7237542402330095,-0.0992753472576034,3.268919797944584,1.475928118717805,8.364782305044098,2.269456584490163,5.855557672072778
5.384666621269855,1.3887537183958845,7.052151421148354,8.984390786378626,2.2117169457219275,1.830077939054354,1.1224707095388444,0.5914731489699006,-0.4070506922039664,3.447712066115542,1.96791610189694,7.848085126556914,1.7492426485755683,4.375324104244468
7.387943299368898,2.5037842994484336,6.6038993274968565,9.180788753796282,3.2396288091480523,1.3361038348211909,1.6233603137302255,0.3523634490218792,-1.1808638217823288,2.5232844671288293,1.8800366830346071,4.38524873518483,1.8384339434081447,5.092309077686576
7.696102362762213,4.6414062949125,8.841240707150149,9.442075910051123,3.844790471996634,1.2297569580665866,1.0001555153438226,0.4929551509856247,-1.4259868781600729,0.8828295629311578,1.2268433472681033,0.5072309733903911,2.217306976517831,3.373049308659984
5.857216027984297,6.58981168702538,7.044421453896343,9.539758141711236,3.623381461717119,1.4449837812878878,-0.5171227404350697,1.189515173266206,-1.3595925058392035,-0.4260786098112126,0.3682586233135527,-5.811754872777824,2.4392604213259323,0.9728473266274196
2.775559020886951,7.386272544284001,7.495082616342809,9.26924565567264,2.841107433053081,1.7609820539811014,-1.4297048734346791,2.037196354352566,-0.9867634523701132,-0.7168418161311649,-0.3438654865364103,-8.839952902777787,2.182129788527262,0.7390238696028504
0.0777523442187053,6.638987848142463,9.991307201339556,8.536753931549743,2.11730141980895,1.8802741035155064,-1.3382431053401378,2.3851035210867337,-0.0036609677513862,-0.3148533349063029,-0.7812999417475783,-5.108440219871842,1.4296816284858735,0.3095646127688409
-1.032009973862329,4.661979304613022,8.971182660725663,7.52031364331392,1.8913503694873623,1.2677644900269744,-0.42976034351425,2.0035949694066044,0.4807864930152112,-0.1582585260699538,-0.943322017220563,-1.653004655569112,0.557979279164539,0.2096076437798394
-0.5223075864086919,2.476729201064224,11.637806518774182,6.65879915402803,2.145789792120519,0.5235335078495847,0.78048597348996,1.4087900745317068,1.4166784941913324,-0.7681274846595674,-0.740060659288778,4.608415362311559,0.2127798185236606,1.3956464346617758
0.6322105307914399,1.46763569026412,13.813301582016289,6.338337118389802,2.5533086952337385,0.4317322580365446,1.2736199006634328,1.4273278679373105,2.164993135871099,-1.665755181721253,0.0421048126949248,9.471505775377514,0.8847846342873833,1.6276604938663457
1.3036748888690353,2.6005916663253776,10.174191977092686,6.522169778378958,2.8154758903214905,1.26550747599751,1.6940661762056837,2.3275860314545787,1.6080342204842322,-1.846571189870625,1.5140230455068622,7.60277865120038,2.3963985922019564,2.0356215056288667
1.0290926243288707,5.641885211578849,8.724135506481721,6.729267639868175,2.854974336602518,2.715124343297062,2.715769882296928,3.375165317661465,1.3255602927447985,-0.8246698122933296,3.4136828788777613,7.33504587155196,3.8078679343719326,3.5356971325293154
0.2009157967490757,9.103234402541975,6.047210404106121,6.454197321338491,2.753212410935406,4.037496398173553,4.590938539637686,3.384859476958661,-0.1301473122420285,0.8274041152833602,5.092220258428642,6.347257009785817,4.040825792019101,4.4377157564351695
-0.4058395674266908,11.160939258073451,1.5714808011336392,5.642871959405316,2.595896175454209,4.223199905561127,6.022077037823298,1.8974681084804992,-1.946875606192064,1.9977080235405325,5.854606197880093,3.597035141100239,2.818883805521807,4.917293737981609
-0.3054319873034572,10.894386534498905,1.983697928212784,4.734227235095354,2.4174047707078783,3.127041797892613,5.35671566294609,-0.1280241525023626,-2.0440481476026533,2.0889762970943924,5.435404932338825,3.502289163993641,1.0384733782979083,4.019993598149587
0.363419667067248,8.795704245677694,2.134826527685058,4.202211805779006,2.247538512512305,2.3408490425597765,4.677157279044015,-0.9313950563987374,-1.3367769969540408,1.5516708278153857,4.225611357077662,1.7767411626080605,0.0798189061276346,2.033976626741726
1.0347603956316442,6.127013392075407,0.6464376327033124,4.044718460932586,2.127892039495605,2.024076555997112,3.597072536319658,0.4902447871021884,0.8021730852362157,1.378503922793854,3.019652852975373,-1.8938783642641497,0.5940765095276666,0.006636536796306
1.2114534820306524,3.7771685280409537,0.0419702757992321,3.722457957178875,2.039661820620202,1.823592032161892,1.972763878241326,3.2672493731717145,2.6849115981375435,2.0769226248599004,2.4358493238365844,-2.8337900635307163,1.9041452940660548,-1.5421055444827128
0.8378009477422896,1.7168142373403108,-2.960793641964305,2.5941872703367874,1.8506492208237144,1.816546073260268,2.0078805376890854,5.142891731847015,2.041223376947212,3.1207651030981047,2.4582774263050258,-2.813003785495785,2.621842914562955,-1.013818170145949
0.2806551656672669,-0.4930728209485293,-7.492486097119803,0.4216934003175545,1.4043119813290854,0.7965968772432742,0.5262104384843561,4.301487160725812,-0.0805250061059848,3.3786067001422984,2.477911293053878,-3.204898867670675,1.888625933422036,-0.0538448309387069
-0.0106329542395373,-2.7620907262244923,-11.04917449808936,-2.482929420680959,0.701961529195394,-0.9588387584028442,-2.175824494570969,0.9631486166377244,-3.075518639305264,2.0824448211469697,1.802316980772102,-1.2745978394811743,0.0428638944483976,0.6523237295912382
0.1478012790207592,-4.152105470723909,-12.007855369181613,-5.478264643758831,-0.0217427717774443,-1.7500421854102293,-2.840675710867874,-2.728093255680806,-4.473923632471609,-0.5328851291508849,0.2222406929497049,-0.4656455521671433,-1.8531880946721195,1.9347797329988736
0.6011898698830267,-3.5909893918623528,-10.160860015836708,-7.869777954500896,-0.4514692753784786,-1.545203454709463,-3.374248202216499,-4.471939980836762,-2.3396455243459946,-3.388760327885006,-1.7978675078776316,-1.361418637597222,-3.017047918281349,1.702917512105538
1.0643273259589856,-0.9796598660389488,-6.823031464127468,-9.044855183480394,-0.4527692523862887,-0.958127159380454,-3.219466362570091,-3.658840686950702,0.4109550069873123,-5.256587285300044,-3.4081064014240026,-0.3240629987118144,-3.4172247714404627,1.1656426360195962
1.3502585077594649,2.3752468377358653,-1.0161042708414256,-8.600975275344984,-0.1870695097657568,-0.1449281484027959,-2.144968084851283,-1.660807348484486,2.869077414261486,-5.390729401056999,-3.890779982460021,-0.206193510028021,-3.3611505841560394,1.890530433470409
1.355242546724622,4.489305374650051,0.8067776299809436,-6.646690088375895,0.0421693992066458,0.1943659670157905,-2.2920820253057923,-0.4004556018064011,3.6727955315471696,-3.7612621591277966,-3.062800435180648,-1.0435472082039348,-2.8673924655520526,0.1733683583470049
0.8301689453370695,4.045822004329155,-2.019206829541096,-4.096411355973434,0.0639122789842021,0.054795679889806,-2.288136364102596,-0.6036238050566176,1.6032301618993872,-0.9666556315765577,-1.3712220792131564,-1.1166352327530475,-1.6649915077389768,-2.7387875072624324
-0.7271359897923668,1.2855058677458269,-3.691306338974636,-2.488848993736815,-0.0429687107226,0.4576126096953777,-1.4968345140524224,-1.3267767967969792,0.138245017537899,1.9685824192908443,0.3189474263168854,-2.6472578398716453,0.1637199197292922,-5.127626645677464
-3.755262061021409,-2.2363750403974265,-8.861666450760989,-3.134629332793775,-0.1100808250183034,1.5133990231570045,-0.2289927290855731,-1.0674645777007257,-0.300435038166768,3.881155151780085,1.134499885698002,-4.744506095227901,1.7244897203395269,-10.502483429619229
-8.00836770115625,-4.780113554428891,-10.697476287246229,-6.103448259432282,-0.1492530042140751,2.2182244833226323,0.9886356198050044,0.690561103453784,-0.2797764555683442,3.914582521969699,0.6303368513662946,-4.904385354119902,1.745231458342403,-12.627491525988589
-12.187163510939564,-5.53714158961308,-6.366639912807379,-9.94333534223422,-0.4293996156426027,2.278012088390573,1.034172292140345,2.9327213323539865,0.3251048991013376,2.0198949782508926,-0.9615809527925698,-4.818268141385001,-0.3539769150717022,-10.247175710243567
-14.342642280334497,-4.934532930889964,-4.233362918665978,-12.543349436780233,-1.2278394909691248,1.7520407630876924,0.4857601656049276,3.9873245150680097,-0.0548169977292069,-0.8472105118153994,-2.8454590511363445,-4.698426309594211,-3.773259912590869,-9.285587652435156
-12.991904324407122,-4.03002546705388,1.154557712597893,-12.555859128288212,-2.4532808020689454,0.4046972419166342,-0.4071358440418566,2.964570099623165,-1.3313043486499017,-3.1461024075922293,-4.116689899354048,-3.0498284476983035,-6.764148337898307,-4.756213144595407
-8.219982251554777,-3.589932622700835,4.007319845463266,-10.244485446534728,-3.5200296752661604,-0.97924969161159,-1.0288997343923527,0.5054091674306544,-2.0223800645457257,-3.670043220377941,-4.291754115200911,-2.454711074064696,-7.870374053907086,-0.8575672509783366
-1.9000751655022,-3.599329751767199,0.590541041374945,-7.100124541141855,-3.6834103479973903,-1.876806145707275,-0.7165176202999102,-1.7318467873808734,-1.436149572832635,-2.367236905970255,-3.554736999097594,-1.7974997568154558,-6.914240021373461,-0.7783121701248471
3.265828248805615,-3.518528392341091,-0.7296364393480115,-4.63240371200162,-2.6320732654196592,-2.066882025208641,-0.034505592080427,-2.35810849694131,-0.0309815197543681,-0.4115355960533291,-2.550962005688928,0.4263867896379195,-4.923693319930482,2.2822863026404985
5.319917211317943,-2.963646528018508,-5.213126928154139,-3.3916534844009454,-0.8447835100443113,-1.8375136629616933,0.4505214343996955,-1.269689686204659,1.8438667044657524,0.6193063129140777,-1.8927098871499168,1.5884943785841272,-3.173473434201641,4.574473221774205
4.1818853474867606,-2.170130774295309,-7.761445796592565,-2.9370354830710057,0.6413792909571929,-1.676873279183618,0.5031449093098879,0.3508066635157156,2.6510328187125767,-0.112157580429784,-1.7554946699063598,2.2948772658280103,-2.244338503392413,4.57897608962054
1.5634660588561031,-1.831391189257532,-5.555394958639859,-2.5623532671341964,0.911899205941666,-1.954554322100186,0.265353935699834,0.98074036385953,1.6486690734508431,-2.1162472803291306,-1.8540978980334368,1.960978442467668,-1.8583656753724909,4.582518214498908
-0.2701641544417175,-2.473234766700717,-6.188413659124108,-1.9980335104030047,-0.2330928887557277,-3.888563432074328,-0.546808914273468,-0.1028152722883914,0.09977441707022,-4.007466555305416,-1.7759544458480097,-0.1500868370676884,-1.4571337305333936,2.470824607978769
-0.0166959747295019,-3.930974912395151,-4.012432262456817,-1.5009497275935204,-2.2322835757851807,-6.211167199430598,-1.2846617062906178,-2.3273743522518853,-1.5275462176756125,-4.574434234790774,-1.3707531521627967,-2.1757050470294166,-0.8499369726374777,-1.2135202587043832
1.929695023647069,-5.396785587234341,-3.469975686724496,-1.4048391190451972,-4.2254869753613296,-7.209334470643349,-1.376168615268735,-4.2877331377056125,-1.933624030048127,-3.580871851100223,-0.8695557579461166,-3.3698238277159898,-0.3226640787007584,-2.9877578709020005
3.989193740746124,-6.005685512317236,-6.461987328167159,-1.6711992905812243,-5.573889937493995,-6.984728098353968,-1.4029711816006565,-4.768688401492883,-0.8341215343038076,-1.6813106525513386,-0.6592893577993659,-3.4592117426438054,-0.2062540418708778,-2.710404714308352
4.665160766932432,-5.481253438278587,-6.30967833208211,-1.8966596662064608,-6.051396999925455,-5.161497580463435,-1.105487337515516,-3.560398961043016,-0.0224159128395898,0.3133179413913467,-0.943322998007047,-3.1321306389259127,-0.4304330586107552,-2.777559574514367
3.527041912891069,-4.343262164455625,-9.045877079363772,-1.766116894676645,-5.732786757868325,-3.4214612480389444,-0.8734031905062308,-1.5152726347525416,0.2903056070487041,2.009068037880062,-1.6030795139627818,-2.7979399541259067,-0.5561545843284081,-2.1287222930223697
1.1803927239208836,-3.5653289738025435,-10.194266462762531,-1.5230589343594447,-4.879648372554294,-3.520386129018081,-1.2140447686594826,0.1139629206740391,0.0437224915114285,3.316659417136342,-2.3634322396470484,-2.946946190589924,-0.2655019218153445,-1.8085667952141649
-1.570209035411554,-3.983273882016552,-7.435581715518686,-1.9786624710858105,-3.9641655097183337,-4.490762439710315,-1.783635413838755,0.519987333309583,-0.6826648088353584,3.959797258383568,-3.0597225957678296,-4.243817057952733,0.1897418431125039,-3.4688666943987627
-4.442976882547225,-5.855534325207209,-7.38790842353101,-3.924405867628276,-3.627504974374978,-5.765914334348119,-2.170295380021953,-0.227370086195279,-0.1708792804330441,3.365321393383875,-3.7250105001807863,-5.423207696972221,0.0746832045042609,-4.522160130127061
-7.548736004663445,-8.771027203737884,-4.315035116047127,-7.317996570700594,-4.337277988122535,-5.772049317024488,-2.2049780693936696,-1.3987820953527803,1.058313708451517,1.2353018874889088,-4.434764938639469,-6.574601242553322,-1.202740468150412,-5.371898083212344
-10.602673842098024,-11.841998491446825,-2.357848861426641,-10.90840330131118,-5.89246695693055,-3.632178402721393,-1.9243085632992771,-2.231142001394123,1.3209433000249948,-1.7816123263598875,-5.122314249221714,-8.081608978784732,-3.452932689559698,-6.624317650086447
-12.433653479623718,-14.02499127780886,-4.667283090463258,-12.765578712637495,-7.29153154636483,-1.5413833825070022,-1.247205497700329,-2.4588712350035475,0.6722432168199284,-4.190517234191752,-5.598307135151705,-8.424222456691965,-5.657964317038205,-6.339074668663461
-11.543237223840464,-14.463991920774864,-4.534794594228313,-11.517963159116375,-7.306363425709928,-0.0360191470729841,-1.3194311311245523,-2.3701339498591443,-0.6158329620318507,-4.677162287223544,-5.750112462808842,-8.526633296158769,-6.645466404232296,-5.914564368360154
-7.421365959870282,-12.794915498455218,-6.626974216730561,-7.440376008164071,-5.438377772672404,0.1435771257925722,-2.05101256039742,-2.4047029798946875,-1.7787369576920438,-3.212075942276188,-5.672846358974745,-9.265446066723612,-5.96909359976112,-5.914832557745053
-1.4349677781492876,-9.319091460355438,-6.738187335716052,-2.47582761583772,-2.426395159712764,-1.5394559807250272,-2.61305014816013,-2.684495688011384,-1.3621126964581958,-1.1663088638505066,-5.563594619332106,-7.8638057488744515,-4.252614860295342,-4.487111229460926
3.710825513428978,-4.929346870203857,-1.487891475636426,0.990664436721998,0.2565737549624938,-1.9161364830860297,-3.0625137343144724,-2.9088850880608588,0.1528380145055135,-0.2416068362049142,-5.497335806548849,-5.084616569839215,-2.68469794373258,-3.181301643921083
5.745884850912073,-0.7577255989547353,2.414819426868072,1.7698783747160114,1.5718755371802766,-0.0563526237378114,-2.559161171353744,-2.6997109365266114,0.5812076843530254,-1.1219838936701336,-5.353686656047679,-2.4812435035768168,-2.092703628781184,-1.878779642128817
4.484801333559953,2.3116435292856945,9.281146870732382,0.6489598512149293,1.6987218095923575,2.9381439873129525,-1.5154629362928271,-2.049186644393803,0.1042504843670605,-3.009394103444849,-4.983267555720365,2.6446052900600323,-2.4042374187813387,1.1365498960788007
1.951499639766905,4.003842124797775,13.749597325189912,-0.3395691744625218,1.656161270347237,5.61381899059053,-1.208622325377295,-1.4153236238018143,-0.5226080436158099,-4.382250609655763,-4.404771549809354,5.809173176496153,-2.9400807518020398,1.8356692414483493
0.7798506796764881,4.673246902494732,12.453217029517605,0.4113513756825497,2.09529532116132,4.66536748153399,-2.061402005692348,-1.342745128051444,-0.7544045930962642,-4.244609353089334,-3.775334451887424,5.118764960089475,-3.189356874740344,0.9050733488056322
2.150553800309368,4.974385481478251,13.216285878570464,2.846063826702718,2.494184928122447,0.4019430734875004,-3.5321693190071284,-1.946680608720161,0.7332793725382332,-2.799698411684439,-3.145943394000435,5.695928420862724,-3.2535622522732552,0.7634221199340485
4.95244312987605,5.397528565979172,10.853892569187558,5.460518813302816,1.701077408788322,-4.669606786615124,-5.025650114343136,-2.730845971197281,2.623022299376388,-1.1034983172164416,-2.290747667057076,4.313588990848425,-3.500345422740331,-2.0142904731653664
6.846383094338858,5.976431627080718,9.179602057629792,6.73429529712039,-0.5765738814760013,-7.228022191000326,-5.531149094390472,-2.910303169259487,2.6928714691247424,-0.1530523533862311,-0.8507627299968767,2.8356176001691167,-3.818609710366438,-1.9223136266630845
6.301610636213706,6.364725291977162,11.788535381783712,6.488197946559964,-2.8648654609880104,-4.547203462554718,-4.41298165130186,-1.984548878970811,0.9988831386566056,-0.2301335701243765,1.3020255695785163,4.932059690497066,-3.35513320507806,1.7434577057471237
3.8728728076546903,6.226854485792851,11.024306685802472,5.967494139224478,-2.782410167364798,0.1481974997528955,-2.8643141190677737,-0.1357027456310167,-1.2196455290389645,-0.9344520638025527,3.830661242539014,5.471923875620532,-1.178848370567415,3.690000394151369
1.6892282983647675,5.65176513454287,11.460648427085898,6.62786502336362,0.8286881141377958,4.331708737358051,-1.3470713257692104,1.8139705631693757,-2.8291665631242644,-1.684611099727535,6.079234231775125,5.75480648136803,2.665924758463694,8.87795364899851
1.6885404811281637,5.2495074122399945,12.82186070396268,8.782021560622342,6.436807070353298,6.36133110587262,-0.0068600066515093,2.866277804320182,-2.136456097784447,-2.1426956389741303,7.50027930517698,7.732957121329652,6.793851326190756,12.246270636202222
4.147196160263293,5.792489889694285,11.232190474797902,11.351984274120364,10.615545099792111,4.390162682150746,0.9286648524188552,2.4832048571929963,0.2229129519859258,-2.2373374573687173,8.020780168248544,8.433846452869343,9.34399150641881,11.32026881317407
7.663633308868597,7.608611584526608,11.522652721829342,12.895926326501646,10.691363146167262,1.9848625176087216,1.2114171227575494,1.0211149876994678,1.2979644874045946,-1.9096642321845625,8.07050027586096,9.531120980794435,9.447516771650086,13.09660949698434
10.410080548304451,10.183248661437917,11.809113383350152,12.88349844501221,7.008208028073485,1.12665292780351,1.3625273177131534,-0.3874306852144471,1.5470216685704017,-0.945588853031616,8.271819689138837,12.104011703052173,7.9893626257497345,12.494404860637657
11.447379862194472,12.349049937605326,10.76046394759253,12.03181440046152,2.753040854378224,1.0688230232250284,1.5832918059711818,-0.5625829760646237,0.8271773263076652,0.8836698963449781,9.01937385673964,13.032238931650818,6.904350454154517,11.406344832640292
11.05724083667518,13.03253454943793,11.810750953155225,11.484925172755156,1.404721873261357,2.951179572570809,1.865101350341568,0.816567523208005,-0.6168736404573761,3.4838833639724283,10.21820722538486,13.518381100200855,7.567607270678987,13.561759436924428
10.06458985453384,12.045027754083591,12.58617701768757,11.722199965134552,3.9700011200069256,5.563514731911058,4.01030229983362,2.8599607940250618,0.149981868884201,6.216029710002486,11.33559997621864,14.64717585252112,9.68691348618739,13.003148550582331
8.967963640143875,10.265657928184703,12.73132107661029,12.23126850004539,8.305863545092206,7.305897139687414,6.956345550598649,4.078335913211023,1.2386493107549537,8.038041211125808,11.73913799975342,14.264498477512976,11.645522993285272,12.564693545584088
7.664493964551051,8.971579242913506,12.571344349261777,12.129493694859898,10.943667996846152,8.179013990055331,8.613578432853485,3.551598341095274,1.189327585647037,7.999887795108496,11.118319950843455,13.114307353524987,11.911526218685893,12.401107518182888
5.864225665869235,8.780735219005795,9.052639191632576,11.00466158480937,9.739999297190591,6.934257249065278,8.365974401652,1.6773722550481196,0.5104543306576919,5.834185361118974,9.702475797274063,10.414297891488514,10.207932212123405,8.276928583836755
3.6715320800473976,9.08935042754644,4.599749881637384,9.169574421538536,5.22366043133582,4.087448794295417,6.167314274229844,-0.1587509868228824,-2.2949431781194907,2.2809061642885577,8.100894708233046,5.695855544270976,7.492638764171486,4.130984599449893
1.7607253113936778,8.557952963752538,-0.2009274736944797,7.2340364428957455,-0.1482544078890777,1.0349564084583742,3.364240918293775,-0.676277782587869,-5.503871818224659,-1.1235248441983776,6.8824327297484,0.4044969372859613,5.000186602205498,-0.4873175565669142
0.9824668743687264,6.308718306095835,-4.924912561904978,5.554540636933049,-3.8813679072964815,-0.597722564108486,2.212105692356052,0.4275718042138745,-6.053252262354832,-2.7750421334829296,6.25267326642103,-3.0482800872469986,3.4026250655114136,-4.748457913662998
1.692095393151611,2.807133060537028,-5.644255636262057,4.0934747847338455,-4.907839046009664,1.0836612913890136,4.271603595323789,2.504379215788905,-3.803413238489626,-1.8666173940619109,6.106197883047318,-2.8851466524790315,2.788608426976172,-4.449061007567322
3.290929678472761,-0.3959792837209033,-6.20824314001127,2.6768428870603334,-3.7550536124601983,3.601380434678101,6.566852518537877,4.644343236675228,0.3483136526364139,1.1768940916594364,6.3401700843538285,-1.7123293731829448,3.138837760054342,-3.6054158135295946
4.362727317326304,-1.897312902340595,-7.425008818578461,1.2488950371037144,-1.7019751438656856,5.606346945528913,7.82935992885037,6.262058503865247,5.729603309042616,5.025144457128992,7.000659565847834,0.4281125254238543,4.470243067899111,-2.428028750834341
3.44816271410042,-1.5862475431178158,-6.805811216595125,-0.1437624809844084,0.1950404690277345,6.452516246606538,7.929506816679821,7.142261293050486,8.232925786720829,8.290437587067007,7.996251574118745,1.3653035170943606,6.379038639781162,-0.9038318685543248
0.0662317035873574,-0.6878050099097912,-9.283031184834494,-1.5102842172864888,1.5354422403343824,4.111188775584908,4.792526364511541,7.204337866035957,5.850200860670072,10.22718593601465,8.665598314405567,-1.1631345198626273,7.648365201258667,-2.4890784647548485
-4.6997506616942415,-0.6637431669361158,-12.335700012201013,-2.9202232986908,2.3961964032965533,2.3388854148692406,2.690884210654648,6.456133228741642,1.9976663335771896,10.777103572300994,7.830794574632328,-3.411159305688749,6.744448610517308,-3.8221617165427193
-8.6036680169842,-1.940455952514336,-12.371017400080342,-4.279768751088871,2.9222320497696312,2.152330670767925,2.4026184332629303,5.178226244221019,-2.771134916688471,10.113646340256707,4.610397578510662,-5.869168329360076,3.103109780272016,-4.069746837982803
-9.561256621198604,-3.561408746430308,-13.586109291304018,-5.137776868921046,3.1122586659504137,1.777133595978207,1.9360065116021783,3.943553704361991,-5.408887426839105,8.316944473737946,-0.5765331447450457,-7.394333096580604,-1.94578286222084,-5.275221606500556
-7.088905600371932,-4.034745079565587,-11.6360503080452,-4.838592650318228,2.9388412390398404,2.894895192609143,3.1892169473653,3.2311103784185,-3.3572695280173663,5.564962409345533,-5.835850697758207,-6.055798801753651,-5.737078908965691,-5.220791064459835
-2.794953382872553,-2.630006074982868,-5.9774865072537295,-3.0396966518897024,2.585662598552098,2.842842247932745,2.011038313663841,2.951101431329729,-0.5200036679872085,2.5080315049612167,-8.908242880526883,-4.937010325027172,-6.159687666938968,-4.6448158677993465
0.5661661339228488,-0.0450780326582833,-2.488471099014073,-0.2155851313080319,2.4559871710473065,1.3476092304620633,-1.451745523269368,2.443867743209553,1.6346902143067343,0.1555583902265898,-8.827000308295572,-3.1185290935140357,-3.387247462498016,-5.366497929684042
0.9017075998601668,2.073572669138976,0.3734272061474851,2.346240754092665,2.831721814110473,0.7705024353091517,-3.546251882703068,1.0849282149557349,2.487803718532379,-0.8762862975277823,-6.719701753180505,-2.310306673743764,0.0918097824989168,-5.189352949744013
-1.8459431186730344,2.3411198457430515,0.8885701744316334,3.218578335132652,3.4610119414746983,-0.6400798944319022,-5.542056885750375,-1.037711913416505,1.1493075366764465,-1.055224147250673,-4.978560710051156,-4.691891046736359,1.2891839148187714,-4.994979135396615
-5.787179120758026,0.603411591231449,-2.0097826005086263,1.7724691762945248,3.533553542470923,-1.9889408015636811,-4.973896000462791,-3.061927502550674,-0.228712229655385,-1.7071721267042823,-5.452570263575879,-6.657753050887234,-1.0809103833492235,-5.874798501975144
-8.553431924547585,-2.085329322176669,-4.046374201746863,-1.34988105139227,2.2184409759987425,-3.310826373744059,-2.848613605349048,-4.0302281115492455,0.0802284638722213,-3.877595055767863,-8.178463697790054,-9.554579141231503,-5.802773059983718,-5.575239435320496
-8.997187837438226,-4.425446919116212,-5.351550061682016,-4.680263255252633,-0.6074521375030457,-5.159526169616107,-2.471404691115369,-3.714071652937932,0.9520269132237096,-7.298117824332078,-11.625803928430862,-12.022024523191096,-10.315443881095996,-5.619290194671099
-7.838592698501884,-5.958036550802607,-7.454974636076275,-7.004664991917469,-4.089442488844956,-5.752420167789695,-3.3107498304499403,-2.8255553832931284,1.7205932770074093,-10.50226398151328,-14.043915693040825,-10.967377592168232,-12.711977998281697,-6.491612832423452
-6.876096059263627,-7.343876024777455,-9.185911471143964,-8.22186081041868,-6.910728999756991,-5.240665743788986,-5.899644434854959,-2.418268724065612,1.8473064775747243,-12.048809886233794,-14.640640678246474,-10.293279394695643,-12.886773420509876,-6.243989049659839
-7.527428967397565,-9.588125037846533,-11.682960577683891,-9.26820501630219,-8.233819979684949,-4.118504620152964,-8.506113178903988,-3.0157400921585165,0.6518911960156046,-11.722887413720262,-13.753295210625549,-9.465514885829744,-12.08362365505628,-6.764011318526451
-9.893323885782166,-12.91404014742825,-14.478434052589272,-11.179164187417836,-8.292075338102016,-3.1051514002714047,-8.492941068466802,-4.236902491583944,-0.8576263504084878,-10.621522694855296,-12.25543851865963,-8.094833889401684,-11.577321223004866,-7.554229496840299
-12.93886326464047,-16.34348563597707,-14.511315997816856,-14.091099302095609,-8.123679885548917,-2.8804224329910726,-5.620661693170495,-5.217500897820916,-2.4100954862671355,-10.12930175764886,-10.982372559777351,-9.001061748234326,-11.810797854949932,-6.834285871736337
-15.395193717322671,-18.403632088644063,-13.992228507905011,-17.002353917466284,-8.674289589316956,-3.864439571487183,-1.4330324689891103,-5.399398273830155,-4.5356645299587015,-10.78218395895622,-10.527447569852267,-10.006752707028006,-12.561254082645508,-6.715847445586096
-16.50318692790055,-18.30287347804756,-13.571006053126016,-18.43789450143465,-10.02108571670037,-4.757783667901423,2.458777081559859,-4.94060610451881,-7.601835944178483,-11.952889533735329,-11.11695030752352,-10.176034814305426,-13.542542709614317,-6.612345626804153
-16.09650172296644,-16.4498912629292,-12.25483170170512,-17.445890257301826,-11.31923469304614,-4.435579015804345,3.8691823066761946,-4.385109279034662,-8.495327341238742,-12.406043016209264,-12.299863175301766,-9.59083977412907,-14.539125053856443,-5.400315770330684
-14.25401015152677,-13.85003175698633,-12.437283215707916,-14.190023362104654,-11.419824260170188,-3.4583548318989075,2.2947807966016263,-3.959026456352074,-5.518575102151046,-11.078319440443517,-12.794053640663144,-7.1906520836567545,-14.9658876978742,-5.264087503893843
-11.085146200941251,-11.051526100957505,-12.553751417788952,-9.807630333487008,-9.588664198937462,-1.901431179386777,0.6353960993612922,-3.236117980171752,-0.3104326912878293,-7.545874766169604,-11.056100387452712,-3.5147962756891227,-13.65153984852282,-5.151016243387375
-6.885730240035503,-7.7544918028472765,-11.21456797209205,-5.729551838123935,-5.822098604367149,-0.8341538140271715,-0.3220067094357011,-1.55941089706522,8.102140624476178,-2.158146062681002,-6.463384768982458,0.8461610893929263,-9.527576570030138,-3.9081507664669823
-2.3646027302118817,-3.47090659176034,-9.553039176639873,-2.9206219896267456,-0.7420419788310255,-0.9563196335263526,-0.4302251119835663,1.1632697105961292,12.801966881105765,3.978178707061886,-0.1023383844609036,3.5833178709256392,-2.822139589624399,-3.272041475046317
1.485828751325549,1.5013047931002568,-5.503700695437338,-1.4591056051455735,4.614777381212921,-1.91104838496862,0.1794528101433546,4.096593361411582,9.834768455535723,9.219405242349389,5.778591314381611,5.638477945985579,4.475639519924062,-1.6593904989048678
3.8988970975357446,5.859073800227673,-0.084009193435973,-0.669345728713207,8.947162465908256,-1.5942177924603818,0.9260823494055084,5.98047427795332,6.060806039909134,12.007933513856829,9.378000825361596,7.944633081070628,9.65099967170204,1.05810151880853
4.782428367079863,8.107236790266558,5.345513149259109,0.2631511249815972,10.960472692124178,-0.167974155665697,1.2223527600262898,6.089430376812757,0.4092566287716546,11.742028697101048,10.58198103054474,8.680054328395773,11.145846717595166,2.973467972046014
4.668232199148367,7.636072051581607,9.2417143850454,1.578147749834752,9.941413073236395,0.7134131325816047,1.0439347745689478,4.768664881031427,-3.970475333045752,9.246482621677178,10.637716139569804,9.122794601797242,9.684591174442325,4.17949033854378
4.2043514420088215,5.088018033710192,8.20487877629145,2.660703371896215,6.365217771618411,1.7143929532913194,0.9249635408142856,3.054329702101644,-2.846052326253596,6.283511771953041,10.60087464067318,6.592299879312116,7.589421855062774,3.4092131532391003
3.686163098195273,1.79926121086584,5.612247270318253,2.489677863403457,1.89910329098198,1.0747062072451137,-0.3018195775790536,1.761265422754022,-2.4821644624797146,4.336719835970492,10.17042439396019,1.1157287675314755,6.818552800267391,1.2522224253720051
3.0603689398740066,-1.039900542723462,2.255503924335708,0.5427481041361268,-1.507924488473389,-0.4916155521486042,-2.0408380454442816,0.9114801289393456,-3.328324160004764,3.651472422166077,8.143461402366384,-4.3844630381742,7.393900604391053,-1.1489355364348544
2.32653627164996,-2.778740976582826,-0.1303205817194249,-2.559641230955558,-2.8874011865710933,-0.5882029117692477,-2.975929057865905,0.0010672428302775,-2.8390835423630345,3.3630253850387923,4.020941684183494,-7.928828660635978,7.530170292198411,-2.61392028403672
1.8385118942472316,-3.1617322207390384,2.78014128550179,-5.262870660876667,-2.7870742844724816,-0.1760101948160708,-2.746091027841168,-1.23820638681563,-2.5877987101446807,2.5402051531068004,-0.9572621199182656,-5.77502550043132,5.303837589548504,-1.5018510771526552
2.1252175572388747,-2.111517898472279,6.22304316913734,-6.055732039598382,-2.5347839824598566,0.3548386165756427,-2.19007738158718,-2.3941851879090805,-2.363399990575941,1.10578896125598,-4.529852719201969,-1.4550218066014011,0.4442393828122934,0.1310541578381545
3.3837836115786395,0.2019377724269127,9.227997776860647,-4.480838557421535,-2.8853534165475843,0.6379255955222584,-1.7309948715268464,-2.7119320911845577,0.1768528160611495,-0.2253781162280006,-5.2770777472068815,3.3469005913581062,-5.194865215011129,1.8624306509136015
5.177598735709598,3.1736826237074034,12.474796353804996,-1.4020562775764036,-3.354585841016217,0.1620484514476766,-1.4138882453870412,-1.8929447840462164,2.222666424741281,-0.8095983364015709,-3.831556968024273,6.137089900522271,-8.818911119889329,3.4609755120669785
6.690627129741932,5.870704972955803,12.705964131577304,1.6402057078204502,-2.890441957719016,-0.6832632055902438,-2.712939693077732,-0.5701113330824281,2.3313821284400285,-0.7573837574980882,-2.275869790598681,2.715055313050981,-8.603204495014591,3.3326558546891243
7.33110148962188,7.515489192376194,12.510887966590378,3.440481328409886,-1.172910673173634,-1.0971355239193767,-3.641865825715701,0.0515005966982915,2.718475882536873,-0.7334961934909856,-2.333011682275589,-1.411953302755616,-4.9266473077392,3.085143661772765
7.130135925022988,7.936594907063486,13.468915316451175,3.749957632141313,0.8305072210751208,-1.0943305065806763,-3.4923460877530808,-0.8490276059417816,1.3753830088971235,-1.1796816388914602,-4.041100415163415,-5.776830028490743,-0.0836781070529593,3.3668013901740714
6.597866437079006,7.534771311291199,12.704508335533076,3.1609129559492835,1.6744489163132528,-1.2479856143111443,-3.2877337780854257,-2.9486906009026748,-0.7807838996839237,-1.872623088740924,-5.986305535358738,-8.261276579671193,3.2746815348946647,3.5490366121379275
6.2373296564682725,6.808609210785625,10.98217431427175,2.5102146957682336,0.8282472892831021,-1.365562464728121,-1.7208520026588177,-4.9045895779284425,-1.4098476229491497,-2.279253743190464,-6.618056919125551,-4.38348852448488,3.862812435631336,4.146952858430507
6.201510693224256,5.958436630668149,9.217933915032749,2.3323187409171338,-0.7407423414011021,-1.4835923496443464,-0.1713771903177992,-5.346207365109756,-1.697617189703132,-2.220539786419157,-5.320635752120853,0.2743615794075972,2.469344716987432,5.067785598460064
6.350618820985808,4.9857225036965644,5.348995425943975,2.6913389648986525,-1.3926008575984865,-1.5663711243155551,0.5774311108226455,-3.97270521575042,-1.5230937480564088,-2.0162961008616667,-2.4719260359576567,5.7273618860811,1.2087020422998775,5.701953358666124
6.533470873275389,4.113546942883345,4.089129521637898,3.347432457462684,-0.2701511522367483,-1.295362126342206,0.969423808689041,-1.829034137234801,-0.4335948894341068,-1.941257378419712,1.143460478936754,10.124583873797496,1.9027928889163328,6.0221273629753815
6.761665829815963,3.941933294399009,7.020805829266827,4.022881752445636,1.977614945906648,-0.9624697975051204,0.8729360921258078,-0.457723062348224,0.2281893158111103,-1.6837440778933317,4.776482721103726,9.62617291370332,4.794656510440535,6.616538668172738
7.168634749164276,5.016638924084578,9.729941272146718,4.601970178017705,3.8361415031124686,-1.340458539009053,1.0297596186078972,-0.5893966941645701,0.4763294109696331,-0.5373301071719219,7.767165899396026,9.248590114878532,8.5300795999477,7.226099182278483
7.893733508681112,7.17703809515012,15.03200360401324,5.2073030258703135,4.275858791312423,-2.0406008314052744,1.6641377885928232,-1.512474055516087,1.5606235160682655,1.7868527195381567,9.58775347982967,8.629639972321545,11.351145815964252,7.488841099853788
8.995429183621312,9.391443078781483,17.213275289244663,6.100520633476688,3.544931526626847,-2.3204796144400075,2.4110265761383443,-1.739493419833888,1.7883530953166074,4.59590054039716,10.13070650899546,7.723854028879806,12.468110000033995,7.854360279751154
10.317083874523092,10.35456474542725,13.43528955126536,7.373221462847308,2.714045659272749,-2.157987600724588,2.284460898916528,-0.4298397997170156,0.8030352246734824,6.565857903166176,9.909228410103696,8.630847437002933,12.447128375351816,7.792326292154519
11.274820211770567,9.352872143627271,10.61051483336791,8.592236863883883,2.4723649016592937,-0.7261686536466019,2.0806729252522285,1.7287597890032345,0.3318465395306913,6.745693807523253,9.716414339704208,8.608550547964366,12.336742468699097,7.053971961338338
10.8404829652275,6.6380718795941895,4.820573424427276,8.79990890095602,2.3799040069717634,1.1725157407419224,1.7877013776480295,3.0592849253532464,-1.3512903508760268,5.31376711954659,9.926235372941626,7.884571108257576,12.431405068588935,6.4737194923419
8.087497049197868,3.0844410141763383,1.6014933045477444,7.142265217975051,1.3627595934563672,1.8160209694513547,1.179863944953991,2.4403126863131064,-2.455387749606203,3.462711881858084,10.208396520511243,8.360465354101567,11.935224604968496,6.764416535265354
3.1791266798264037,-0.3774851945687203,4.098918829916059,3.8013323153873415,-0.9581321819121912,1.5272917156557413,1.9911262485473484,0.4600681345145858,-1.2460115519213415,2.585055444826395,10.084914423696992,9.566978491457448,9.91222497230666,7.696711209067865
-2.0416013653411227,-2.9718258923013536,4.506049651994936,0.3592819798736002,-3.4124881003885648,0.5153846988665332,2.3304311164610523,-0.9374815158288357,-0.496878082608635,3.4147833241731576,9.742619055002535,11.075437011992626,6.575645387191813,9.058678154836956
-4.768661963571603,-3.960821105053526,7.632665563614209,-1.038462714501378,-3.9126563232390055,-0.4390262311063493,2.3445407101632183,-0.0925060285175192,1.520285976523843,5.621164043249308,10.048910818513631,13.545590096114266,3.5153386470647803,11.17351185474899
-3.1576884505826186,-2.732095818994523,9.38338037746905,0.7032261031071698,-1.2352812814819032,-0.1679026044252645,3.1478428138058447,2.840636563631272,3.1802588905669564,7.959337163047891,11.5191175887107,13.825101110393238,2.449347875925888,11.30421531925498
1.9589057259566047,0.6583786160818121,6.834563751455695,4.590530258166041,3.6008506969154155,0.7268860054947573,2.5123074690513607,5.822164475805742,1.7844104364775215,8.872214637731894,13.276626079126572,10.577401820893314,3.606081848451481,9.386890867227995
7.228873660425791,4.998140743562772,6.932090917310747,8.149535146675525,7.76985822949802,1.4965617095119157,1.8796522973215264,6.442066733670004,0.2723899467193768,7.363958814516991,13.322411716737022,7.353747168506441,5.350652393914366,7.62680844166446
9.06744456053979,8.26224577272989,5.053934619128948,9.322346088557277,8.741989383907203,1.677300420510413,1.326975631495038,3.832867602888129,-2.9498055431436927,3.761939832753839,10.192973947710172,2.2417573718299924,5.54412649343503,3.977214290756943
6.375610094582839,8.850251575410155,2.804334497011797,8.022242846372734,6.315251930626914,1.2439295947724152,-0.0316708533790437,-0.5344300177835279,-5.562506357089299,-0.2153622634111798,4.536385646998028,-1.5423907373510313,3.4290292064756827,0.8745461046471742
1.355108445226456,6.757086036603326,2.220954332320452,5.94583518688011,2.7571133859981245,0.9748466669709728,-0.0549257370248468,-3.807081777725536,-3.6567992103991855,-2.4141331529915746,-1.0294382356887295,-0.1103381294431417,0.2717680441179908,-0.5779636206310388
-2.397226840795618,3.5675043436804046,-0.98361561489789,4.850015780549441,0.8718017211926821,1.0623154814718463,0.3773061251684807,-3.762005275642132,-0.9054385615331374,-1.7553857926185898,-3.871462483775346,0.3863352003488682,-1.836544672240791,-3.558569754513993
-2.907837109595775,1.1826257869694317,-3.5583389633155624,4.949360982020032,1.6766158641699604,1.6163335693090246,0.6261081543661803,-0.4019491781490529,3.762658096448184,0.8502249093851972,-3.430258350042571,1.726135398874818,-1.8632466832827528,-6.12088834128685
-1.286045122535029,0.3950629514373744,-5.296400672297924,4.934596406044697,3.716890952434341,2.379871510519305,0.8921696756246602,4.015653464677229,7.45595610340709,3.075888758612954,-1.5490827570452268,3.4543521685157,-0.6361828628500348,-7.693315588004947
-0.3598781114751048,0.5690405256578543,-6.700888366828241,3.5024274563419624,4.535532860924448,2.5176281302419565,-0.2235938535618353,6.534880116821697,5.461076293718351,2.94204776612429,-0.7616540859153247,-0.2996655667783249,0.0941965142101821,-9.065509816018253
-1.846185529108375,0.5833180558575748,-6.610492707102022,0.8279956561865731,2.8803362556155747,2.3438399175302247,-1.9027543320595084,5.530751023267854,2.186742703307514,0.3668980585220751,-2.137068935190314,-3.7548482948855626,-0.6802731793728753,-9.473862156949137
-4.752748916597234,-0.0049469680886176,-6.92906952600322,-1.4698882770795691,-0.3279025918406333,1.9989757898143292,-3.2605388390175887,1.7697227422777215,-2.157901257085757,-2.819165905462917,-4.623280782643526,-6.158880811774856,-2.436327609358436,-9.159110671153384
-6.465533392566186,-0.7090835763976386,-7.146887472088829,-1.790539283073464,-2.991660877079262,1.4634941730602755,-3.8161745045095863,-2.232665650032821,-5.005203336916358,-4.42562936075619,-6.331731759156909,-10.025662660673422,-3.827655627809058,-8.327130619254406
-5.355876423107887,-0.859773128587328,-8.08718344892227,0.0221815323877407,-3.7232041877861306,1.4924842868980894,-2.828010726455624,-4.050812868068121,-2.586818203726722,-3.686461779504377,-6.375469082242816,-9.69651024216661,-4.0260763971454026,-7.625115631205072
-2.324498112453,-0.41037600080233,-9.747005938702602,2.638796112011377,-2.8688753241817864,2.0272762884750484,-1.8692428747308036,-3.020156348635055,0.6598465212669872,-1.7663026018054069,-5.480429441753387,-7.941729533719399,-3.3351566517105056,-6.228981817991356
0.1512564106977834,0.0781687865672751,-10.110873099228485,4.51660810446613,-1.88559686614942,2.6203589235944222,-1.1764160684003322,-0.5448665490417568,3.549689040179957,-0.6532873926692702,-4.95261801761842,-8.321972602052782,-2.608012867339468,-3.518987393173969
0.3927295721853312,0.1513915521107307,-11.0302424920388,5.153117373169742,-1.8613310705937565,2.951706359380685,-0.3477074547294699,1.0914015878175505,3.932718261374067,-1.5270113625586816,-5.259910312265575,-7.320325755626178,-2.2740089486725026,-2.785928018153564
-1.0774569304526551,-0.0331138859783877,-11.274439401458151,5.134242086106909,-2.651750456246887,2.47286374735178,-0.2375450404632886,0.4360255009516507,-0.1882485761780831,-4.045535499217444,-5.763645252988788,-8.012263264348835,-2.0893448694479986,-2.8528009034577537
-2.370920431951724,-0.0185874538809756,-9.952830970528051,5.123174320379281,-3.332568549073237,1.1419263702389586,0.9155804528889342,-2.179135677645064,-4.512496617938951,-6.999150878141442,-5.778462217130254,-10.716296067942462,-1.8058108280895269,-2.040154988909926
-2.2510558913422933,0.2302731720711435,-9.981731974411796,5.029066938278231,-3.303838625413213,-0.3269334749002124,2.624396146085421,-5.034075334456368,-8.703083804376657,-9.45052899545983,-5.62651643154668,-11.06486089164503,-1.8443000677920691,-3.5627206302070613
-1.193551661532588,0.1546413261892887,-8.821218427349898,4.30700816267024,-2.8100190305794257,-0.9365139368692004,2.6964213509478143,-6.313671214613517,-9.21132058215933,-11.148072022335004,-6.3336462110875615,-10.288240350827053,-3.0052617521155334,-3.1150417788023983
-0.5372989382781732,-0.6764205790910403,-6.438198217275405,2.9979694372814443,-2.383576979528808,-0.3468066077685109,3.028970531385562,-5.277756990265832,-3.901647109582594,-11.94871154599564,-8.161885373731135,-7.768212633197921,-5.360955415744794,-0.1515111951895115
-0.8503661889399154,-1.7419895225294546,-5.395726843250388,2.1843891262460677,-1.957127558638437,0.5420496642822588,2.812555540074784,-2.55623548007182,1.25928228303259,-11.179911543358669,-9.639623643189772,-2.8038309079038584,-7.564814052699013,0.5762355736689898
-1.377734810030045,-1.774098989149845,-2.4147311409661505,3.0812723174578363,-0.7778187654822073,1.215484792069376,2.33253918870493,0.4377704383052183,8.263126890048333,-7.984470957450654,-8.479104687244206,2.4064819196624168,-7.626953834062704,3.5076737725393863
-1.1344970830963206,-0.1117240779385682,-1.180531336589939,5.504556281115523,1.641121634694045,1.3515731409210754,3.1101268897618666,2.4085371960650352,11.87934351326588,-2.5513492195303997,-3.873088435583618,4.250721316833094,-4.774680711254501,4.853063106357849
-0.3486602895208435,2.078007475111475,-4.528072334603236,7.349065071717652,4.529095052376407,0.6169478416429676,1.8631179957424304,2.789336997424474,7.34617698109252,3.0617395912968792,1.9848987652284824,1.645242420265678,-0.7254402329507794,0.5171962564907955
-0.5580929729783044,2.221794691606508,-7.19248833639291,5.925488475162384,6.030200053172951,0.3504520847883923,0.3539336291942505,1.8230865454778995,3.408324489450105,5.714801888376945,4.940348683026134,-2.095257490256331,1.0789537202933257,-2.6015111635255237
-3.113977542005569,-1.5397216813665997,-12.08758551280168,0.2163452835416217,4.622377137741852,0.663485766865075,-1.1629710780395377,0.2463947341145012,-3.250044597340504,3.3402153119805016,2.019134294221386,-8.221839521306041,-1.9765580799270608,-7.748058088063525
-7.569007962574144,-8.316532443164533,-16.757785273084494,-7.925609227924799,0.5494527745546183,0.776836439041855,-3.029389961850361,-1.1470037892602276,-8.553741197337043,-3.2019666295953044,-5.859040118577206,-11.35176200385052,-9.290131295071738,-12.279778065304209
-11.63143827342192,-14.593620856010515,-16.264078078784117,-14.815085961544106,-4.100370967587782,1.1847615265707032,-1.6845433849975016,-1.846199143753534,-5.480240103987652,-10.230276605146097,-14.03443562943074,-7.848126142878141,-16.876340119633625,-9.33893225777895
-12.861673623868846,-16.77208006388997,-16.977021719276962,-17.457836905557176,-6.819261145554795,1.4725904828403942,-0.6707490181691469,-1.7601446683316166,-2.865898907929642,-13.4596067864866,-17.264772612095115,-5.047515125599217,-19.83042611606391,-6.727024927676682
-10.619171191420357,-14.051099690720878,-17.700176824949285,-15.536320574923565,-6.407122283470095,1.6090134846324298,-0.4957818935602499,-1.131055871126124,1.3262783663398938,-10.78079774787638,-13.47899706635111,-0.4109624944308611,-15.73405293999268,-3.7139243739178696
-6.551091925853364,-9.051463747868672,-13.9851647041969,-11.342555328794086,-3.618352583540972,2.118646861218111,0.405314983941286,-0.2897673265295628,5.534436945815346,-3.5968755676747133,-5.1632281934361455,3.486765455155041,-6.489120307546747,-0.1293028159748517
-3.271718860198201,-5.550354486793369,-9.71265434644735,-7.891168886956535,-0.3837852256535097,2.4926050289420694,0.1139070458426752,0.5935759688098763,3.3504477790416822,4.20312516130287,2.661328073263165,1.6813403706632952,2.817056361847172,-2.363215522598818
-2.453554811298302,-5.368516055073814,-3.7557451826038735,-6.832898216309706,1.5769606848237585,2.379376629956863,0.5555358786303594,1.5850686568750252,0.7781084933193341,8.84221724532337,6.151250778814832,1.0851345359684936,7.216193469777844,-4.9067011006269325
-3.904661688079841,-7.223362696125548,7.005454996443634,-7.715256086973511,1.6843297280142655,2.0716613481797586,2.4362136742295517,2.8230402273376622,-1.908460652466424,8.980533337286195,5.064459286529853,0.3942744745718213,4.946607328544975,-6.179337021573451
-6.182517381984875,-8.45186731151222,10.532709588797683,-8.869126834303799,0.5328056152998961,1.6107038030247482,3.3287838675324166,4.247857891799917,-4.223275352305153,6.203250038669204,2.152666780955407,-1.791570062396607,-1.8273196276872208,-8.455919779056385
-7.962258172007532,-7.778281852990785,6.593346671711821,-8.951005299688369,-0.6946981365981433,1.2454055823754588,2.693979198100624,5.479145640003431,-2.5720048823522674,3.4639535075819072,0.369888166807101,-1.753438337307109,-8.963348773996673,-8.459129505211958
-8.927259208035936,-6.426052597393994,3.965300157331101,-7.898819463043516,-0.9553065756040092,1.3880984405974135,1.9175518282061284,5.999154253352657,0.1201278814076658,2.7492955648164497,0.4364667076081332,-2.5313082531558884,-13.270207027044464,-7.737860822089715
-9.608372261312,-6.646496711833812,-5.647752993896375,-6.7615131321937305,0.0821991862499551,1.4128281942560283,0.2839700311958126,5.533193891703334,2.425098166627643,3.757287225528508,0.723249188194643,-4.927905036905103,-14.18895372011663,-8.528091083200112
-10.595464312029852,-9.300679497841172,-11.521128816153956,-6.783126703829161,1.7892615009006434,0.7283044797481778,-1.7706570687714858,4.302012119630177,3.363416765412941,4.528248428206801,-0.7587496167488226,-5.773885530313719,-13.263234168210708,-8.994767921106078
-11.953687493932302,-12.936055312148714,-9.161021051551336,-8.529660464476269,2.818394414840501,-0.8093092899483639,-2.344357838299307,2.8824968169315603,1.817820379475029,3.3581962715309395,-4.26465532364476,-6.435126701074463,-12.304193842316495,-9.471298765434014
-13.27791657056002,-15.168791781297069,-12.320268049109462,-11.598853436944625,1.8677979657960575,-2.729021554075037,-3.149649230006056,1.7423604607183698,-0.1903799108180945,0.2903580213901868,-7.994820590449709,-7.91893301372994,-11.994906376444352,-10.659304664825662
-14.143999357177382,-14.88425028839058,-11.989983452631831,-14.923187535187406,-1.3786897981332125,-4.640132399856058,-4.275384143639676,0.8381741902260416,-1.6158517563502406,-3.054536032004197,-9.684653109549869,-8.02132381062661,-11.895649643656096,-11.24981292978771
-14.426507578663552,-13.094813941059158,-8.577587968241993,-17.332281674959102,-5.797302061063199,-5.660310325724509,-4.116093924126164,-0.3289973016375214,-1.5697026994709606,-4.994061595254795,-8.562736394818508,-8.108691833286194,-11.37165468735105,-10.643369762473087
-14.219204054815693,-11.75315781836515,-7.708504252648067,-18.03679780765038,-9.32825802091741,-5.261096083683468,-4.266481367677534,-2.180485817308288,0.4206944103309999,-5.145707494953765,-5.959340499124856,-9.021960202553842,-10.2942621776828,-9.211978501023545
-13.541250422269965,-11.809981584678134,-1.349060580534035,-16.875385292964843,-10.230871746461894,-5.398797131805586,-5.156698369083046,-4.483941094918816,1.3442704580578448,-4.429021804797312,-4.14430604838422,-8.495607720481763,-8.934980086616608,-6.996766366730691
-12.182821591901682,-12.384577772122364,7.077368062950164,-14.302690061816978,-8.244628827695887,-5.751990831322126,-5.5572010443574325,-6.28726629406756,1.200146129053216,-3.917274453825371,-4.47095431850763,-7.866636363780374,-7.447963919395413,-3.7275069510026335
-9.842339291485557,-11.696870118077662,10.382722784344407,-11.14070959139979,-4.795322930242058,-5.706049467861549,-5.509577796518729,-6.5346381475542366,0.4707764347355412,-3.8166253377084582,-6.348837058504621,-7.3845077700176125,-5.6420106367890455,-0.5811959298633235
-6.403612531750774,-8.730136572366462,11.933574793448416,-8.168722355459238,-2.057179754447027,-6.259083249716237,-4.113847775927567,-4.938482931537209,-1.5475120837348249,-3.5442696346436517,-7.767703423755126,-4.480530732988722,-3.230173908694514,2.33586390136925
-2.094108321834653,-4.058463066211949,13.10955221986535,-5.73330027622476,-1.5265696130701727,-5.708134622389383,-1.1393997270987697,-2.3821589517869306,-2.412961847362732,-2.622966572568874,-6.851403123927028,-0.8984544238406166,-0.1586251068681576,6.125956481860984
2.5878232323260413,0.782872646571434,11.117855659296884,-3.6220003122556896,-3.107130949082084,-4.456544981799766,2.1801681058621885,-0.4293706956057406,-2.9133636539677563,-1.2878675575177247,-3.212244191024798,2.71474130138282,3.370621198136256,10.14604655386204
7.081642966095426,4.628906679079755,11.325842520394891,-1.319825792459728,-5.305851085031897,-4.123956172262162,3.835763327525277,-0.2244828779402254,-2.819731464715592,-0.1349862662286476,1.861597607975309,7.113649874085655,7.111440267073036,12.914157365630828
10.937848252622196,7.440793812830186,13.270758148684084,1.5073897861046746,-6.3247957740781295,-3.520656917256553,3.078566812264185,-1.6116304206242056,-1.350362181212015,0.726015014972333,6.422246917758791,9.914008872787786,10.887683366395455,14.264957478601284
13.876613962610822,9.908478947685968,12.308965891755912,4.659117735917452,-5.237118118260053,-3.5480877862800546,1.827400660877732,-3.1998677577811563,0.1072380581708753,1.97345816573009,9.230569513767444,11.987709287636442,14.492662230475098,14.937690045419885
15.780392078908609,12.458241715643798,12.580677953474291,7.458448811118561,-2.469935480250328,-3.959040369329623,0.6104414892465431,-3.387814931798129,2.9748599565101466,4.379417070761878,10.417153403003148,15.216442502248205,17.59172114955081,14.364572045294558
16.696633477769886,14.712806778219342,12.419665373813173,9.190738535359532,0.6208389927538231,-3.2355559297042507,0.1298720057869264,-1.5826232871160215,4.465635760127298,7.7793928245844945,11.000188539719137,16.272136754248216,19.83670692457765,14.01581002517518
16.84872792251581,15.896264894746547,10.627201524098684,9.597980014013691,2.679922002180096,-2.53425242643613,0.986731655598954,1.3440427508371258,3.059923024464541,10.811477150239488,11.781137297720182,14.73317048381908,21.082862786221643,14.528664820072205
16.581368773962886,15.697878466682209,10.257865991345698,9.066138014024755,3.141996958712696,-0.7993791364011655,1.5868573458381878,3.7295627680924497,2.058053064225576,11.822228606744972,12.633820920081018,13.074909975020391,21.410258500811924,14.081370944546071
16.21045586112352,14.685751984727354,8.726775211162293,8.382801083070902,2.446695148254083,1.5148762822990731,1.4618910180781286,4.371607642508625,-0.6066329805735298,10.175978014306931,12.780088473379172,8.73050859819489,20.86629156790272,13.324015792807897
15.87012555393003,13.872990660600587,7.564006605948668,8.250680994655347,1.655174154959857,2.178637673268807,1.2184099636190404,3.332240346287694,-2.734972275913297,6.762519358723885,11.690095004586212,5.330219603380243,19.227974813157225,12.520405569707844
15.503468618587585,13.91280261780932,8.16926382674519,8.892639524341739,1.7668869301441124,2.1845046699549067,0.4573626784958063,1.6734006443360556,-1.458338585468986,3.242590693889131,9.67274945441672,5.98908039441585,16.15971120466238,11.423608287433034
15.02939329989556,14.715617021456158,8.055713358035836,9.993168728136451,3.137987083508886,1.7945503948612025,-0.0385596461719762,0.4466501690328393,-1.4327944506901886,0.7722571553713014,7.599114949654602,5.424282436680473,11.760656864110262,10.237898094022825
14.52700576602603,15.762975318441075,9.144590291575852,10.981958384159952,5.309678067132387,1.241956642001941,0.1315728735403233,-0.1027083067010288,-0.9286830199858382,-0.5971832213292299,6.12433459372005,5.417440798796797,7.011027671833739,8.844857870095026
14.226793955775436,16.65396242581966,10.491769203867316,11.450186465529258,7.3241430572922255,1.6339466336771933,0.2853702472276052,-0.4281157135569398,0.6493270694353817,-1.3964928222433528,5.265669418315847,6.413179348468908,3.5569904070265324,8.004528176103781
14.278809804361472,17.283924392057333,11.3014619618405,11.42346714190844,8.323822112118412,2.329859202859568,1.1958306475736165,-0.9016792279831964,0.3560119413612976,-1.8176789006653724,4.739687447274054,5.32248269423796,2.778603730963632,7.054888210475313
14.5143329539006,17.595936117679447,13.785316495501066,11.319231517051056,8.051818986049865,2.005308923358188,0.9047554027025212,-1.2551470750392308,0.8080066815914388,-1.4777527441228315,4.57296641210817,5.036671246276834,4.7685887360590735,5.960626161446218
14.464070807337544,17.372016597973648,16.15423477796093,11.616450080469257,6.9377800572118415,1.014083099346382,-0.3583484897126963,-0.8668068040842618,1.640206235334036,-0.1184408619898729,5.174078718002484,5.981591938103801,8.07939366437321,5.79582570282848
13.665109585270615,16.411944259292838,16.221201256439453,12.447964813638816,5.75165448789558,0.753864745857013,-0.560733177715047,0.4206755625211151,1.2202924186320478,1.6256497094887177,6.68109891870368,5.738159526155179,10.569269062407775,4.602897778553229
12.006030625377374,14.871180130791824,14.542466597176125,13.39342986174877,5.108068280414995,1.1999673401710036,-0.909219864948507,1.8822708118776637,0.8272711852898075,2.412264940635735,8.307555435636447,5.318060893862675,10.786723152528648,3.109907263826744
