AF3,F7,F3,FC5,T7,P7,O1,O2,P8,T8,FC6,F4,F8,AF4
33.655215116410915,30.80399202894293,26.02998389130017,21.7044860055339,16.1423530227331,11.339424943632189,1.0069099927672878,7.11408078294826,13.194433321595614,22.017561378011933,34.443292549259034,20.73391679522931,30.66336445415518,30.909139164480177
36.19464396947725,29.690558618850996,23.902321994518797,20.19677526629784,16.372953561845552,11.52124247059799,0.7905178835410361,7.4707510349886945,11.846394194722627,19.823160808126417,28.498642697594477,22.40983620430857,29.213031209673503,33.767308754550285
36.27519432527444,26.950361500970605,20.71539776383843,20.50219195162152,16.147289760299678,10.545448194951938,-0.8842596752778962,6.678705654356509,10.328645458156664,18.16398673572677,18.308832652288796,24.054152263193323,26.88359310591216,34.422129560406006
33.0512797019297,25.710527345861674,18.882867182122293,23.512112752486612,15.63627021681084,8.965628013211184,-1.0727358734388308,5.47052630085453,8.841503547923324,17.392059298543714,11.755060663739302,25.15947188661588,24.27657927385987,33.0206889971383
27.246821239654377,26.055669935988817,19.188628882758383,26.856479377464197,14.868832969826984,7.556041515805003,0.5358512307585896,4.433966003160318,7.148966869956865,15.687332071744574,11.624721340769952,24.612183525944477,22.048552291459263,30.34169882211613
21.02338700847105,23.149895023239463,20.23559766852405,26.934760007140163,13.973926284244513,6.773030115050855,2.2713865207069817,3.542182857076746,5.1545235506340745,11.460862435468693,9.681670726536874,21.60969312460652,15.601422878097235,27.1959842661742
16.580848394242157,17.42917391491787,19.595018434929745,22.123205218631146,13.272883350073926,6.447253422238735,4.920028938741251,2.2739764859148828,3.282784727142989,5.551236117559732,9.917618230084264,16.40228020292491,4.970757560753901,23.815248813465136
14.570340527373858,11.58861875836716,15.78566420396885,14.412572833913966,13.105083339190934,6.074674481967413,6.550782097066751,0.3086449336388952,2.183660716847456,0.7933599697993259,9.071881073963125,10.299426245928114,0.3335279558458577,19.832401458401797
13.620236927476329,4.800575602257872,9.508130036558306,8.018929947668124,13.49032239385292,5.38601572716037,6.958692613239407,-1.91965684427419,1.996353024787048,-0.6095588736585675,2.5787886173420462,4.938956032962995,1.49690495655602,14.864445647111577
11.383180151737497,0.0927640870468356,3.1442102989219407,6.055358532419415,13.890389240206147,4.555439021640662,6.3868104074007706,-3.486738531065395,1.9710765711713056,0.8827377936827325,-1.2568183889299651,1.349958106983312,2.99808373814914,9.122299565356691
6.309323754415459,-1.9185382274037173,-1.0448463130563646,8.02135659183459,13.35265472502038,3.865029955178741,4.237325561550757,-3.8685137064441086,0.9989126383777068,2.800528805351366,-5.379030951769208,-0.5353603412820114,7.023465563606478,3.46920754008055
-1.1583524455176717,-4.213168178625241,-2.5191049199881554,10.24270086679622,11.122356644738346,3.3269962254737493,4.8588644630763484,-3.4870937697080286,-1.2980772649014725,3.147918068261614,-8.937352863298363,-1.6126668244113669,7.060563285350067,-1.1023304927280293
-8.75846442691326,-5.934445338628908,-2.568259680646616,8.959012367915555,7.415299927452676,2.8112903522682977,8.416891828745891,-3.2108651136166806,-3.9308356401442417,1.991127743274646,-5.801402285844382,-2.811721133007044,2.1435405845823774,-4.068573211600754
-13.748526667503956,-8.910908482413058,-2.94062106754075,3.5208405094314834,3.7049170934293914,2.546653836981946,12.2842184508678,-3.243332810744373,-5.0799532622122,0.6387134818369233,-2.10846546789496,-4.359943375486072,0.323346003656251,-5.527904466768344
-14.503359558672916,-13.650375706155964,-4.273216159552877,-2.9888038444518443,2.013461039913075,3.27780671607448,17.478108057520107,-2.6228112110857147,-3.468331761129562,-0.2964500732090727,2.664639791354907,-5.632390610350392,0.150116055192227,-5.875724450768178
-11.449191492940074,-14.14216103004983,-5.715824405437669,-6.283150520458989,3.4325068125176763,5.639345818409872,18.38116483371781,-0.0473046124174985,0.5788803145805232,-1.5087587070579502,6.797371763244727,-5.71293107880345,-0.1856580546611828,-5.44476972478536
-6.868312108726045,-10.531129277959296,-6.010819652950978,-4.489107976310613,6.933098031381533,9.224815180204777,14.265427203326295,4.643765625089305,5.298019752340405,-3.5986399987370863,4.344231236681046,-4.2789109095617945,0.5186213129908057,-4.528151729357322
-3.686460270898806,-6.11305505547374,-4.940566891128192,0.1643823062091449,9.620305170406926,12.360599647345808,11.18478808383785,9.822409045796864,8.716501719037012,-5.521409726628296,1.2980926524190408,-2.122819577893964,0.1702188296959063,-3.6907169652980265
-3.837452664882708,0.3542543718504063,-3.7166471195142936,3.0489525538493254,8.590055210216047,13.073612850608058,7.816995314895322,13.081904035513308,9.905938963810854,-5.06252054563852,-1.76954642812926,-0.7980767192426335,-1.3350798815019953,-3.8255125290587735
-7.080547524504407,0.9472445551371363,-3.883664582680716,0.8895961151965395,3.151616574040822,10.609296923522784,7.560429110683141,13.145719719823983,9.320779493451898,-1.1506816473198835,-3.824180040664956,-1.507021937393663,-1.3088183463525265,-5.573265951070395
-11.048395575215524,-5.3731087924487095,-5.73750691635713,-5.5048583710735,-4.356366073548937,6.226932248423431,11.676821781311167,10.974704570019234,8.173880568656926,4.524522317437878,-1.3558236593384014,-4.021665725155611,-0.0658920083330471,-8.436153289945405
-12.673280282326935,-7.1108672115040585,-7.775531273065736,-11.805064678113489,-9.967720041438133,2.5126554193002804,13.492593255337509,9.029398440265782,7.546396197478689,8.657998117517728,1.3010491245818994,-6.556755324243882,1.3367732966249335,-10.499858574492055
-10.200135348936618,-5.842608055353284,-7.792926534828631,-13.58677383626648,-10.765570333138012,1.6553507081114347,13.933651603998785,9.290327737949948,7.879996401656149,9.35196026859564,4.263407428700767,-6.869225978692832,3.360742508919868,-9.416380296486397
-4.424651616385205,-4.467290841627562,-4.735454080782743,-9.81293113254592,-6.831194327455918,3.972178477626029,13.774498395616778,11.72180772989914,8.920655398232919,7.907001793017848,6.287226721922001,-3.8775251063149128,4.070543608206583,-4.236569603144593
1.7948392723442392,-1.0029616993790536,0.2980105644590445,-3.520921764050879,-1.0269709713151816,7.76508188255276,11.807459497406285,14.412136373695668,9.838225340168776,7.367722472886999,6.001063791512756,1.4070979240669974,3.218999528072375,3.2999330737602026
5.457010233673547,-2.9001450341096686,4.768500931396044,0.7784604565062807,3.1154896074136094,10.560742093020446,11.502809375130065,15.149814436422268,9.468048814121524,9.226556765173491,6.572632124342435,6.398933481722324,2.6761296768402563,9.313919699688087
5.360284603594129,-10.68172413358472,6.5071818467724345,0.7151548588004815,3.71832076638726,10.77554657302254,12.78899405411772,13.0804080901017,6.909186974968455,11.763859033069131,6.304611590653811,8.605859110795453,1.9713211397029569,10.165592410796435
2.662368413949784,-14.32623653032804,5.141255758936316,-2.37291775805258,1.4097461710411086,8.599219014493862,10.541196590652667,9.222566102554437,2.436825254872087,11.86860726133111,6.072835577082496,7.293177291702261,2.8873102848949475,5.107977414211662
-0.2141634317874592,-15.100831968318312,2.1191399589810143,-5.091861799361339,-1.6763197554779543,5.534949625858298,5.109778276029745,5.666017235072727,-1.9965722301615283,8.473862047311023,7.1237320014797385,3.9773249701765687,5.852801305647856,-2.804841419689198
-1.3272775783463633,-15.9697555363372,-0.4536585138562579,-5.1881746371369335,-3.703305834675,3.054187272234951,-0.791472031940349,4.197201733409004,-3.555981080023611,3.947015184302183,6.925898313475587,1.3942479880809548,8.993313943739727,-8.445199665144022
-0.2866610406669165,-15.1714916667706,-1.1407339003880237,-3.378787732744674,-4.25620668356493,1.4571353963921445,-8.1254066506041,5.253311217190888,-0.5374094390075665,1.9050890210454636,6.858278499994125,1.632941552472298,12.839238340180984,-7.930195438798544
1.910906567832208,-13.346433107877862,0.1921562260512059,-2.3380649302651624,-4.099771731009274,-0.191457633889299,-12.484960139774527,7.688125024242915,5.869823221311254,3.726949430769282,7.371419938444217,4.701491641891231,14.178351411907029,-1.238272638193446
3.8262303538086817,-10.446303684345317,2.560219091267016,-4.007018725247033,-4.097258145942439,-3.076007111893152,-13.187679767894393,9.367937959413206,11.837520468478385,7.385889176138705,7.209554293553227,8.520358614787849,12.476000644271975,7.729869739596147
4.471953758090303,-3.128947799823383,4.494083101483184,-7.742496857357225,-4.400471459219886,-7.4661286045315105,-17.172802685797823,8.333992775974057,13.435691665974854,9.678119057559002,7.29060892618118,10.35669637120198,10.641143414878384,13.693726450180709
3.6856469871789006,8.878430028398919,4.769226862110579,-10.79610119761698,-4.5678855767501645,-12.35510354932827,-23.572441426679784,4.021343867877688,9.57930021649202,9.307486057937432,7.555928074310576,8.684365852008826,7.790886203094266,13.364678686855028
2.011305205086608,14.733899039902994,3.01635632910632,-10.446034091220287,-4.296654516500015,-16.16175286321799,-25.685920386448164,-2.185701128509536,2.846348905797861,7.562621198924846,5.977456158297873,4.138021038547624,3.9981066434655,7.3601611244853
0.2857732191571025,14.41754968582577,-0.0448766650755484,-5.914238246271058,-3.906127774589233,-17.842833807930855,-24.24524113730825,-7.61902895005955,-2.658146320810764,6.172935804839854,2.419716859609917,-1.081001560860399,-0.4411837852050859,-0.524080596082664
-0.912836137019628,12.817481238842548,-3.025380390587848,1.1977751265226235,-4.054129973425245,-17.45880461884331,-18.605928261662587,-10.00739917449191,-4.582568505998101,5.06171532838215,-2.0810055074682734,-4.81064229993274,-6.696590280121217,-6.009926462645508
-1.711744287381988,7.394312352808836,-4.838784654068112,7.856967971339741,-4.997191219280506,-15.799282822121135,-7.198089553680449,-9.050967553667302,-3.8958872561762,2.629145936974359,-8.160549100032709,-6.2869924105137205,-14.739830787236547,-7.048954360784437
-2.889785701017491,4.787260511592418,-5.521730344152047,11.10518182635855,-6.175826954326074,-13.555307204484254,-1.4984525936084243,-6.60931759122432,-3.4970613781956583,-1.8847623784845409,-11.47203228332802,-6.30695311835953,-18.173058717253188,-4.731528054301817
-5.140329723361022,5.602764179056165,-6.093069867400831,9.453111624472395,-6.578920281169536,-10.885668446947845,-1.6457177627736943,-5.2243800262549405,-5.3467856054222525,-6.896003329901411,-11.062309915761585,-6.264867744679095,-16.636337100660395,-1.9461821737168776
-8.128242588418907,3.829461269190773,-7.418375443776917,3.748478945841942,-5.576749739444381,-7.730494124607936,-1.1259194243764028,-6.128004855300963,-8.827215999530805,-9.815038737775785,-10.39324702192282,-6.968761673319061,-15.145194857731182,-0.9552203623132254
-10.30030011252004,0.9415170643683162,-9.10410757612908,-2.971398429753229,-3.47405639564915,-4.404186469634457,-2.4973798028917917,-8.405066169933864,-11.664182748531688,-9.908218229113698,-7.23175354338311,-8.151751076189221,-12.213200648348453,-1.774160248389098
-9.970516597955765,-1.7413624272929,-9.625429377888974,-7.009843492441567,-1.3092326822853495,-1.7014217949980326,-2.595222673695825,-10.001266391390622,-12.265538748440974,-9.447503217428448,-7.61608069408664,-8.91445393777692,-11.869842901880157,-2.5619011052728364
-6.986067773100035,-4.902278991021355,-7.789043033202787,-6.394060063958671,-0.1047062430366505,-0.3025559122304031,-0.7304573675744035,-9.624375169582954,-11.166163270216789,-11.58949977741618,-12.182245025562088,-8.604007442358855,-15.07360162748935,-1.6145506756903352
-3.431420202046956,-8.079170699377249,-4.209533299440041,-2.4792337568399336,-0.209740803185058,-0.0913412850001886,0.7008705639600654,-7.827880425219894,-10.376484016316969,-16.946820643748715,-15.079472081755013,-7.39809255213174,-16.526097530524275,0.7743687089369704
-2.399952800150694,-11.175772311357775,-1.226515246254956,0.7988878020796228,-1.222150299711064,-0.1782657130183436,2.615896542943604,-6.387142334283823,-11.48469007714598,-22.41476347159469,-21.43268505758054,-6.180117875757414,-17.291457539117193,2.262304647570306
-5.566075979651263,-12.600655224122413,-1.0570296493923923,-0.1306973573992937,-2.437380354274315,0.293781674181572,3.956907769154344,-6.665711468627965,-14.336730373350258,-23.724292045432502,-23.846382857200577,-5.852272529089869,-18.04810307533777,0.37178316247281
-11.570604024347295,-12.036813675076164,-3.743426063483918,-5.529011295562613,-3.351014672961885,1.3584378796364351,4.497143600224974,-8.498094349086829,-17.304869928011435,-19.47385571699784,-20.457311112722547,-6.636986830739188,-18.02941906746411,-5.232560150168782
-16.7478527171411,-10.089890890702636,-6.8549048809375694,-11.917365258221242,-3.7829609434095897,2.2966197518142444,3.3536037282761058,-10.487576286239149,-18.6222254340442,-12.77526175075042,-19.90891811104956,-7.906109034384155,-17.778772249448235,-12.139223854816612
-17.757008021097764,-6.190229167071619,-7.397380005759214,-14.683290523555034,-3.6283773691779206,2.5181052981068763,0.0513213966515217,-11.257909111738726,-17.523321668261975,-8.787569828911668,-14.742232010087156,-8.662633385782067,-17.1542731904051,-16.889395104820316
-13.994404243316046,-3.6055257454281824,-4.329789890252721,-11.63352544887494,-2.64860668432374,2.295218503103481,-0.9307648592271424,-10.449130518620056,-14.440861583203295,-10.268123475464014,-10.493743135417589,-8.286458917190604,-16.279529467750024,-17.556167222488412
-7.827079299416141,-2.502678206883839,0.5560493787209744,-4.580526080809717,-0.6813785606330942,2.5023256668988134,0.339159062765282,-8.703437990932617,-10.468120182474852,-15.175582948787612,-11.758090888062378,-6.962518132885984,-15.203617903649825,-14.977449120188613
-2.5752450862163903,-0.7674629231427501,4.184021468437924,2.236710205483565,1.8602769295689263,3.5883219332835417,1.6416906270976128,-6.922294843669807,-6.735254342833521,-18.51251961835873,-8.610651984824408,-5.497277071492663,-14.444371514352326,-11.660632808503449
-0.053106290663341,0.8313989746447824,4.757033531094761,5.4357177959286425,3.825878206464044,4.905105248098381,3.945043035215966,-5.618462279219846,-4.0627147570481466,-16.736616380336727,-7.062399463270526,-4.7285018487421215,-14.111255851832205,-9.504066514622943
0.3186688860105873,2.696694330267273,3.044314229258005,4.763854179832688,3.9918034999788174,5.217782280126894,4.247299051571015,-4.832409798532336,-2.796657145846689,-10.76933168672779,-6.515257024625496,-4.97855873958645,-10.3996050729806,-8.450107044073812
0.3748641893696769,5.017315779343474,1.3721960552157944,2.745210401663667,2.21893847450385,3.98138737173588,2.165469283826639,-4.382676156762229,-2.646392522787119,-4.957271887287103,-0.6730826023547978,-5.839810133706457,-3.1278627022891485,-7.105482388777677
1.3827028204206329,7.083938262590317,1.4502485157746174,2.344670863234402,0.0080317966086189,2.0713781707725616,1.499686380167576,-3.979554437244868,-2.619631618930115,-3.006537914665185,3.668097092328989,-6.290410186466217,4.500061212984517,-4.412073323715362
3.249529051025921,9.008996892285994,3.112789084825179,4.706115125097415,-0.4036468674443876,1.098168829040013,1.624465502750313,-3.1194229986304123,-1.3465424528149246,-4.5632637381025045,7.8430169193123795,-5.060689770801027,13.32100021360728,-0.6074553731045302
5.22349603757683,10.589247073857486,4.963774504287408,8.597985559759241,2.04365775690782,1.831414905787716,1.6326753254036508,-1.124609960987085,2.1371431075655307,-5.451381384359752,12.362101927191633,-1.2453294868350984,17.454634269785725,3.2761510779659835
7.01973238580032,11.677450387627433,5.9781543758878986,11.627227784772485,5.970782228241625,3.228328338945836,2.123423209561229,2.3992453837368286,7.567388210316674,-1.3324590037993715,12.19123001333556,4.950122064714483,15.881867582819364,6.497562200748398
9.036997448493848,13.209452796214222,6.317851989331436,12.022514662591808,8.36007555943755,3.1019416815385856,0.8134213064403538,6.985955173384904,13.276366935391604,8.3601602453599,10.70170976666753,11.788785490151923,16.48889966099817,8.937918609313648
11.49447444912788,15.145721454168086,6.665488176958025,9.712520705103728,7.031771890778022,-0.041237277399956,-2.4740981866112097,11.269023149363532,17.02085069684011,19.50531524819614,8.949356546248087,16.51199454683912,17.89392498473319,10.43092854937927
13.608113820200522,14.660396320521611,7.034639006795099,6.220563725973415,2.670172358302435,-5.6013639136695375,-4.3146687097641605,13.770236964029854,17.394263448409234,26.135188636425,7.878097983923795,16.849522070539457,16.831314299274066,10.148811590364495
13.9220257127435,11.69601268455813,6.498592707699794,3.6925994780437903,-1.591354356665578,-11.202651512761882,-5.070062163203661,13.990171268257203,14.818155842505242,24.76426285590612,8.568802056538535,12.6478493044362,14.343899470255607,7.080148047493559
11.61768392693617,8.367356438443537,4.168554166903039,3.663621562907918,-2.862094384456184,-14.479615810575115,-5.417650556418877,12.843075901944658,11.309058604034266,16.865814885905724,9.112289688363148,6.28146808383104,8.407610816138245,1.3156193124532969
7.459645700771932,4.064194037180571,0.3414077761193441,6.112577711922908,-1.0783729089817655,-14.749186295559882,-4.680249447415607,11.967752550095875,9.134635883697063,7.707315313551794,10.097306703003046,1.2501690352190495,-1.571471818553889,-5.255217692772523
3.314959292380012,1.7783755119723197,-3.448095628466145,9.273175911842127,0.9687821427787892,-13.110071208420592,-4.065257437257847,12.44424832038626,9.36231081341929,2.5795927905257896,8.674547129571392,-0.1508034843410095,-4.619740691882616,-9.833820964956304
0.6454390685774682,2.060872085962164,-5.57685969078001,10.497496599002565,0.282601413231867,-11.005081979588493,-3.517537112184295,13.98995144076698,11.36319904950053,3.3434151658968685,6.3535918632412605,1.7035938700214728,-0.4666560314709154,-10.634870004787595
-0.5566541994575651,-1.0627437992087356,-5.5941459037203884,7.925516398422097,-3.4585806467104256,-8.750168488516973,-1.1556282822706376,15.253637934816634,13.50555095487001,7.772819531668201,5.004696532404276,4.334439626840844,1.78521536337763,-8.197968167620383
-1.3991935933599136,-7.081344256041945,-4.481399337916518,1.944428488576117,-7.523781720484737,-5.531789605294477,2.9377682019743414,14.833052297739512,14.319509081898572,11.842430945946768,0.9020440157397848,5.230460891309129,4.4065907449147,-4.945472783529542
-2.796827006091065,-10.353166600743696,-3.820796517166607,-4.804220543603535,-8.644680634678199,-0.8532974198674141,4.616929655487036,12.10106116097699,13.195122314909565,12.827241438986574,-1.4406263453991124,3.650743218023966,3.1400517826558074,-3.394735501178418
-4.644063600369636,-11.657871554068429,-4.690987563300169,-9.195727629692302,-6.058255963326551,4.150445508554761,3.938692542843191,7.305499166005919,10.294475901723164,10.736467583981904,-3.025483726049841,0.739904944610768,-3.700527238837143,-4.496658842729542
-6.187505914069382,-10.48341403878728,-7.085010450713153,-9.948894505361556,-2.207266944757211,7.10020273732274,1.0017582526788924,1.2004485228794364,6.120172546050971,7.343116040016055,-7.193337461420472,-1.859048758439816,-7.763323152411703,-7.244902635344268
-6.944414269759257,-5.614400045783155,-9.987076478224498,-8.542679181512108,-0.4765973578970537,6.346070789966117,-5.3189535579530505,-5.217607646877481,1.3266524388565537,4.1895653687823975,-8.776372375605469,-3.399199518047918,-10.241078485848696,-9.52233016915129
-6.989213161555826,-3.981605513078227,-11.794082984754809,-7.783514826309465,-2.1462354734922773,2.6942341656584663,-8.04452366961506,-10.715139043863845,-3.1545414603754205,1.5050331709011506,-8.841680841431392,-4.143592534010609,-9.051517388575128,-9.344258317460437
-6.319067810772175,-5.497361491951653,-10.875494013102742,-9.15701287085796,-5.396078150305673,-0.915677261383623,-7.067948517066554,-13.960654175862642,-6.123664192872332,-1.3112288292015477,-6.582162175621567,-4.355728808036107,-2.393477695335208,-5.770244434171705
-4.237958173521772,-5.2562915798420695,-6.293568947546333,-11.303784815577757,-7.139708950878364,-1.7054189983599894,-4.9176984326827045,-14.122299785312713,-6.625063389135463,-4.560364284326544,-0.4866434928172273,-3.5037776858905723,4.886127787609592,0.7159477103719314
0.2022969112164965,-4.593283799816112,1.4408453955008138,-11.050673918682731,-5.786981285719877,0.6855124650433022,0.1144711970803269,-11.596781020804547,-4.727345821794554,-7.694924719629748,6.121346361073708,-0.7244895797039843,13.84536365858254,8.32476190146516
6.876196315109504,-2.3241812083087816,10.095836405397897,-6.174616796022864,-2.3455272578925803,4.046729349938684,1.5910266794977823,-8.104462320772612,-1.866303366266426,-9.667583291187803,9.870402315917303,3.851357984161271,16.476428901568653,14.621275393854658
13.744457212750271,2.2927183574075083,16.476241703650814,2.4570861841143974,0.9023192036308793,5.6728777534886206,-0.8812977187676336,-5.788442287616517,-0.2540737063637603,-9.653375085458364,8.6017407517011,8.390538655672355,11.280671221183086,17.651240977644814
17.680455751837247,5.968554467324758,18.102635902697024,11.168458535063987,2.545570912361364,4.725853259059304,-3.06490754793246,-5.890233331746309,-1.6083608617918186,-7.640284731154386,5.557081778271319,10.282772973247978,6.66477586640535,16.990461362969675
16.623654076294194,9.05884687558896,14.816965147415353,15.927376674352288,2.880487014636342,2.7405075398632586,-6.476577773234303,-8.058907161943479,-6.071068337073284,-4.73049247101438,1.528379962860671,8.11080835795164,0.439922141549975,13.924560815827196
11.330824207902952,10.337318133304596,9.06986324620755,15.025704191002824,2.942156685218531,1.9559860642712448,-5.475814563559794,-10.814789908978405,-12.085127402777838,-2.9386752628700146,-1.238453598963079,2.9292552472171733,-1.345549645042166,10.499795765525462
5.131979095498646,8.99132900825647,4.442229154294647,10.031082769557404,3.142915478849484,3.1967715820242035,0.8244523968823321,-12.644938449854472,-17.268363448331485,-4.116264500280842,-0.2471052840368312,-2.3761929771946253,2.973684879829158,8.171810760299877
1.7057458357517188,7.756246437312844,3.2972319952956752,4.48406322083031,3.083014936022883,5.316737374545449,5.890159723990137,-12.734842809208756,-19.615930303041267,-8.24845901119253,0.5028826375816233,-5.164287999416491,4.729409096672727,7.178438600423067
2.551436674225574,6.122245254609053,5.25533948774007,1.4124630701939775,2.516960879855869,6.569298611201354,11.068386745867269,-10.909362659267074,-18.2857324130618,-12.548513042513903,0.8946877210215,-4.794237338439488,5.57647751454289,7.0285059623733375
6.096756978308182,4.894757524846607,7.68077358502083,1.4072872720831056,2.0609932733314,6.3816455627644615,11.593759919712578,-7.290560013450804,-13.733292252364116,-12.91103975550221,1.3694958794017755,-2.67691484374863,6.322754189897496,7.355292301562859
9.049733962194368,4.596450422870392,7.838189469878559,2.502727170394012,2.610154443157469,5.74450476321196,5.950518183212865,-2.3872895285303546,-7.4552064931493724,-7.373413878268802,1.0778127120233838,-0.8201350487270371,5.63834133476393,8.104446001871771
8.851053156961383,3.189258486008418,5.027341363386132,1.8806133385668984,4.101851275977709,5.9465104253098415,2.65131421932679,2.4365359132076523,-1.5887385110860095,1.254250333189784,1.026670267612337,-0.2989298814579273,5.820549436431072,8.954262163834432
5.350200458433069,0.9641562520307057,0.9974039624636992,-1.7887071355412356,5.21633431453356,7.069857908078415,0.432036036167276,4.981925859277728,1.7166410596793549,6.595394020895984,1.4020156504980497,-0.871359078687536,6.650279053845561,8.923515505571398
0.6048281372582105,0.0814806112922885,-1.6322372410974104,-7.048584736530611,4.647847749874593,7.820754583051537,-1.2211152545512605,3.356757308285821,1.269637119398164,3.621174107372165,2.5947306672381503,-1.707954327993857,5.290825145628809,7.007805464691732
-2.787885406205075,0.3814361581825847,-1.5454808376725793,-10.455160686429055,2.722747176344388,6.82837594143588,-0.7619123409931159,-2.3553959589153246,-2.245920294391593,-6.632252294130295,3.530226125367795,-2.257963547059621,1.909002856173781,3.417471917901361
-3.4392067266591826,0.805225580502457,0.3498163468942046,-9.04762040797968,1.5088919321566956,4.055458659992371,-2.989142492083021,-9.436572253330128,-6.260922423495419,-16.93527792911956,4.670685281903089,-2.4592504528612467,-0.0087007534639089,0.0107613634348737
-1.8137046874479168,1.7725966951520735,1.9198417879070688,-2.7271077656651475,2.999939309389626,0.9196305688731314,-7.717278419110017,-13.880566551270896,-7.693521545384699,-18.95873253064145,6.988933511217335,-2.3885415803753896,-0.8147184484340153,-0.9269926669099812
0.4078663100501103,1.6701283234746398,1.6720674424387765,5.313388915299197,7.0222055156219705,-0.9273381256237272,-8.735378691815406,-13.003007595026276,-5.007707303164507,-9.57014982155608,6.995594850280995,-1.986251080679996,-0.6356634443770233,1.27465299062835
1.542249084913013,0.2665521133004604,-0.2183002771266631,10.56785895081957,10.986619974152104,-0.9322689024918636,-6.5743926035039895,-7.288405455469557,0.6115873534957963,6.815314388035816,6.469527528995313,-1.201465094990295,1.300881740059709,4.704446738298797
0.8153171055829604,-0.8446793071927033,-2.4868434561432684,10.196957419355565,11.894300221081856,0.1097902772734169,-4.789924002936453,0.049095741317445,6.057717207138262,21.559211892875,6.474829712578234,-0.2789581417279172,0.996994564527871,6.083503746204082
-1.4726657542352894,-2.06508552475223,-4.170528529472978,4.796640268228599,8.81186680000308,0.9289306167619812,-2.2986087129467068,5.401570107201994,8.55839263545863,27.841599649912105,3.732302821251577,0.2693078539135722,-1.5700586757641228,3.2837047422010865
-4.416465926310661,-3.9545837961566015,-5.381102386522972,-2.292044050131757,3.57310009825829,0.8155540962194983,-1.1681790716383624,7.076690331930728,7.596475943150271,24.685446225029654,2.2245416328331467,0.0541071189476838,-3.0662244041570106,-2.981310361286564
-7.179847159562264,-6.363106837763777,-6.829949193652681,-7.449129104512408,-0.8350412056072929,-0.0596133162800907,-2.0161992592389124,5.887275677745193,4.998863666923871,16.46547764657544,-0.0175884399192269,-0.841763872557566,-4.248116582078867,-9.72130711623779
-9.429697351268077,-8.5174375689067,-8.783233407160786,-9.059788996305612,-2.6280914801114643,-1.0660716703034383,0.3465043150973654,3.96243621559252,3.296027485997941,9.131836246810764,-4.981614309183259,-1.913821533940979,-5.140164574921412,-13.942124588349891
-11.296857486293002,-10.428057844122533,-10.600261376549808,-8.039507425740542,-2.2600165374024845,-1.6692721286830312,5.571192890005743,3.1177710357898825,3.833150249569488,6.342076263785021,-8.14820658483919,-2.6084890903109184,-5.241463577265973,-14.687019897500672
-12.97387127353992,-10.531944242063425,-11.286083640198347,-6.577771841382383,-1.5064034515695195,-1.6505902456610833,8.914179849735032,4.072959683164285,6.081508186785037,7.887872109092418,-10.546582997555056,-2.646415659643342,-5.932674934750855,-13.30049694282875
-14.3526174312407,-8.450218039103172,-10.433006677746732,-6.384150912348257,-1.73303511366997,-1.0350437598202853,11.116670191313638,6.676950935059855,8.396592419702213,10.691549400887844,-9.17402521320892,-2.065254821365176,-7.111892147100043,-11.996751179443372
-15.076680854321458,-7.990048487518841,-8.618399927881896,-7.761426996043091,-2.937252721046449,-0.0093921250428987,12.471465738499209,10.402159722350309,9.346003793994647,11.163227037266788,-4.355073766776943,-1.086241412325104,-6.750082585025607,-12.108604692097572
-14.970170842315111,-8.888912242054198,-6.95996878656215,-9.839934371018511,-4.12973844937091,1.085333544107006,12.083675698811144,14.501738002729596,8.573535085406345,7.458585735368757,-0.1897909970017104,-0.0223189411470396,-4.944833169700198,-13.33097508159416
-14.354976285811569,-9.247624262547433,-6.326594980764818,-11.367928435686906,-4.381137460863108,1.839477911257675,12.5418558165655,17.953237290948927,6.792992147668896,0.5953480427660018,3.087174155047985,0.7355263683887401,-4.3469890791822605,-14.216439045320264
-13.803448871208769,-9.772351771191898,-6.877342267512771,-11.340351958337653,-3.5337817023789606,2.0181186917059044,13.718359602753589,19.663859163095672,5.15774117222602,-6.087654939490955,1.82048278393292,0.8057860718132543,-4.710753706579016,-13.266088734153366
-13.47006895875681,-7.292149145226146,-8.132623114547414,-9.276504115607734,-2.1639045838917905,1.7806835010313506,13.783573080635732,19.036266247085532,4.495460351509582,-8.968907050670746,-1.8202049235258588,0.0537776047816063,-5.365887769728496,-9.848078126299852
-12.718688720063076,-1.338132044401834,-9.303408074049688,-5.357884972925225,-1.0582933328574362,1.6121313131421935,13.161904638277235,16.43529269960688,4.830690032779419,-6.60524080768516,-4.148877354045143,-1.188904813048902,-6.851891831156258,-4.586483913283043
-10.604966645318765,1.9357787393632024,-9.59298928641886,-0.5109079807887196,-0.6665771619676699,1.9441506992103823,12.906228368814444,13.058051005460692,5.445806760623453,-0.940710882312354,-5.969707203754389,-2.191112137710752,-6.247021471639735,0.8254581341332088
-6.916121234191255,3.021284253540822,-8.46643151822887,3.7992722627940543,-0.8272990325742273,2.7625826765667583,12.84746302850339,10.23774067706457,5.468045719332902,3.867474303235877,-5.21395959166822,-2.2517620027200227,-3.358765570027778,4.367288662102988
-2.759622830961218,3.4710773616832338,-5.964402101875967,6.234014168354428,-0.890502782758217,3.556171936298352,12.99545066876288,8.722092324261896,4.609308138918558,4.430826395382635,-2.779627647691352,-1.2378512369759211,-1.58563347155228,4.802901195408541
0.0451522275617661,2.0193574266179164,-2.875903453186932,6.389698295702628,-0.2182534951902033,3.688753000282048,13.569873637583267,8.444426018346888,3.4907307649668207,0.7255971620573489,-1.4959955920338346,0.2001237084329985,-0.3722232222520972,2.584258064545185
0.4233846112492112,3.373034443796195,-0.3980598163123727,5.095227350070969,1.2119146043731468,2.9103654842137017,11.485571314862804,8.83216935668997,3.230224780988588,-3.850766897315154,0.7065290967325955,1.0134265224128418,1.875996594525422,-0.1950867273125354
-0.8839599671485914,7.753184020024872,0.7439869861111124,3.842550035159517,2.6048256527026474,1.5829080153596404,6.545260880272887,9.266283177630529,4.563352763510392,-5.156251578791146,4.5778484814848905,0.5959895057699951,4.694691026395055,-1.0057523646613342
-1.6426750012744482,11.068098561838132,1.069302241628046,3.737143600997438,2.873417565790359,0.4029146892318462,1.351693069767644,9.29227516271208,7.178396065689258,-1.5924586874496596,8.484458099955436,-0.4946398134428422,9.442121779076388,1.505443014777115
0.3189400840509613,14.28586873702533,2.129806920608789,4.812463584530294,1.573170051126045,-0.1923897439829218,-4.795752532174023,8.517140664612413,9.780712749847172,4.69124337382978,14.139668629156748,-0.6075175909641826,16.466461237122097,6.711271279156923
5.522893771973165,14.42138543951957,5.183398754182089,6.239392278118752,-0.5987502664799265,-0.4583477746263498,-8.540125407295276,6.463866159205057,10.818507898061636,9.607658353671212,16.942798311395848,1.9247713628549208,18.11533962401203,12.595372023924842
12.431812257112888,10.581003148871671,9.806105394725115,7.163464475758557,-2.31404507046879,-1.2125396971653373,-9.213867230696607,2.7002609033995766,9.341019510009124,10.330241492434016,13.929850604945694,7.313392507716035,14.159614086861067,17.15242935623789
18.464243474692395,7.84639672230757,13.881678452817102,7.383657973203197,-2.746263843748551,-3.1672677387608426,-12.6897413217278,-2.721519797413788,5.4655426746502975,7.195858771354127,10.461361445692534,13.61511830078777,10.163280387169182,19.42455199615371
21.62182411243078,5.437461337523453,15.302612917472874,7.31820098073913,-2.24395979673618,-6.217139684657349,-18.281323031571976,-8.860480343178283,0.2702775542026394,2.919259376784344,4.046851793578361,17.632026881430498,4.4360857099887,19.53668381379842
21.581353217728296,4.544397424295577,13.97845686526025,7.4219704067479215,-1.8519421390683788,-9.28280073071246,-20.78835066856415,-14.007390717080424,-4.743918713738419,0.077982243714743,0.0708964183860779,17.016138785275057,2.9652766541643687,18.08571119812643
19.61654918147933,6.230293027850441,12.152381508221923,7.71537789036838,-2.1518699902322957,-10.92384253886647,-20.902048010025293,-16.51005606336456,-8.3346510847317,-0.8698909019314309,3.010414414608129,12.044422586914264,6.954592700448403,15.643489200983534
17.57070302570661,5.877704463072638,12.45581454560174,7.904382178407344,-2.623085720976168,-10.31867503587717,-17.27036035724209,-15.864265761625298,-10.029494277839053,-1.4810884016668715,4.363255486143929,5.571678649135276,8.002354281229955,12.687455329038247
16.669740757542666,3.915912104309003,15.379662537528112,7.915330729379644,-2.2027624692363017,-7.871345978895025,-8.656873065201676,-13.2147165756609,-10.209887232908812,-3.4621429864610347,7.547520057071202,1.057910823253974,7.533376876394743,9.681172027805424
16.93364096012047,2.554127652894526,18.623288343832712,8.189046815362026,-0.467191517650935,-4.951799078901338,-4.737253993654859,-10.689165573862802,-9.70924386586957,-6.767992015417795,10.341931108884278,0.179370564882868,6.9302087670231405,7.001414899031287
17.438289681158828,1.0172033691764577,19.09996307517854,9.271054317541587,1.8080341450434,-2.9405283689004333,-5.454492656458831,-9.89793116425066,-9.183631052736352,-9.313340237206384,7.196906511358139,1.9127827586654336,4.844499869088414,4.816264314967177
17.09196719606006,0.0753069090945234,15.769497804663906,10.968606771842808,3.303873417204569,-2.3015440228321675,-5.120348989323565,-10.738482229226364,-8.721101274174579,-8.618091581386448,5.918253506021897,3.733189433552466,4.784900250499098,3.1803267110610625
15.319194413253022,0.0055714167998986,10.58282470214873,11.937789208185407,3.356118612505648,-2.3890676154162405,-5.776236720539139,-11.54652593250724,-7.994077534516847,-4.152757636524277,4.522028547676885,3.791480663859471,6.797223911725888,2.264472363974831
12.235463543555074,-1.1160383794590731,6.642338536908023,10.36396480863458,2.4717927432050164,-2.099379993576968,-4.2986369060342815,-10.56233442383031,-6.798843725251045,1.5504310406043609,0.3305477215144575,2.214655958886045,5.3350464259018295,2.294570862704258
8.346379814247044,-3.148951632880378,5.405666998538896,5.433272912062649,1.6769214769113363,-0.8014026463120927,0.0691864041759346,-7.520923782683822,-5.463985474505176,4.231477045256174,-1.2409405150735633,0.5757435587969661,0.7765735103710014,3.0399664447543344
4.1363879019245005,-4.678345169161928,5.616602864824321,-1.6158984148978477,1.4244695458832903,1.2010147629513004,2.2604174440312828,-3.9984267153192112,-4.716233338149363,1.0446844568210834,-4.000491477820944,0.2075109118354987,-4.27916387216934,3.370926511754295
-0.1166988505930239,-6.005813686408295,4.825791700936602,-7.972426136801616,1.2002044045936835,2.971051644849981,2.968090043294744,-2.1901631446676157,-5.099062937437529,-6.838506373859979,-9.570099525802238,0.9172379862071094,-10.903910869813924,1.6442564223403426
-4.258355080859158,-7.1667236775457175,1.8129627996762216,-11.13565665150504,0.1794307767005696,3.6420848249853455,2.278020153102002,-3.158098021903706,-6.480124771979844,-14.549407916508097,-11.356255346873224,1.1421133645506258,-14.2404104953546,-3.027432364041717
-8.102623495397882,-7.933067589547169,-2.4656444558662463,-10.726163907501927,-1.812667440969805,2.9075068938854267,-0.7933238480694453,-6.041020366361121,-8.130269007334155,-17.01878966783497,-13.372075960203151,-0.7207636956171513,-13.652912066613505,-9.628792384646744
-11.395047073366118,-8.892850405982012,-6.080455080263094,-8.62912050109854,-4.039917691591384,1.0177367330140736,-2.353125216052362,-8.84695473052996,-9.325783015141528,-13.08888257132698,-17.163838954809933,-4.981048461294204,-15.060652072920002,-15.46942699309183
-13.903546051516187,-10.000358140600722,-8.001033695347772,-7.282096556341034,-5.508370533888101,-1.4872392592340118,-2.505659853664515,-10.047116834760422,-9.909752136474363,-6.719529287814186,-16.93277403282574,-10.336270882762932,-17.396012940931474,-17.978983729878763
-15.512907115370068,-9.497872982334869,-8.734871535491681,-7.6289794781016,-5.806790903627679,-3.945232011671736,-1.5186415085954896,-9.54059073114281,-10.2503983957924,-3.938198807929637,-18.20183115747479,-14.6857643511367,-18.78303192603163,-16.739178182747416
-16.219886389525904,-7.332983700203363,-9.338985113111445,-8.591291630543964,-5.300055309328915,-5.584485320210723,1.5685107347519471,-8.228476336553813,-10.61079488146088,-7.87480939036543,-19.353439860518183,-16.37948739305393,-20.052210760943694,-13.93919933842104
-16.045589729263412,-5.551516294934928,-10.086857095500086,-8.45107255273416,-4.5922767108738025,-5.637208108718875,2.760220882887701,-6.775272259464535,-10.566899576757692,-16.08731877098416,-15.938242169041182,-15.051296939702803,-18.26148499199968,-12.64693938371571
-14.970069978208388,-3.838602290493986,-10.230831369487412,-6.702655346742061,-3.918400051859086,-3.70525004210546,2.1131158956802074,-4.870360246292568,-9.146522641464635,-22.50014638468681,-14.697511319031303,-11.629048611247503,-13.005926337882125,-14.231294980001714
-12.982991000984068,-3.5821035432546373,-8.995045812714139,-4.557585823193325,-3.088585907905445,-0.1370879656074706,2.6083311163684506,-1.7394943181653917,-5.690399241993081,-22.238955151218057,-13.128695689855965,-7.687110363616451,-9.039317967345823,-17.15537984216103
-10.245420153313958,-5.317219804089576,-6.655308895743891,-3.727636529655842,-1.9367634536243123,3.993231718113616,3.5075024845526213,2.650675478117116,-0.6688862444457051,-15.191712494071048,-9.50775988371954,-4.608950497497048,-5.832291291932112,-18.25820012874526
-7.230722203733528,-4.5109098024307945,-4.55035571840409,-4.825248091623099,-0.6942954462587565,7.399838979700668,5.451142451616933,7.012405237007744,4.38649790465966,-5.49763399152657,-8.010963548989347,-2.9953158896106515,-2.727547802862532,-15.455283876373922
-4.660054911978824,-1.376960961511654,-3.988113184293399,-6.94192789049616,0.1418822777903869,9.218214478575314,8.923581734912892,9.526119328814428,7.8977181276250175,2.0932821510520085,-4.646176882547575,-2.5460816021808306,-0.671443099684623,-9.515201500106311
-3.1698684766660303,0.1292466249476695,-5.086689976071426,-8.592955660675539,0.2907165062831804,9.279754354571525,9.02820079395334,9.375265987390447,9.349695383023892,5.555154458508861,-0.4592698111597213,-2.416790503711012,0.9165772304286182,-3.404254052972409
-2.9007913431284447,0.7266158893173802,-6.64106051289588,-8.865610585651327,0.0011382946409774,7.91950452055794,5.68306281033833,7.59169273688477,9.51762883488908,6.067976146532814,1.3637018643051992,-1.8392976805429484,1.7654107035495423,0.1256505258019515
-3.3583358526707627,-1.7440488465340536,-7.160366212454687,-7.705482346307775,-0.1166327349069717,5.6257556530542985,2.7878953169631555,6.357739230758838,9.653198963534052,6.047078252541464,4.009240523397073,-0.6401507398577735,3.2904583740736704,0.5395540422575635
-3.741102790470718,-8.21523237033058,-6.161950819447361,-5.485437756515584,0.421358830546243,2.8701523723121234,-0.6550035925686029,7.332382809839194,10.42753695784524,7.052831963097669,6.492131127733488,0.6898629548594002,5.602240638750204,-0.5188816157747702
-3.527262455603718,-8.520656536507508,-4.570274409404908,-2.7332027493009736,1.5961146298878042,0.1343454373548578,-2.7965226501736478,10.43951107312073,11.577479178085376,9.247903829318291,7.822531641432048,1.43849255468548,6.673768279186357,-0.9908035573229697
-2.830800284374749,-2.718811200521114,-3.8558332078957225,-0.3138870135125451,2.9062927233709965,-2.1063412472733827,-2.9243297557987877,14.066812597605116,12.439935595669256,12.07170427956461,8.989192715702973,1.2821804494315128,6.744316208808035,-0.1238903193422524
-2.2090582259159337,4.640883235653967,-4.678053765122266,0.6153269115905604,3.7280957687581786,-3.583786515833048,-5.216280007317704,16.334120463231233,12.708792031993257,14.802043646301149,9.604752496484082,0.5462574955113926,5.266308622923945,1.2950531578798197
-2.0982437961227074,15.867929665050902,-6.251567244702452,-0.5233438399852108,3.72256181593127,-4.46109349352728,-9.222923068225647,16.289634569709058,12.652921407306197,16.466292445401617,9.361793943753815,-0.1174154186899425,1.7558853406169286,2.074243799012617
-2.3914835875329192,19.565680033130644,-6.995057986122308,-2.653107523718374,3.01036385342983,-5.27866149914869,-10.724903929482933,14.217120629796892,12.688693797427469,15.80570200863452,7.37543638257954,-0.3302541009223567,0.1467638645322178,1.8031406415209084
-2.5190807031810394,14.598371998288906,-5.8468388686192,-3.1938900313508025,2.0263641654726428,-6.524084109591437,-10.171686410435948,11.146500959823028,12.847298399837484,12.046694501884405,5.160237228039504,-0.2832408193547273,0.4251688993182454,1.0145957886482435
-1.914383837479873,11.047968309321393,-3.05742880514428,0.0426730323863004,1.1908274698543249,-8.102473855517214,-8.741261600904595,8.173718749252522,12.684304343227709,6.0523279543165245,2.154368179421764,-0.452026658417294,0.0850297034519185,0.4349866773905102
-0.4418069794273176,6.211251995243223,0.1628495586099134,6.638064599574985,0.6530932776863221,-9.179359033507009,-5.606028663325118,5.994761367612973,11.651825840693744,0.5222371002410764,-3.4188286844101925,-1.0568700921639795,-0.0573875106124037,0.2712438977584632
1.5269926742761228,5.513214802373352,2.655288165749297,13.266020521802751,0.2911253827709359,-8.668400621034284,-3.570176691081091,4.66608780079472,9.516301008686526,-1.5047074048530007,-5.080947416050974,-1.8607959192853407,-0.3513381550109153,0.2255822075220059
3.3706663941018107,10.748644492552076,3.981553577597829,16.02904663635455,-0.0642353728903906,-6.114607807069262,-2.80171621291732,3.555449785694403,6.460400221451911,1.054587227423145,-4.07502827389801,-2.5184171362945804,-1.0714046098581944,0.0468162152903097
4.583264351664671,13.25787196991972,4.277403022028018,13.605378870303328,-0.4003381288089152,-2.2832094316793814,-0.1886695055644116,1.6459671697570872,2.889899910006257,6.178875547048424,-4.526294236377463,-3.0480113442068664,-1.117372721237017,-0.0885396118327612
5.035256884941958,14.57181048047662,3.728802076635629,8.387744269876492,-0.5052781885801512,1.1555131101445983,3.74429643408684,-1.7232810096440918,-0.7742302468490347,9.965939262220388,-0.5657016241814655,-3.814358886781591,-0.5930992446824943,0.2346855543504009
5.01319669671353,15.058289208609567,2.3890183011771846,4.51178142239001,-0.1779067558934102,2.768163353587332,6.077757101009071,-6.074301766538087,-4.122465926564981,9.475495103719089,1.5439058792588338,-4.940246195049605,-0.7749392721647577,1.1808073514251447
5.002267725591624,13.279784055002636,0.4891455448473802,4.51159359213108,0.5261760498632579,2.466529585398449,7.077890841339057,-9.704822248172617,-6.672866654776486,4.946444648817,0.3639688553425264,-5.772035811059967,-1.5572645726394327,2.431152074945839
5.304532378435891,12.186924147215558,-1.2820335701646997,7.538627215877595,1.2480887850663809,1.6022360824708244,7.823847492915912,-10.678490321402196,-7.896745599933366,-0.4736958341679411,3.445393839278775,-5.11195209760087,-2.751065782834505,3.4406875398129806
5.761018786618823,11.43723957409626,-2.0390887247429106,10.522038302738672,1.5607245656252076,1.8715072361530805,7.734795181515581,-8.333355082983415,-7.477668698871088,-3.3111495258411825,4.423465711581548,-2.205992340796413,-4.639740155280063,3.8972747662610665
5.867836185516133,10.186781305652875,-1.359851836141457,10.936871679041763,1.3384657996063432,3.923947343920517,8.015586478873244,-4.095416183537928,-5.67362614676332,-2.514561241541076,3.9149501998136778,2.372946353708423,-5.419372737457566,3.942117651262407
5.2722188896824616,8.915578451895996,0.3125521560069018,8.610805167503557,0.9625026946456714,6.8741200519375685,8.774170914437184,-0.7512632909256176,-3.465218776650172,-0.0675517981622206,5.777416746944546,6.8676345476508445,-5.007994145584269,3.997167233408305
4.211896099316757,8.175067896129194,1.977346280117448,5.236173681001098,1.1128082742217895,9.102607461487096,8.51349116244077,-0.5635271583666608,-2.233126757424252,0.976481516984725,5.022173903906984,9.540645574250236,-3.8815228792225698,4.413557867847752
3.4008777606826968,8.043106234674879,2.8443754386216757,2.506551944248624,2.186395243793953,9.561357242815248,7.452546559838251,-3.669693688051616,-3.0346176551926654,-0.7773993770844569,3.757045191160892,9.946005623370016,-1.5488095354382847,5.235621587210584
3.364661284222077,6.042064543004699,2.8610373442085493,0.8249312717357036,3.76734423205027,8.422267181564575,6.819648547971151,-8.086462375021917,-5.920437698747612,-4.007383813699542,4.624192977321407,9.131645527820268,1.564230819475574,6.186229490917555
3.848501653691887,2.138210241175474,2.5407024550206323,-0.4315076589110518,4.707572414150636,6.646689653419262,6.450820232398951,-11.332454387936515,-9.816868872697608,-6.12287664298611,4.323735183647447,8.578807015000283,5.5640402253050905,6.808346871375768
3.960621713534952,-3.908320977814865,2.309045327042824,-1.784009727124836,3.9754280163572098,5.089415809451381,5.380502981687582,-12.285263725728033,-13.123340151659868,-5.730607398009209,3.678237489963293,8.853083014209236,10.156934268404656,6.690039073746075
3.0140638841058447,-12.833434344028596,2.0287827264750184,-3.0042009765499778,1.682916606445097,4.035846014412659,3.7706935260121672,-11.694329958316676,-14.615574549412976,-3.767826144288144,4.169615208147727,9.209295324841843,15.276414447294869,5.736784459603328
1.2683403391117327,-17.504794642241073,1.170175845320891,-3.482038776123664,-0.6947946045161171,3.4291048901094285,1.8216496251322545,-11.030147905051855,-14.00124235109622,-2.342234597529746,3.9171834744771914,8.47936257282618,16.343400701946486,4.374560570627754
-0.2190411557257299,-17.676861145212097,-0.5404662544074945,-2.9907255683466936,-1.3573611149450606,3.2762967597995107,-0.6322332962649904,-10.920853205508028,-11.811231262663377,-2.57403204998462,3.775567157010325,6.343166793189255,12.77108395057409,3.4541845854366
-0.5693933327346858,-16.398760730529094,-2.639598510431476,-1.9599902337247703,0.2463786618170917,3.656995993947497,-2.5774863918206505,-10.765348679746449,-8.904054939894012,-3.641764703363132,4.551735719341304,3.725239756544205,9.851306363222308,3.739141770379684
0.0365510549067238,-11.875857024335536,-4.121295436097764,-1.071438378773227,2.7323165651645027,4.365879235037312,-3.940570241793106,-9.833624593827722,-6.100659529248258,-3.924229374965311,4.778653910958835,1.929032989131121,6.505519549582012,5.236664722355721
0.4687911741204402,-9.336594496163816,-4.179269504107202,-0.721516411610807,3.785441433790712,4.739322654453716,-5.219914813096699,-8.540075701277521,-4.1333457059453735,-2.9428685689467624,4.336230625261968,1.373130019286684,4.9785172987620205,6.936304021190297
-0.2898802413772046,-9.140307481280958,-2.821077618292517,-0.8797382543749173,2.1187530278501114,4.045689732057944,-6.1479834896888566,-8.329377557534553,-3.611930377546916,-1.9690993829833603,3.35930609032252,1.20708102114353,6.344842228324737,7.349313243616461
-2.094312044546609,-8.911852530273716,-0.7778355692311223,-1.3071118203216852,-1.3425197697104103,2.15350225455931,-7.613101182031237,-10.099083278319238,-4.694043058824571,-2.5506413131604724,1.7633137305410649,0.2240973533680836,3.609884228307956,5.602731373818111
-3.5840240280683044,-9.996949036213712,1.184980779421517,-1.7492699462934826,-4.17546814967579,-0.2158408681151247,-9.690663674766398,-12.784564381591554,-6.644398443973724,-4.466762126343671,-0.2413746760235526,-1.8166833532044928,-2.75289538006238,2.2675787671946352
-3.2188627456962937,-9.342390553967103,2.8545364271657814,-1.9317908577116576,-4.476394047862385,-2.0094929390752085,-9.910595948504538,-13.786818956904137,-7.8738752760107165,-5.416805473314312,-0.8545419870997217,-3.8108762821889695,-4.706191461020059,-0.8279679996671163
-0.5438233323857578,-6.751156624485326,4.478192598113653,-1.561888911478256,-2.3891257747631407,-2.7159042005658804,-8.298727788816933,-11.132131315158349,-6.778786409055432,-3.11846862710796,0.4221003198105147,-4.334605308994782,-3.06688753977044,-1.7879397226712097
3.3458334565644776,-1.8550987427683203,6.156898731993525,-0.5345193998934423,0.1705518059106907,-2.7379500227376408,-6.238616611089589,-5.398047630615885,-2.9124094311210893,2.0760122253228186,2.160300866372279,-3.1193802811355718,1.7101373663184072,0.0138754856179641
6.484412088716546,6.291284463709261,7.462336467715332,0.8230185664443805,1.2441817600858194,-2.858007562369416,-3.197436227772344,0.5185926084532291,2.4769320103548296,6.823577165605055,4.96458451662702,-1.4781024511086844,11.390301940829673,3.478383292311785
7.322890722750891,8.17536963519617,7.764365878076228,1.820688144671191,0.4138233637080084,-3.319810541988113,-2.168729964640801,3.720262837827768,7.116961258028246,7.517736228870655,5.784753907598847,-1.1337876666319282,13.636424744006208,6.555077175048906
5.692360672573105,3.4696742199250337,6.923221149306853,1.832273003811704,-1.07221349601787,-3.5238716902712923,-3.5463411127020192,3.6444420685980994,9.172753480868789,3.801320176346703,3.812224405637223,-2.505323567987528,8.02022046799583,7.6125329150239
2.799100930795713,-3.0516477801390365,5.513817851627404,0.6642238018502109,-1.5303998841539914,-2.750813749258852,-3.0894711195107942,2.3227478177258885,8.389043136146102,-0.607749254037456,1.7374040545511455,-4.168889005793282,3.009157189328484,6.339069449452568
0.2783553717098854,-13.71099705760347,4.213796478127894,-1.538722936246958,-0.2069454064355831,-1.1928984139844658,-1.4021137546287032,2.425265860668452,6.068720930429773,-1.0071840068363107,-2.0460191880815346,-4.177200761821384,-4.151735897502718,3.581182084169214
-1.0429467293566326,-16.663055942434912,2.954975896448309,-4.684838304916033,2.318482103434931,-0.1046028444345337,-0.1678804088567547,4.967777454301801,4.010310487792889,3.8375454393535486,-3.446447569464734,-2.075380063433231,-5.849671767261021,0.4632159360805241
-1.7800251650646697,-10.687899985183368,0.8367206243374645,-8.788856108790181,4.747315827920286,-0.7097342811112526,1.2678803539851582,8.725193827073806,3.330846919170898,10.091305247776504,-2.2987916837019724,0.3886094574021381,-0.5148884194141835,-2.3395544655708225
-3.452708711422982,-6.746997975911377,-2.896506592761776,-13.369516581788272,5.927891807200792,-2.8804826036383098,0.9819560794216042,11.677667173630772,4.0639940446119445,11.96401381041911,-1.9956200858367728,0.7519559950243764,2.144911917980907,-4.629006544195809
-7.031155817885411,-2.054297219473684,-7.655728672586741,-16.79610838718827,5.300097984212698,-5.028778344534947,-1.3506762045661524,12.94732376562244,5.652609425192292,7.025221912800058,0.7474568056319204,-1.7055591584641905,4.036238262387707,-6.255131730315202
-11.662367882290836,0.7622595812703399,-11.332673857021533,-16.662759827026182,2.9021488839400504,-5.514121317392139,-1.8564941736527372,13.408078004374788,7.680659206210182,-1.0973898680133605,1.8531053750095707,-4.861562932697794,4.769377443917741,-6.885771774153163
-14.789081759418488,-4.027700797979746e-06,-11.568189922317478,-11.488417704056126,-0.7034888004846795,-4.264224378923474,-0.8319616054633097,14.569529415069807,10.087758431128233,-5.343766929581763,2.474834986225836,-5.249058610428135,2.7384738068210988,-6.278907831001121
-13.89556651286646,3.3770909141490035,-7.552783038409004,-2.5266912455008352,-4.473645584692083,-2.949724012285234,0.1859875721380158,16.97520820600596,12.726220079315016,-1.1516661306449247,5.823182449318248,-1.0302905537838605,2.794628026864136,-4.700465366977372
-8.659028320091881,10.10729754675562,-0.8748888227121618,6.187552188189981,-7.158142900551606,-3.434627475577248,1.9425553075254636,19.668844326448347,14.85398044752982,9.38505971657939,6.86919824465857,6.1264572520424885,4.499591970628153,-2.924283417815396
-1.6558883053742832,12.615602092057827,5.338258823245869,10.199943571362972,-7.944514577471802,-5.960739351368478,2.75737036427623,21.116324892436715,15.28579016049951,18.794308398753024,7.387331038884812,11.99430198682414,4.056419068374676,-1.727788572402508
3.217470619754525,11.762317707273327,8.357650506128781,7.792732033722718,-7.063973605560983,-8.81328120842016,2.4373736926079776,20.569481247655787,13.278312181766497,19.98629326155867,5.167344737520454,12.878440412765936,2.1123429774524283,-1.3783603084201346
3.498438701713381,8.323267518332244,7.414608248052636,1.2461688144751992,-5.711526812945063,-9.76364060792785,2.563862316569824,18.56529000541352,9.394672191279929,11.772910971752038,-1.2521314450515493,8.351482159463067,0.5255419395677559,-1.6172581444272571
-0.1516051714863469,0.7062308499135127,3.8218675590299593,-5.041843248186134,-5.163497316536767,-7.905434440189156,2.7520331478230013,16.231860701298665,5.424652872706659,-0.3118634086371905,-6.748605838331397,1.4763592456218118,-1.229677226449518,-2.087810483290972
-4.705209394679132,-3.2662640814023662,-0.2225638368661959,-8.002619519608544,-5.813676788228218,-4.255806679422463,3.336717470975904,14.243433617619916,3.20488345445325,-8.422400824982283,-10.332371209148569,-3.533636597045077,-2.055908829914533,-2.681219510121073
-7.228561259950131,-3.439753243386669,-3.0786051950580675,-7.85931113579454,-7.02073696829515,-0.782004302654971,4.567959459500679,12.472690895943018,3.235625365983575,-8.380746432938082,-10.261284553644815,-4.265529112792638,-1.5885861297359436,-3.427875735346701
-6.88404444384398,-3.6833717997634734,-4.30937373206168,-6.992902649641922,-7.865628674937917,1.0867655746899612,6.019677004322442,10.532625288063338,4.29722138190491,-2.4934553915381645,-7.391493267484588,-1.441384598185158,-3.5496126825039864,-4.14020894683043
-4.933033011779123,-2.1844610474868404,-4.321837230119188,-7.100799416698356,-7.971272168718939,1.202866026569024,7.866919307384357,8.456021636514473,4.461728972098036,2.799981514047931,-4.637666400604995,2.110542562213505,-7.830266383833864,-4.326443104492254
-3.136880345991358,-1.7245600982565166,-3.6278868487115936,-7.584197305030722,-7.526630635558187,0.3752272707035837,9.27136759322351,6.709882458232765,2.6710605700100905,2.303814810943408,-3.353211916515733,3.745004445574788,-9.24979455107074,-3.582304360310027
-2.270306256250289,-2.635255879199687,-2.467962015808718,-6.641328248617016,-6.624389962187235,-0.40195619924281,10.138454504435408,5.557439965707066,-0.4513155090647789,-3.9144493489579135,-3.6511727500755145,2.71086733998086,-8.241026942439992,-2.0884132682898944
-1.971997605313538,-3.94259823905876,-0.9638245104978908,-3.640971870597962,-4.858299010412889,-0.4500159964492614,10.787795918425449,4.537449457210833,-3.207141305082571,-10.938664840639529,-4.13553046427165,0.2073171029899398,-5.8725833533973,-0.6506774040555241
-1.5974354913224484,-6.432946133483298,0.6380134827266453,-0.0643085604079329,-1.8136318028581255,0.5260126359813171,10.97106197910458,2.7203218295222253,-4.272261853579055,-13.272867900963258,-4.516450758761733,-1.8844267018047471,-1.0418933748225414,-0.1402797256761045
-0.8525450729670894,-6.346023306912738,2.0737487882465158,2.052851763420037,2.0612381926265897,2.5174655359106666,11.484185928851687,-0.4255314327142683,-3.743338172293555,-9.342678784024908,-3.67568591138576,-2.39617338190625,-0.3239048991519433,-0.7861770110423727
0.4146739042914706,-3.4850960862303504,3.4191386594193727,2.467614832441006,5.34198789542366,5.222465652104727,12.352841049744686,-4.383023333042961,-2.9560501913197363,-2.5618561978135057,-2.2993250378011605,-1.4101836818906577,-4.086464479975436,-1.9478880466653423
2.674809022450118,0.5250582435001847,5.167870971261007,3.2215200057617945,6.693373345999872,8.068484807415501,12.83434491619459,-7.804069489892148,-3.309569263270322,1.7745356581975962,-1.4420257956474256,0.1651555279317502,-6.796550368999301,-2.5847144038701995
6.493045796378016,6.648872868119384,7.738901481996349,6.539437767158036,6.171853891674092,10.396722158809585,13.07891791433826,-9.455892557977988,-5.114171099572758,1.0146310701307737,0.3279734924193687,1.3797365653771827,-9.889537986588952,-2.042327949433009
11.596243853142026,8.737003172189635,10.80281529894122,12.166603660057024,5.365647131309162,11.733138007246612,11.05574154416809,-9.130547675653755,-7.382914231701816,-2.841144255344414,0.6967751002387244,1.7431437673465258,-10.34224801563932,-0.5323563394134077
16.283980362748153,6.259453226998786,13.165293857832513,16.922519634942947,6.030048242691093,11.900580795594806,6.4341399750903765,-7.825677665112972,-8.678753479124723,-5.379820632004462,-0.6992563345578681,1.2512452329396169,-7.125747728794389,1.032548251071809
18.161635146040943,4.3211367463819865,13.48709210155254,17.16875844636607,8.419403070326776,10.874123669120475,2.078892951004629,-7.100599180870958,-8.282314109590258,-4.208714153402932,-1.527381124227441,0.1665115445432103,-5.367742705477826,1.6639562241045027
15.903190055443623,1.4632609762012254,11.276247575141776,12.02878482230741,10.932062962366604,8.601540155774293,-2.466931397930825,-8.07207627824779,-6.717051974256439,-1.435804355705912,-3.976185326153194,-1.1565360526752286,-4.226514865194165,0.9024159506559002
10.571497626645636,0.5188908169927171,7.267343117867764,4.388390129183421,11.481711573853524,5.09680117943728,-5.490354037962013,-10.672134038348556,-5.221660090968371,-1.697672148301077,-5.457652968387807,-2.315794447204013,-3.855966895380822,-0.9606616250898696
5.198039110079199,2.356390574212628,2.875924812794267,-1.2717021357823164,9.363838167638594,0.7964373521379482,-6.2866247205895815,-13.593829655011213,-4.648944074708648,-7.36942475075173,-4.007094860763142,-2.8852930531902263,-5.1840783324164565,-3.0716388348909263
2.765256107597306,3.412392967123102,-0.7125612431855917,-2.270539308722721,5.911484784773698,-3.2444677618642217,-9.046019272842672,-15.002339968721682,-4.755936362381632,-15.482404432303989,-3.3509666275549512,-2.546080286849138,-5.738086879946513,-4.430705474945347
4.1110385226462896,4.543609221517491,-3.0245034864142006,0.5832336399882898,3.357747530232388,-5.740810152807402,-13.338031690928794,-13.694261863700952,-4.506673857108932,-19.61107601292607,-1.7133858690495016,-1.32341254602027,-5.797211596766587,-4.363379717763912
7.3491240031133085,4.838145796972728,-4.1397439600766255,4.204561003098062,2.937684290112028,-6.033380864121273,-14.64520304969811,-10.03668970782736,-3.1138419720264814,-15.41905038983014,0.092185817245491,0.2257197912507642,-5.32857558933749,-2.9205889364309385
9.190111765575356,3.730332156740396,-4.354862214879921,5.892702340070569,3.877351616859439,-4.700075016656733,-13.400953171919742,-5.964476282996863,-0.8751593823045205,-4.879636203427765,-0.1490626686143438,1.1079626876463422,-3.8365377618958103,-1.0067183472773316
7.163968072665911,1.6951131521680796,-4.110327217862565,4.992881506660609,4.070956574708463,-3.241391857370313,-11.435011587892683,-3.806332374917048,0.969459991074185,4.924270482805783,0.5520563041734073,0.3996636412992451,-2.2205198718510446,0.0135038662568156
1.2484860233009556,-1.7578370338384974,-4.039008806754881,2.5166887973974443,1.808811226785128,-2.9429152016817923,-7.8948945525726115,-4.605050303509664,1.278833854033973,7.631208934133655,1.3941421062271997,-2.031736078493669,-0.2940346705057623,-0.7818888055145088
-6.037800992082696,-2.8410494930249084,-4.687711309504742,-0.2225178631072708,-2.849325696283133,-3.862057290625577,-6.583611283234632,-7.197572689556223,0.0683886454644646,2.925532007669112,1.81825145696488,-5.127279716999759,1.0921289305089237,-2.9910813432245646
-11.035368810634994,-1.337010452933876,-5.915493621398534,-2.336059524396868,-8.03414537260624,-4.890787448747066,-7.940018858498737,-8.94477892745295,-1.347486641079552,-3.4055548464193173,3.427063498552257,-7.069368423063432,1.7270577667350413,-4.831437914461338
-11.01672258430598,1.0071032563352524,-6.635980846449806,-3.110835732376744,-11.257433168080984,-4.878957831705593,-5.588916054813101,-7.73520164209968,-1.3296508874661723,-4.653319148203302,4.661406367344212,-6.475912941069442,2.6780216619277115,-4.241586286581805
-5.801707171481835,5.176229123955733,-5.500270654333727,-1.8193310096480355,-10.919782552977194,-3.761344978124544,-0.1528137362521831,-3.7317850998348954,0.7190334323066025,1.0938132729126178,5.696160237567816,-3.5191698464331207,3.7043173832818974,-0.4798251419547625
2.0283217174566293,6.495103021168744,-2.1734445846346557,1.618849436638051,-7.185649055119676,-2.5949413393850183,2.378378576511104,0.6200883111038529,3.701603340936032,9.633062349398308,7.013660120904061,0.0410017897486909,3.977363665234249,5.073397436923999
8.560586465437336,4.56374659066125,1.972459410739484,5.794218156961323,-1.8145814552138864,-2.47699384884824,2.8026295817003684,2.4353918998181125,5.504817361863013,14.512631638097249,6.81112966741582,2.1228339537998924,3.5645108545026507,9.725139748604034
10.848025848085465,3.0065855755644875,4.605434824473555,8.170503603868807,2.838375576494025,-3.42689663349514,0.5630115841427674,0.6253913702981535,4.57949703484292,12.379519637222025,6.297268438438607,1.9149977242111795,2.1242367657626406,11.375865246574932
8.579079296542277,0.7013615390756042,4.153945176368222,6.902992822929328,5.068128510168775,-4.331004678240747,-5.652908400089374,-3.308593840334334,1.1968376906558156,5.2955392891720265,6.0184746766663775,0.3977441816090294,-0.583884362384262,9.989935734234756
3.9316761659934194,0.4705151918990609,1.0177715095833726,2.5634948073206143,4.655105407140032,-3.966214477878726,-7.402373023584864,-6.552982558723448,-2.688507564345157,-1.4154685300039969,3.990031625321261,-0.7054417182610049,-1.3965374647738047,7.389124251372969
-0.2484727311925052,2.963609272107768,-2.8218223876452706,-2.0572396400302715,2.8394476077178465,-2.0655445876285743,-4.684523242144232,-7.209578990589793,-4.928380916419532,-3.4606102802449925,1.8224726192879677,-0.5811761557979054,-0.2180198204394766,5.55359251153892
-2.4730309422389327,5.290104267876554,-5.414592927596024,-4.1257161203331805,1.420145512417286,0.555285644974977,-2.871504095231835,-5.59083417329191,-4.803768852933302,-0.4715779725162168,-0.2074169204650428,-0.0205257156386,1.470434063319117,4.92110225042624
-3.25940971264178,8.263674842536924,-6.203493432442662,-2.9612190559814597,1.5048451665285096,2.778063677045603,-0.2059793499281113,-3.5936613644405107,-3.402127476666145,4.275746623613709,-4.4208207887691,-0.5037999629766903,4.447935977018407,4.16944185277438
-4.101812446774763,9.245195821709324,-6.018100857224505,-0.2381613780172662,2.738958632113656,3.993614622447015,-0.5189599184105778,-2.880364593929005,-2.474161490428129,6.4684701606169765,-6.763053792891097,-2.6015967861218554,5.02646772957946,1.6313669983528758
-5.92771079293053,7.645486686534716,-5.960886597177288,1.836375803370295,3.5944921787484025,4.243926519279618,-4.710622633295354,-3.572234549596752,-2.88340298640988,3.5719055877437,-6.730636941103878,-5.287303676906594,2.8593365867572014,-2.9753368856395594
-8.453467350788408,5.825576698180455,-6.419520601440389,2.473697908263567,2.5691879230391645,3.8401287794515033,-7.235262168027329,-4.549725262998182,-4.083388248824823,-3.7704247952079184,-8.013436616325988,-6.845197476432085,0.4398320299993113,-8.080589988809248
-10.747623046986268,2.988994171625769,-7.072741792286835,2.5685960368982155,-0.5602081413308015,3.0878261026167992,-9.03011426589858,-4.868349168775653,-4.985772181030249,-12.175710433897857,-7.223734551246594,-6.473117715992379,-3.1726564440149234,-11.45233237259967
-12.102027271856215,1.8770544255985293,-7.577159670739148,3.2994730096208684,-4.395519992713152,2.377762357938212,-9.282362541363606,-4.768652265197242,-5.191964781104574,-17.35374281754291,-6.254168448565697,-4.9986995293639325,-4.292490596645031,-11.913184271405107
-12.255860743905927,2.953393282370365,-7.962010216414725,4.677242191278991,-6.813726889749365,2.2517297137665317,-6.927411237927541,-5.252612592458631,-5.278354691856382,-16.464535499842647,-7.760380583112306,-4.020891242765209,-2.392756572659591,-10.024572690911883
-11.019030343336938,3.652396439583689,-8.28861679154372,5.469630603674213,-6.497137838121587,3.029905613103486,-5.64980634707345,-6.712854183887422,-5.907295959512069,-9.873157398405088,-7.594000213991011,-4.350408660496237,-0.7638979366334531,-7.249496727067754
-8.127168966031277,4.707354793476727,-8.148213528092885,4.393144488051795,-3.959815355411873,4.25880443335768,-5.036556164985242,-8.119896707660907,-6.818541921838749,-1.186659654106383,-7.178282863478635,-5.304902609621033,1.5473325153473432,-4.603148699957501
-3.7838267593201858,5.155082603476786,-6.841151333429417,1.2774602718640224,-1.2321340940444392,4.742210928041241,-3.650257670585781,-7.751153415085668,-6.877966986813828,4.782749722250866,-7.612109357822341,-5.540940795095322,2.425918684956963,-2.198404899303909
0.7227844793504528,4.615726139495209,-4.23983971197992,-2.841541776169353,-0.3386554945475022,3.481798406882983,-2.09282518338321,-4.860824488419608,-5.210375721483366,5.063183212883816,-6.520927858480993,-4.54831539364586,1.2983211005753157,0.0201119676520082
3.356239227368981,4.623798233483623,-1.3587013637091232,-6.542566003575597,-1.6756937889342265,0.8052773476583925,-0.2990367207337245,-0.6288195621071875,-2.242999111676009,0.4979456378251505,-4.993465646551615,-3.2366920560012917,1.0428099182013666,1.4705581913566603
2.768218880325233,4.883936541692429,0.2472651803632448,-8.794511536050376,-3.598138158549014,-1.523505293534602,1.8170571573237229,2.692687733466748,0.4966150346092286,-4.889204754728617,-3.955433646856673,-2.9300344400400444,1.078630774704929,1.2827612409971891
-0.3396654687656979,4.612208188044177,-0.0888282396212645,-9.0634079224066,-3.677090805583016,-1.6189390960166552,3.500970584184033,3.785531259706613,1.7470631573284456,-6.721661242583613,-2.140300832707166,-3.722993849988372,1.2269296487938623,-0.3878785958147048
-3.375857503079758,3.972785740461692,-1.2908513651942082,-7.065390574096041,-0.7334837981848743,0.8077542439428038,4.714685013351177,3.5640444038212475,1.7470315794778304,-3.134525853786302,0.956844352834708,-3.932854126402241,1.9197230362898936,-1.6661504117282409
-3.732035573168216,3.1792245425366072,-1.2998271040082434,-2.878544246211506,4.01770670043028,3.950120164960589,7.584860195965743,4.452184928524012,2.08052252134022,4.3821388727856725,4.053918730437107,-1.4381501747790493,2.356541871277744,-0.1337535590630603
-0.9019497768001444,2.1134747541402144,1.0714236979461251,2.486625805257765,7.776784703008229,5.269654015703608,12.100855909375923,8.169535280241444,4.176023984620244,12.401218695193592,7.628290721303424,4.163931620374311,2.6244605175470244,4.828362863722991
3.021947013720239,0.1691216984332957,4.897682036301399,6.853379801364159,8.356746415374309,3.619497765267231,13.12017348113803,13.978065878507005,7.815538254246418,17.735780844159503,10.59649791704841,10.63442252657041,2.5892856397003974,10.80129650633354
4.98216694150058,-2.716076997306155,7.740029581653882,7.796234067730186,5.9170470956991545,0.2070687956457568,10.702699318486069,18.98359531029396,11.06329851713101,18.78262142739253,10.075782661860709,14.485572119705935,2.0820186638872618,13.77334279002292
3.3352274622808302,-6.415043324059504,7.57393311738641,4.386095845313755,2.69020851122718,-2.535745228268569,7.1363752456633485,20.275906271599577,11.734097559502809,15.702996447286251,8.056855051763447,13.63418068956124,1.1259124272970606,11.333045814181457
-1.0507638475610932,-11.125868227069596,4.291709847182117,-1.7429893802162135,0.9210330519538212,-3.163698480966712,1.246686622929866,17.098618479376526,9.117220949907718,10.082658178606874,5.82067895716943,8.987252682436713,-0.4066924765625923,4.801929085729679
-5.7871402076774885,-13.536412056304467,-0.4756578559287714,-7.302442995494024,0.8937100002392988,-2.447713057293644,-0.9161480557431944,11.290061584049264,4.480906276539303,4.447224050613565,3.3542051153889405,3.537681167559242,-1.058881432700666,-1.7214917015894908
-8.955419369819065,-13.385917008916667,-4.799255946116094,-9.80382933199154,0.8729712726572636,-2.463154128691249,1.2458258965756903,5.794646081825466,0.0477158706149474,1.323699818261435,1.360288987241871,-0.150954769840272,-0.7547464795968233,-4.623211417683351
-10.246611453913246,-13.384378332751078,-7.644204940647734,-9.484083037970125,-1.0007103438169889,-4.418332700776432,1.3922587187440785,2.6282520744945863,-2.528896869135384,1.7724158429977397,-0.1129351423567553,-1.7168856625993882,-0.4009942009611537,-3.4417724990499785
-10.422361798851837,-12.741298308864772,-8.844827526825034,-8.854468353005569,-4.677581084526593,-7.33180841926506,0.8560450350164336,1.913883496391815,-2.9219508894526367,4.3711176056242245,-2.520442820863652,-2.493477278733089,0.3554747828130568,-0.6862208955611173
-9.975100609365956,-12.253693202035569,-8.345390733169797,-10.158624338864108,-7.982509846336986,-8.859857492307949,0.8610441665842032,2.461902721418328,-1.7994370957465886,5.959354726039917,-4.924927372476301,-3.4778906102725013,1.050263367642525,0.7395240035829413
-8.526844952892697,-12.301550990869591,-5.8954505169331615,-13.061423084425094,-8.44476438292893,-7.491080772065394,0.5409686168181684,3.0505312047481485,-0.0868390918219592,4.083245459173819,-2.707291553517614,-3.989844249371625,1.5859017905355124,-0.0439366644779539
-5.550391800739302,-10.48819336067316,-1.6398310963966614,-14.77577086842754,-5.479307308009327,-3.997094664891885,2.1715769243854925,3.228775015393487,1.4283627780357993,-0.8104998999408153,0.4159374303289218,-2.4081851478431906,2.367272414456262,-1.7086129373619707
-1.5088335792987824,-6.971034066909636,3.212104889415401,-12.585117603361857,-0.9446923578812364,-0.7638654919819841,5.897937939460745,3.199489532554203,2.116450169224837,-5.585855772644704,3.225531467594399,1.8363094881974973,3.2663300425375352,-2.5115187702820343
1.9529170448343,-4.963958197366235,6.718417516064904,-6.480768833578832,2.3372903229948303,0.3064666786522423,6.874652379188722,3.2462127736614166,1.6017250827158236,-7.089849304218173,7.472964383460734,7.1411472497675135,3.6460028947632495,-2.016292065059453
3.1449659507077463,-4.2322009152808855,7.550973616447806,0.4809300260769156,2.693603130161115,-0.6997031438584997,5.28475041304323,3.3884258392373887,0.0862297145939372,-4.923710781425735,6.112576372227935,10.72187943768577,3.4768690382077905,-1.111574477055585
1.8125732490477933,-5.29368045741317,6.156689729963523,4.445695176168767,0.5591837006818379,-2.129248095551418,4.112526612200449,3.4828071934511424,-1.516214109140094,-1.751606587587716,2.7987763524783853,10.832935885702348,4.013083671645456,-0.6225173645708217
-0.406665798595005,-8.97730528496208,4.542543174009937,3.723420835349824,-2.257125710066023,-2.500934895684451,2.4159448688583027,3.4780668479841115,-2.040035375425342,-0.8928816417910372,2.4603179189979545,8.163878268147805,5.182219835962448,-0.1888023671703527
-1.0193185127080104,-10.717794848261454,4.757018991129021,0.0122395690424808,-4.0607354720006175,-1.760632011420629,2.13641610607041,3.486831624152149,-0.8734485008615511,-3.4352891898820967,0.7608478077364738,5.201707966602918,5.695247651555377,1.3760243520260411
1.5717085456112443,-10.652590665955715,7.356683658954839,-3.021898252471952,-4.237865729655936,-0.944517415956402,3.78271503602836,3.6482220943166697,1.6170114409581655,-7.369376541316889,2.619487511152168,4.248200985400941,5.728910275573147,4.651257075364022
6.881710020682639,-7.063797261453281,11.111762653174504,-2.596408487183074,-3.2547749133364805,-0.8524037146699754,4.460980114995045,3.985951785898992,4.4419634280351765,-9.248641213021791,7.679711906628694,5.845577971661336,4.617160929918418,8.584199085625253
12.502310908299798,1.390529647602796,14.041362625881703,1.1149841190947765,-2.1192747963213296,-1.2238532556905692,4.665201969473244,4.404492418262414,6.74320326636974,-6.762001910391418,9.711347532226135,8.742370694076804,2.027036861998383,10.913851740186852
15.44637466114358,4.096865155051362,14.784409179606186,5.15745408713316,-1.816244580559653,-1.167198947686515,4.917560546623528,4.781710491424025,8.227594146145625,-0.2468544695481838,11.819859266103302,11.06825873714366,1.1703048107387877,9.718868810194584
13.853650051263028,1.204050269679782,13.263593096140388,5.967216652689118,-2.800817029100497,-0.180797245416401,4.764537937839623,5.050854236792869,9.005334454188063,7.583392080289151,12.043164688157113,11.548687838095264,2.008804327523948,4.830281944459248
8.105823960842653,-6.659690968271504,10.401069495315902,1.9201820046860307,-4.533515925012472,1.401575573761905,4.774404353978866,5.221533771211657,9.203020666000922,13.109129251915697,9.10975783770523,9.946529568050842,2.944098846591151,-1.9223774361311872
0.7347664630410984,-22.2626686174811,7.38455011459982,-5.4722334595669855,-5.428863377167189,2.899449305797649,4.91631450825403,5.3343100682586,8.826362513347902,13.5476501338255,7.886802323160735,6.812873483518882,4.676235187968732,-7.693531977984959
-4.86936306777008,-24.14087756545132,5.075612318013803,-12.390885128755947,-3.7147744556653777,3.99082052729099,3.896364979529959,5.3459130144271,7.907611266921076,8.358587350597505,6.712695037402984,3.07960313263868,5.788821868084893,-10.098885860625694
-6.259676889990127,-11.480642934560782,3.799364962734303,-14.879573443966422,1.0318320262596097,4.797260493919652,1.7024520023672152,4.997987015971206,6.614421993861522,-0.1418636492714533,5.58490592930477,-0.2178166716360539,6.084834214659354,-8.329723531718505
-3.1765136964177607,3.533166118601496,3.446931309233237,-10.972447914718476,6.924070948169312,5.371891601161413,-0.5342747492074402,3.8276406775306793,5.133031563231847,-7.483330711000866,6.290186626225267,-2.200742543669974,7.294555185378375,-3.414822193980785
2.5429677589346245,26.00877293149451,3.740510130544192,-1.6443984003981411,10.62757756121723,5.353262844075678,-3.068950968880518,1.4505574996517243,3.5122505267339816,-9.23054310380186,5.391764707806232,-2.5122478539073034,9.118286642188924,2.4050463193575027
8.279154349066708,33.68442575311996,4.488076292265669,9.738082804656797,9.810217822490904,4.306351875564092,-4.877167766486736,-2.007038288147969,1.727652974593514,-3.772589699305772,2.791488961258254,-1.58916164480158,7.997954909922551,6.851399400284235
12.190845039484618,23.798782123694547,5.614965709807223,19.03208873649724,5.225578836768275,2.381951799733838,-5.681996484115319,-5.72114179214982,-0.0912132256197675,6.137136239805601,0.1847674012784662,-0.5052652892582694,3.873083042683004,8.712678399255164
13.91923982905187,18.51774662488794,6.883935239816454,23.18547334680801,0.3891621850834674,0.4676301382447976,-6.795710759676643,-8.540398120269892,-1.5954566528937049,14.596494010843609,-4.650048277981041,-0.3544474778383484,-1.1790532112308365,8.219037593897163
14.08938675915236,12.53332016089477,7.564608796726688,21.51645750275623,-1.195215121465706,-0.469857858281645,-7.91959170803714,-9.746703500694183,-2.47641495956291,16.17954524478656,-10.329065053785998,-1.5896600119962052,-7.991792294961391,6.437644609373695
13.259242598406953,10.40746317699558,6.5485722794401,15.819300950878658,1.0494624426239705,-0.23200267372478,-8.03367867624732,-9.585887355502493,-2.799011829111061,9.58874548197217,-12.146656481646309,-3.8123178713060577,-11.645992019056449,4.191377099908457
11.342181278251743,15.6781510962339,3.105007809728816,9.235028948206724,4.372916275607907,0.4605627954161146,-7.218279341385637,-9.044246079364434,-2.997152824594472,-1.415804465381326,-13.498533971604491,-6.123071511250119,-11.530215185312953,1.4749813699650156
7.97971308320348,13.434201258608551,-2.2424372472073903,4.497026063703037,5.262715286786645,0.6991479150517712,-6.529933117904206,-8.996058846854227,-3.454802565764453,-10.659250077553,-14.510378787876812,-7.700378834187106,-12.96221725903012,-2.0656593224438
3.395422098965023,5.1951430332463415,-7.628427830957824,2.582141998707309,2.657337823451166,0.2650224297722392,-5.823113092575267,-9.456115261018128,-4.080048956551105,-13.839985180643424,-11.809567304850876,-8.193706096857845,-14.797996011910731,-6.102198264484807
-1.2016950328344604,1.5480655467788618,-10.931865990571396,2.5737052958306705,-1.152244889314436,-0.2300855794438838,-4.8555895775764535,-9.626127570764623,-4.365274770176164,-11.213172369496128,-12.134111265789208,-7.785827863573973,-14.642496233086796,-9.250385898533608
-4.170305467345684,0.4260010936435578,-11.307351564568943,2.726405106472394,-2.7214942406509275,-0.041634197445842,-3.8197329331376335,-8.719177770261805,-3.9567280461129792,-6.7357205045083015,-11.297695321562603,-7.02017123947918,-13.061485390937303,-10.014931746801777
-4.550144078451773,0.7426608512619731,-9.82758551211047,1.8898369252822864,-0.6173505038168776,0.9412059712557248,-1.3617317174903625,-6.822565527063266,-3.189013428695163,-4.601888324747965,-6.007080307975743,-6.499080160926896,-9.272046222117837,-8.29138524694581
-2.800222043558813,4.249441287919354,-8.550802864321732,0.2400241686111117,3.4300897058576254,2.162916346539524,2.622745442932787,-5.003522488020996,-2.9803295457080585,-6.069765724391809,-4.158551835511108,-6.5173418022045855,-2.791266638904194,-5.838287254449484
-0.535175167574752,4.388039731044395,-8.749156918348504,-1.146241648951336,6.336909331006489,3.0663930910030226,3.8303743758147135,-4.532174099024889,-4.067925642093048,-8.963411562306824,-1.3327271226915574,-6.8062524997082186,-0.8046475038443517,-4.942985055231729
0.5189309904070587,1.0822390151119796,-9.875005775220776,-1.42186878095462,6.517632809928708,3.63799779014475,2.248924949788946,-5.876254670854927,-6.258871131869446,-9.865505710713943,0.7121430438968799,-6.682274049976138,-3.5826151442800254,-6.31814627364491
-0.4641010663080367,0.3535938855992341,-10.2147482102977,-0.8055333606622828,4.980350539515801,4.16816672188658,0.7331405602378536,-8.318759593211366,-8.448054778470006,-6.949650600825457,-2.345255074765705,-5.669012760516308,-5.080557791805904,-8.242313742014122
-3.0882342303913006,1.017859171081801,-8.613084210986857,-0.3894380710050509,3.763485611631879,4.512458142205315,-1.6334074167881742,-10.49555343966935,-9.462495326842074,-1.2615137662040097,-2.6250615382671314,-4.120780037832203,-6.825538378615983,-7.94187370577634
-6.11182454863534,1.91874860437256,-5.635877827458444,-1.077886632452107,3.50799590626049,3.829940167056037,-2.6591276147640435,-11.36354936673004,-8.972088644791206,4.19680353807219,-1.3291868721179352,-3.12544606998118,-5.440051062451703,-4.077594272411004
-8.082231085718544,3.94878767910177,-3.0760349294615645,-2.6245559387838417,2.7365121023023797,1.3481082286930413,-1.8402406835249172,-10.78667868723572,-7.604632976464097,6.556279348924052,-1.239707088426219,-3.5131661405700854,0.2371186180494762,1.940761642955569
-7.879117177153985,4.1888774615367295,-2.2859826761951902,-3.716702840152667,-0.4287150422394026,-2.486676414196592,-2.782414550196389,-9.326120349254053,-6.180211255945707,4.805204570652076,1.6093100054692902,-4.791717022258886,3.62995586196933,7.037640260500636
-5.141207420448311,2.4685015540422803,-2.928349323253016,-3.118543672693299,-5.896071202192901,-5.7835515140946825,-4.9963624327540925,-7.553046263360333,-4.868042908233655,0.2405914334121437,4.075786397508844,-5.189827675642173,5.601801143581614,8.951971436084651
-0.5882407121476891,1.418709070924461,-3.318029291863702,-0.8357581893187698,-11.033105753093295,-6.492913009227897,-5.720463285641341,-5.587521651848338,-3.146786232510112,-4.341715494576284,3.4627290807247557,-3.090033783450833,6.010444845667516,7.880736074043487
4.013023003336073,0.4346284151071877,-2.019943749243337,1.8332073424051172,-12.564872751702392,-4.244961425490356,-5.380467841501849,-3.2688058228253425,-0.6015787765721043,-6.161282086897967,3.9918254778870472,1.307636419793619,3.5409362257033714,5.941979462090401
6.549056219009852,0.327935166954672,0.7822593747430027,3.425292852213208,-9.243113256844946,-0.9882277986786264,-4.95795878381201,-0.6945008738804708,2.3053788866039024,-3.960696881270199,4.463918311046611,5.720952109801917,2.5820404028220625,5.142307483869356
5.752214283577517,1.567983044507699,3.365488282287739,3.4748568955530583,-2.9119983881823703,0.405139831385128,-3.998999417379357,1.5203818451463862,4.353175379244291,1.2006969293258294,2.664453764633553,7.381653267212973,2.835330187431877,5.727628727699679
2.083602831661201,0.3848505875203589,3.871826867622556,2.531834790054356,2.875816445924288,-1.488657310255709,-2.970172849137266,2.636880678493725,4.529010198979623,6.383059097187125,2.3577875405340105,5.18255512934366,2.383918260038794,6.202382467210146
-2.497235878582877,-3.1417759687361606,1.7824979348927652,1.1420742423094925,5.409843912655953,-5.38298131281276,-1.9557597278458572,2.531825999027052,2.931236291544046,8.391179331879611,1.6523486020556568,0.4789075718011801,2.031887742937624,4.74187708067522
-5.82566041016509,-7.388550923681834,-1.7260462649629122,-0.879265786134555,4.4576493338336505,-8.300891157291748,0.879597512000365,2.0576601987107823,0.7495808812529603,5.753642469202575,-1.1462222806760982,-4.106759042848131,0.7565032695040768,0.7075546984464758
-6.88499190622032,-13.179693451797352,-4.68090405121978,-3.8536333678895502,1.918386925559453,-8.001938845504373,5.566641636181506,2.5665256247283024,-0.6426097788171372,-0.2263184045628854,-2.5849853643628258,-6.680941245962092,-1.6407775977863364,-4.809795427618857
-6.143404225791933,-14.272322509669271,-5.615720779596771,-6.9457111090247725,0.0919896260222739,-4.695907318242856,8.077300052378643,4.885736585124363,-0.6479426857482622,-6.188829562382644,-3.3293170938535086,-7.072921440350923,-1.527991223223227,-9.58921479724024
-4.744524461474958,-10.034532204566176,-4.309000983003871,-7.93908996666743,0.0439717458117474,-0.6458788171222558,8.525863874297228,8.57443896784626,0.3294702341675188,-8.842008803369762,-3.0697771838503587,-6.187354036547564,1.1053403449474066,-11.490984729636516
-3.445971347902873,-4.935542497956056,-1.6283743932499064,-4.967952151309046,1.1641562484782506,1.7982878062567489,9.119834997209598,12.12491040739656,1.4253050787041532,-7.031736764290194,-1.1593451173721043,-4.712815766309817,2.646597683481956,-9.59565581925006
-2.284183648972485,2.6397037283285574,1.1664043397492083,1.1660906206583608,1.977493805998756,1.9144515232938657,9.02221029670099,14.009450687817392,2.018661846721402,-2.256944746490234,0.8855877152761116,-2.602313735394133,3.7403923704705977,-4.739551558203539
-1.0689936082897056,6.025926034649696,3.113152861353127,6.657989539218066,1.432660428577405,0.7229147125863946,8.725979509940345,13.76345158788814,2.0334149964155657,2.695281172120813,2.396856095426028,0.3342909542150138,3.3546487372808795,0.8496154316398314
0.0456909790370989,4.23257683004419,3.898616599305715,7.396442041965615,-0.2848219987918496,-0.2565836014555591,8.429497740647296,12.24873363812044,1.7810692373452852,5.825806327684165,2.4370506464295505,3.6552676524535066,0.7370686213175334,4.738222607730057
0.6166032219868214,1.2563601546046372,3.817737341247902,2.677975290434546,-1.940065850622533,-0.2727254883550856,6.230672560791173,10.896753915976925,1.6525833140848185,7.008944475596359,2.2013673382434824,6.335409862791721,0.3441678968484627,5.687845662614565
0.4841763552345464,-4.853166921360432,3.442092787377809,-3.607116440188003,-2.253312395766431,0.398542989061414,2.14674469346137,10.555586513706222,1.895810151388616,7.3300621952932,2.4447749490008297,7.58729079797203,1.945513891690534,4.346692972247439
0.1370951848449184,-7.038123304968878,3.198884214625094,-5.936355398745459,-0.9572380489287902,1.0973370882256326,0.0585597503686096,10.872911971627634,2.483693675058356,7.526583879913735,2.3612082693186327,7.506877250914684,2.757046726255258,2.6566384815042534
0.3843250362821084,-4.607981543212798,3.1323912188559677,-1.994397294637178,0.9239916047283798,1.4736060310922865,-0.149448513110215,10.69454016697598,3.0512999276814403,7.164093098988181,3.395533881215117,6.855214315687833,3.577271789663685,2.355589121419112
1.6268141107510417,0.6921207735218091,3.0289557868442563,4.996488386616403,1.8402427167095936,1.6186366190462884,-1.0400837976235628,9.114040637578446,3.025860645596138,5.360892494613792,5.008434243989246,6.302911862302964,2.876791729615554,3.741439232386884
3.453297786468874,10.968061414527057,2.775319352615382,8.852140328825277,0.9532633530719132,1.749897556172833,-1.8527665568975715,6.274756304523507,2.0443093268341546,2.2320315365765837,5.628003447961459,6.0012634353392444,0.1614131557259482,5.689483085840563
4.919476975703648,14.180734590606397,2.53864072248794,5.81758313564557,-1.1607298032010336,1.936136671191408,-3.285072006927786,3.250445191251366,0.4184336389918428,-0.599256477009483,5.196590806596211,5.821667529575796,-1.089486665278782,6.82486009379927
5.170821788137062,9.83383114893138,2.4846991779668635,-2.083078250989441,-2.9513706630111827,2.109149553079252,-5.699804890684631,1.132839849528648,-0.8553349793106575,-1.1902133113583808,2.607839110175341,5.7411574863831305,-1.1922497634002975,6.719265486082328
3.814946185238972,2.927308944632319,2.271471549319332,-8.851142567999396,-3.1390390633865124,2.2026833967361696,-5.686598151299517,0.1394310940314236,-0.7852573520531667,0.8362719658860387,-1.6839695938893895,5.739047903482604,-0.6189570568576239,6.002078231717766
0.8560070803885242,-9.590173498739029,0.949171647494074,-9.844183105464763,-1.7353094024206142,2.183765196974611,-3.262184502078526,-0.4884338381879365,0.6735435646442376,3.5805327621738874,-6.722264963270984,5.331636598437289,1.355430740113713,5.362822489861188
-3.4767577541986743,-13.918479943245254,-2.3751395410272416,-5.73891717347531,0.0030858557447395,1.9758391857359427,-2.5160782123776184,-1.759735116924657,2.3025554189250856,4.212238970559612,-10.810115792955347,3.5135519109412945,-0.0414034863520411,4.52015665240651
-8.665289443595796,-8.996587422050393,-7.54403574954109,-1.5596695992510998,0.6171300869273573,1.4359842862566303,-2.938040434079092,-4.090633309980031,2.3990975267639456,1.3121516315666613,-13.253591197135735,-0.4877262111879474,-5.034249222928472,2.266795331540988
-13.725057582413724,-5.411656378959846,-12.983315553362456,-1.8375203105810547,-0.4118852996891338,0.4410498572943861,-5.205310029231977,-7.100516608190967,0.1308979269847041,-3.869778702288624,-16.104385226749695,-6.245584351623798,-11.291371039160952,-2.369799109922882
-17.335040821990333,0.0855227458772096,-16.503220002983532,-6.465686368093378,-2.3500400442478284,-1.0322322168543412,-10.24543145786707,-10.1171415537852,-3.690108130293519,-8.397627185380841,-18.570182375544757,-12.001857475865144,-20.007371471669128,-8.919158081957207
-18.40257154696913,2.556373955245161,-16.72978979860278,-10.950069730486067,-3.9015338867267566,-2.9120494410497937,-11.016813298267548,-12.743437074671183,-7.145385218889695,-10.02361682178262,-17.37203760649381,-15.666995352176691,-21.236071968184067,-15.346876921573084
-16.62708689115,0.4223096449759694,-13.943394413588743,-10.543733643930162,-4.2273146331709714,-5.020696997244089,-7.490317189127845,-14.84315018887836,-8.626041024406288,-8.886013970039762,-12.785412628380774,-16.09404795073344,-13.990758375659397,-19.16361061080829
-12.515633426345252,1.323801649208207,-9.577041219725304,-4.323648886905605,-3.4267856938201007,-6.933777127216542,-3.693509507270688,-16.025540620524783,-7.894377945184397,-7.1189974434420975,-5.220830361261916,-13.497452466200324,-7.020184923082999,-18.854210868894384
-6.865027230321164,3.910005164739743,-4.889249632088944,4.293866029920203,-2.189421675901853,-7.856275808098694,1.9098220622456503,-15.364120087927471,-5.911679499739657,-6.826157673115249,6.464581998248311,-8.829270640973542,2.075174726694822,-14.587491818145711
-0.3378016959718017,4.791790370723496,-0.1336663515857239,10.578343421071018,-1.0839700802034784,-6.859627252188579,3.6666245269220976,-11.92435199236341,-3.7346100918542966,-8.22798809155177,11.685626347518657,-3.0054698800973085,6.0395754328193645,-7.9238299211671315
6.355843707312296,4.922213809180652,4.963233070850087,12.000023669369888,-0.18958558946753,-3.581330071565592,0.7418330285434607,-5.799496604680659,-1.639057486762347,-9.517792843484395,10.579194658877238,3.13963223632668,3.08400513401532,-1.0101619720427273
11.958788516291026,5.051284527984813,9.986520311259843,9.33054627590045,0.6717387128070875,1.0942355412021527,0.2093153610795055,1.3319829937187286,0.6850864120452762,-8.430438160559152,10.43929786386153,8.354632146523272,5.759779741939247,4.160777658958445
14.7092315784428,4.78617379966866,13.311164690760094,5.109122462225503,1.4783936012331615,5.142726351833822,0.8045838120446285,6.849882452306218,3.185832184234851,-4.153975196461037,4.320691207845219,10.932235817061713,12.411925911884016,6.278977980649422
13.332012490144582,3.885631575401617,13.09228685924003,1.524939331892778,1.8873144532499744,6.563530199478532,2.32983734071002,8.729975353049454,4.888322440357161,1.9061408444012395,2.3865755971260976,9.677178117398412,14.554782066198788,5.135591568679235
8.267591298926725,2.355177266311684,9.027939238067102,-0.4160014997811636,1.591029243065595,4.875796608529033,5.991009282172784,6.835937346904256,4.492565865146251,6.975014871062051,4.668745959624554,5.143163543786766,13.812325056878027,1.815511061070726
1.8708164043854048,-1.5211907162509355,3.1944702021493647,-0.4806014675023569,0.7546222172275421,1.689614522419177,8.078291935783724,2.964257466674429,1.6703626581574404,8.64517111879291,0.8139383515538645,-0.2245770914814464,6.922234307639803,-1.691752401949561
-2.91565756332281,-8.002752661787405,-1.066468945122704,1.14152238336154,0.0317958562165117,-0.3091407484657331,8.783916510690595,-0.3793548836911675,-2.242750806249635,6.311132124484011,1.3068267738168844,-3.537121173210785,-7.983433014671582,-3.532425960103016
-4.456594239020415,-9.900367188408635,-1.464414363394436,3.4797703364997474,0.0866720252673118,0.7024647862276154,9.58852423630288,-1.5448938074593954,-5.0152950093731405,1.4842076534048196,0.8095440591101529,-3.436575963460076,-12.552656518898218,-3.0906970668747995
-3.294180816055146,-7.103409960313964,1.6343255470513256,4.548229698453483,1.0448105174944189,4.339586940841116,9.768154061504593,-0.5592600012510935,-5.22689324780492,-3.098476191391569,-2.1594941944302337,-0.9064595791209982,-6.802930786126907,-1.2790966699282365
-1.2991889585599807,-4.131244365468749,5.659281187346288,2.3478840093759388,2.3643261696850644,8.324389467307345,9.205151838991172,1.2320633867677735,-3.416040508663219,-5.041351889011093,0.782281456731256,1.7597930186386783,-0.1270735639004545,0.2905541445216393
0.0175127804964887,0.6203573722078086,7.904542595818007,-3.228480596576272,3.2251611315020234,10.146111330762224,7.899019514584431,2.2835717394626904,-1.5883871986707518,-3.6842734469816207,0.4988583481616193,2.8438741432343164,11.564257710916229,0.5903348257900589
0.4849666576185001,1.981107042649522,7.433467056520257,-9.435511390516105,3.096244449117528,8.704777580003864,6.313071078454631,1.8852403084569147,-1.4737995296589013,-0.4924824396809519,-1.3769143540452398,2.279499120849863,13.617556062085054,-0.1657969569928639
0.8496345294659378,-0.9298935437076672,5.340845722958932,-12.137386040585191,2.0452390369644604,4.763602850629489,4.428380103704185,0.4711746299538575,-3.060688401401862,1.9218719495017709,-1.4572774694070096,1.1741363211419331,4.219099572680619,-0.9792495961047648
1.6637532805163673,-1.8589684220303888,3.430041321778262,-8.951236695407253,0.6180141291336376,0.1462005549087663,2.800260117763058,-0.8702265641381288,-4.674652494334655,1.6445294107030968,-5.4415547406811084,0.5146238910920822,-3.235638206108729,-1.1049088104960774
2.703226250465669,-2.042511226786465,2.644250319344465,-1.450593236828837,-0.5566410358496512,-3.4490148874574373,1.6051217485570324,-1.2407520064464848,-4.4731172487326205,-1.0955110170899118,-8.501877520810158,0.371774239362491,-12.327915285357015,-0.6742257824576328
3.349342244970309,-1.863277032018688,2.549867280712263,5.673495406644413,-1.1400500090396832,-5.144728831466914,0.0625278392770294,-0.5331515198365864,-2.012370437222465,-4.066555828490657,-8.037641219400232,0.1736891728434137,-14.35392549427347,-0.3998041288223639
3.290499539841637,-0.3507123695369858,2.061221193090681,7.990921778267946,-1.2121889959962786,-4.90315071550728,-1.6522147972404917,0.5633538404091745,1.4205120942408629,-4.803109101126449,-7.349309923812341,-0.5004856816004697,-6.78312987986142,-0.761350449625585
2.706296070095448,0.5553659511827271,0.5602145150733833,4.496103950262,-1.1130486114321307,-3.2425846584159608,-3.606598484308202,1.0718410247484655,3.875066757325556,-2.6500148435836124,-4.985403537080345,-1.4938020495866802,-1.673466718066674,-1.5007468975481617
1.855974328963935,1.044501209837456,-1.5714560426397457,-1.969372118566433,-1.132929309026789,-1.0014495855717307,-5.918568514157753,0.3563788509884524,4.221025403057208,0.6510137669997,-0.5799312350717563,-2.297173217713869,3.455900948008074,-1.8693585751975237
0.7084955749989348,1.231546029080992,-3.3310748571839426,-7.152744414897008,-1.2833697927496708,0.8531026505135664,-7.154625658574568,-1.5267966673567948,2.873343616060449,2.4076091616626734,1.972337871334218,-2.503696368474081,6.114115441249616,-1.323404996616965
-0.8974700663190944,0.7364953690816716,-3.9494532851598905,-8.503528573882488,-1.3222640118746547,1.5295958534559126,-7.245369158324908,-3.9027376477303832,1.3434289673072437,1.2658325947658042,3.5531702638452964,-2.002493880749064,4.191006622445627,0.0221102305985176
-2.8164849692738585,-0.6448880320796779,-3.5012677705268818,-6.559934894655054,-1.001282771928853,0.7897100932899939,-7.730932149205183,-5.837160780148945,1.1243345075183484,-1.6254193998694184,6.972621608633422,-0.8827154636823344,4.997792791303411,1.5821022982906854
-4.509646979769169,-3.109393813560376,-2.8180577829594924,-3.9223551656245874,-0.3072539277010087,-0.8826062138917194,-8.333252738559173,-6.532896704891911,2.77033908375833,-3.572884110276757,9.51553045175026,0.6635957696871415,7.49837560763832,2.896661308374004
-5.481314117728715,-4.352678024176121,-2.7997722634509508,-3.0346356640729724,0.5184133354332054,-2.5465671342484946,-8.684556654121698,-5.589006824104052,5.702438699756176,-2.5619902022278715,10.568236700587848,2.308095331575565,8.163570351686838,4.011651468350582
-5.713351898192315,-4.324603644254641,-3.677409527606148,-4.551337311683444,1.1742226023387232,-3.401554887682813,-9.017577990292931,-3.090528715141307,8.689632181869886,1.180116967887967,12.192969499768738,3.592362564478385,7.994641809139944,5.246569412498806
-5.521167194768584,-4.329567412946818,-4.8264675059593465,-7.211826891399514,1.4956762113108957,-3.313735548102157,-8.437749924561404,0.4296419373997011,10.586280480138749,5.555245272518464,12.21718230832774,4.134452438835121,7.229357876087136,6.579911917884724
-4.957887865506251,-3.835379356185535,-5.287156490412714,-8.92428701470605,1.4889033862048482,-2.8830527333624243,-6.869691146805596,4.134765782746056,10.90036919652687,8.455127900030666,10.47949211729303,3.905058853997428,5.4248188273355815,7.334292928742776
-3.5123513571734097,-2.3589495488669034,-4.524345717400536,-8.129679773121595,1.2575404669080277,-2.974082012650989,-4.903151970788399,7.153493161533476,9.974513893314889,9.433006573130571,11.296560372516666,3.29559740941753,5.211566992616621,6.64952726206249
-0.5830999009922522,0.0890885784464685,-2.72178679116354,-4.642030564037111,0.9761171366452556,-4.02212962758361,-2.31541300513404,8.952065907656317,8.762657527299952,9.78346976444836,11.523141715300511,2.896752290759608,6.720575836666551,4.480976762287771
3.69962341899373,4.033911273603631,-0.356733335345698,0.3566001512519854,0.9073585376872516,-5.613983081804489,1.353748766211274,9.645481096227616,8.297274654315828,11.079446398343226,9.80162946566706,3.190911844108996,7.029329358764382,2.2051394118189283
8.239014411932349,9.683612365690086,2.439620520425855,5.038003610992601,1.284769743781201,-6.681683598304126,6.116632728562135,9.978545948875414,9.034553119356866,13.535143822043713,10.524167250235038,4.37350804114457,6.629820161223478,2.0347608284182
11.706617754425428,11.676248543070782,5.955859436218728,7.94417155910336,2.009180854916042,-6.211166581651503,9.279979739807734,10.823310678113955,10.395117707010488,15.657717733371625,9.74970256932092,6.3036524864814965,6.776257241421995,5.397569871253334
13.56281277324766,9.725536233294982,10.21104631046454,8.746413753063004,2.4545822159183874,-3.955373067223838,10.713029404769308,12.413349033669707,10.881982154781452,15.495554056011777,8.310820841413666,8.486725658422342,7.063908773789985,11.47102263689902
14.297791954638212,7.583628104315218,14.207513131980471,8.291981635087616,1.7767827536507674,-0.6053143054795385,12.047185598807578,13.898397995434992,8.936902906290822,12.402036732822028,9.79700905291447,10.138451714124605,7.204348438354193,17.21264283890637
14.624523975326047,3.977746659435499,16.081319965391724,7.864793515646497,-0.3228601615578377,2.704901118028604,12.620266661332378,13.740409752522536,4.148142780693179,7.772070378965296,9.125263778882283,10.489018880163735,7.311788802380832,19.168109244011585
14.50699057074974,1.5226095914834823,14.32906176483032,8.137326341006972,-3.0399691337853523,5.129250618136137,12.459825620647363,10.86104581140809,-2.0672077240111038,4.064004730210129,7.49066640670677,9.28318913424913,6.010898322319664,15.858430528143078
13.13089168558868,0.8016398619986373,9.177545873921645,8.623321342226323,-4.812965193173236,6.4709160917624295,11.643012409304342,5.71982503372036,-7.054514527150501,2.8776642436630557,7.283229363712625,7.086312213787966,3.125662078849869,8.920022032742981
9.920589339798774,-2.2169954960719758,2.825706446590777,8.168364984654854,-4.491034058745736,6.94672494557625,9.783160379492244,0.3524327114265038,-8.619468050029194,3.69425932911561,5.148762980777515,4.987449309796602,1.342166949423048,2.0471903988987226
5.528315690668414,-6.9400576505037295,-1.8518700787430264,6.163422036965411,-2.3366975312784675,6.705598681919394,6.861745200121894,-2.872374798948321,-6.624430184695083,4.366312508902816,2.9131752187401734,3.785338381414345,0.4556582163919298,-1.4913024762820442
1.6579826146333971,-8.466565959148378,-3.2209618835303893,3.394414294437407,0.1424399389552491,5.650028059707697,4.470320246869863,-2.936822206883974,-3.1264225746482985,2.974965237743312,1.8149162462840425,3.309132221693094,-0.8483119280455618,-0.8815383675558408
-0.2436524113372087,-7.058752427068603,-1.9105512569189715,1.5737305847118606,1.4816272408435085,3.724034098870643,2.657139309079836,-0.9721405390327148,-0.8086992987100707,-0.5104735615855773,-0.9433757546817344,2.538326477212252,-2.0758368364688606,2.0900211226962924
-0.2053624990505653,-4.103319976858448,-0.1296988651433821,1.7641054521436104,1.4767452311776346,1.2812777699875468,-0.5441379898822507,0.5324765506088838,-0.9524504693528256,-4.1991490201084645,-4.182316916222468,0.5150525432710324,-4.457445809031042,4.629653898055366
0.3330058328659788,1.5106044453287006,0.1332795508479805,3.126235165013668,1.1457571026628417,-0.9628341202208546,-4.862435941541055,-0.4493705354940402,-2.67049218543238,-5.921463294599391,-6.828380725327919,-2.712158941758986,-8.216538628777224,4.852098049285182
-0.1580587781372955,4.079805803384382,-1.4431861903686638,3.3984425124059428,1.5048665203734617,-2.427157813566346,-7.617148579324442,-4.030929737356004,-4.015750459494122,-5.148044652883641,-8.5203802513485,-5.974468977013927,-9.56157520755538,2.658028372480743
-1.9274244549393915,3.2494518801758314,-3.5184540815667877,0.9867881149710698,2.4796905361954344,-3.1077573032428347,-8.927555486471112,-8.427760928070875,-3.871393472502625,-3.517672384229904,-7.981076492049059,-7.851897766455636,-8.55243238564367,-0.6889137335635809
-3.7409988645334806,2.583268253706533,-4.376041582513508,-3.152999306255076,3.13829615911002,-3.474829673321416,-10.065728133363043,-11.359092354919504,-2.8574128493694246,-3.4813060541273515,-6.354574681712464,-7.795303647396182,-7.621182783176442,-3.578945296771458
-3.977156550474533,0.6957076583483432,-3.311269451002495,-5.774043269741888,2.973818742423944,-3.911902656013183,-10.465621199056956,-11.694300231003863,-2.5135653872252988,-6.187523443558924,-3.625817498435652,-6.527054090270937,-5.9981697179990725,-4.898989039073051
-2.046431076939001,0.4685332845289138,-1.028061794508872,-3.8491585832107376,2.723677581187552,-4.305586536729621,-11.036127979115928,-10.100771205447202,-3.7013585121073542,-10.408924885449116,-3.770629684629845,-5.385992944209811,-6.254215724507278,-4.470571692900904
1.008259582162907,2.392287759208151,1.05343920370332,2.695596871145888,3.6255596417989295,-4.248119773886884,-11.910570316120769,-8.314919953612531,-5.83619431294116,-13.447212500113856,-8.483012308671823,-5.225980794295957,-8.900502120009255,-3.167037992315912
3.136551461131738,4.836705717706331,1.7928502470650187,10.4428805263751,5.765914915851191,-3.614138617170156,-11.20235289493547,-7.736927084264224,-7.600978441473991,-13.288414295474771,-13.033082989808644,-5.848390920895362,-10.654265735574867,-2.6303867792952715
2.628871503862918,8.659031911467613,0.8422380706192882,14.742610173106868,7.400051633425733,-2.8068832491508005,-9.02244392030346,-8.477037146769376,-8.255359715566982,-10.226027193236575,-19.99934795578211,-6.409581780079229,-12.155467158460024,-4.406555836718269
-0.722056956115793,9.221097037254443,-1.4287727831775785,12.994353043876949,6.327172520405796,-2.313786414183028,-8.136186554568773,-9.483288893656145,-8.133669317283989,-6.613240639375547,-23.117574261838666,-6.3119430538879655,-12.239319804904651,-8.759840537759132
-5.367065631163825,6.099294129762652,-4.192090941590493,6.386605685012867,2.227359766825238,-2.0442226774587056,-8.368009154590197,-9.456843836199695,-7.884721596200222,-4.956416833781105,-17.497410858631753,-5.677098171815892,-10.25284751166038,-14.038972214003389
-8.842659325924771,2.4130545665857586,-6.359266760458581,-1.106603869351268,-2.4313118506918485,-1.2895435211771442,-8.614616405424089,-7.708408916381707,-7.381470673415798,-5.900162310931712,-12.027646622965175,-4.99496480111862,-8.371168919823624,-17.387385965489557
-9.290422811515896,-3.0207961299085686,-6.902473720260133,-5.490440126873828,-4.176732514428238,0.4734492124903369,-9.443744563720829,-4.35394510787944,-5.567943187841323,-7.706374391928932,-3.2768388642179533,-4.420418994243953,-6.14819975838689,-16.574192694727387
-6.7564272575175295,-4.958761061612043,-5.459553392876735,-5.15790293216881,-1.6271875576313022,2.717167083422005,-9.140657534384989,0.0374190417829538,-1.5042625216541197,-7.6042907026927296,3.712007845786652,-3.5353491412346045,-3.334386456223327,-11.637345374184193
-3.327188044898982,-2.6796737408453515,-2.857248650816757,-1.4359573622890096,2.996575412168845,3.96703705525222,-7.534843282737901,4.772225308936108,4.401826833952448,-3.937089864925362,2.209909028055428,-1.8627563804239455,-0.2302214476908552,-5.004316165596926
-1.7914733802580898,-2.000720437873828,-0.8745264024374109,2.702119109386004,5.552237579301135,2.988277926913028,-6.022399919588373,9.001904080988552,10.228887475600338,2.528766931052644,2.070254167570014,0.4096546436485369,4.788451510461008,0.0675453741603249
-3.6031732567926937,-1.6917584763770284,-1.0767366453299374,4.584440151981376,3.485550590164067,-0.0149728609277062,-4.194509990699347,11.60586343855163,13.693187335498088,9.07615351539848,0.9203623029664167,2.302487232889348,11.808006940846507,1.5570683274375554
-7.653258699133509,-1.7291896686336816,-3.5114459445728627,3.191752235713168,-1.979282280622556,-3.4071250367736354,-2.0670633205753264,11.506736084886398,13.658271870629903,12.8971719433574,-0.8076195166140305,2.7461023779835827,14.504693537550027,-0.2361245187852247
-10.949258498747632,-3.008910709242933,-6.43916223453126,-0.6566260488807956,-6.932173698089464,-5.396874451185987,0.2073759541649784,8.464086601059151,10.768391459066834,12.94942438496949,1.3688124278185785,1.5211976827925184,12.718995959251012,-3.205232142976264
-10.852749415926644,-1.905409489144908,-7.519846451586389,-5.0812338684065,-8.097242380440662,-5.363426243750844,2.952948898660192,3.672084230878625,6.804356423030995,10.453172746248704,1.8191254542089923,-0.42444489136372,8.828185418296359,-4.978103142362002
-7.1692664588532224,1.5067454421084308,-5.611267769202115,-8.285203022021989,-5.381304171479407,-3.9864623216718655,6.130352281997219,-0.6275139677487616,3.426859468321247,7.701297296924679,1.441101231767003,-1.6324707750734715,1.2146532380745458,-4.368956625004962
-2.377390210253587,1.7998601931316636,-1.7463640681557635,-9.454715000043898,-1.560590404083925,-2.2115532730939904,8.739651665301407,-2.518147249452958,1.3022687669863942,6.142187059374535,-0.1460896129007652,-1.2935141689416696,-3.90495735916612,-1.929581531935
0.2372057656404536,-0.6506763298019088,1.505435354892775,-9.024945426062672,0.2775016691945779,-0.2801506123883328,10.739486302168345,-1.771140687156418,0.070686671253739,5.284601716152373,-4.679909109199511,0.0024695886213592,-6.153287059217783,0.5147508227736708
-0.9613489675710732,-4.760158487655215,1.803363919099084,-8.230796132371157,-0.9164910528684233,2.134803511388661,12.5602230860364,-0.0202094166585737,-1.1200000446585037,3.3363387818172434,-9.371439216990565,0.5672729115029469,-9.84835300543202,0.9272732114695046
-4.887558200772116,-11.73001544410879,-1.384481941867314,-8.221243823292504,-3.857331919332829,4.988047939323298,13.940045934977382,0.4934934847932872,-3.038537289728037,-0.9600632585348556,-16.08361099611446,-1.1725983456337374,-13.548572737021695,-1.863999247650618
-8.808160633470102,-14.7181075414983,-6.4739307154790815,-9.294645409068483,-6.412717372076696,7.369133576707789,13.734590639930056,-1.387070045634033,-6.0068558711625,-6.911800765588691,-19.71835778517352,-5.423591253025528,-15.234650565339091,-7.549479535035825
-10.51847882980789,-13.383594606908202,-10.84302500819566,-10.780361825366398,-7.213111624147434,8.1841070140825,11.795660388627857,-4.9752146316101005,-9.715967240737136,-12.197252471071993,-17.9114352579124,-10.718411898855358,-15.07141725176932,-14.413822944753557
-9.770102932248012,-11.7282879307675,-12.463716430844372,-11.648417459930345,-6.164168864834721,7.320594777945299,9.809057166189078,-8.441409009588494,-13.221797812069958,-14.702015537104405,-16.745928562121655,-14.849806951919511,-13.750473043088244,-20.04437119560401
-7.908386868754322,-8.104142268885871,-10.965510946796272,-11.333550888053168,-4.015591516078835,5.942697516296468,7.53047439065878,-10.248246757629929,-15.277938749326673,-14.2311072115374,-12.203661135227335,-16.322029931461948,-10.803813000069002,-22.342009428253533
-6.28879737584362,-5.481690060090827,-7.495895578558477,-10.047607446468245,-1.8216147665403124,5.451478363828079,6.789810999496888,-10.072060589351802,-15.028487640494795,-12.52808320202666,-7.189948761234732,-15.131313711861145,-6.798437340039454,-20.35685806350128
-5.005601185594443,-4.334529649739343,-3.642630995125261,-8.317415912548185,-0.6431865653349753,6.12806707396514,8.102532405325704,-8.584466422995138,-12.66220319531405,-11.605541984079933,-5.514666013046569,-12.293743491147824,-1.7275285193737673,-14.557037246007424
-3.0327541540216467,-2.051986790292188,-0.3509756851359871,-6.26999431076801,-1.1798811824229505,6.880636563112515,8.016884057860864,-6.554991541730312,-9.430940405400566,-11.98021043399559,-0.7304572896157842,-8.728042785897284,5.188625539648368,-6.454859045689336
0.4665198874923408,0.6064268508005977,2.3183994619727697,-3.4918268318307004,-3.1758602602125547,6.359667903330192,6.974038014087948,-4.252003522520649,-6.865392274957437,-12.452252360859568,5.0049014878694535,-4.690019391246922,13.89652124623214,2.103538577718454
4.947685965690964,3.296182898692204,4.558390064484268,0.2953964411547751,-5.151283898919743,4.265889084348048,5.917144505837757,-1.658881018523756,-5.763267091091706,-11.509503594636564,8.140079227766181,-0.275052326544118,16.816753745709764,9.518256178149691
8.582559120964815,6.25976720260466,6.124380406546278,4.456324852679375,-5.134203943679932,1.529986709802972,4.2495799830839,0.8932319683924259,-5.801987413480751,-8.84619379390773,10.749346252898423,3.771280081178879,13.35785519419616,14.649724690148703
9.689165945006442,9.058522953901658,6.444859483238057,7.558184559477658,-2.1485367374791693,-0.677448225061474,2.220481199740989,2.5176056291565634,-6.050150801341014,-5.465966138388077,12.98842113607204,6.14098261276255,8.637291040423575,16.85837856168312
8.343404387309963,11.653937295811728,5.516783754752254,8.544249593469257,2.7999363184380965,-1.9152945163359512,-0.1997122590382305,2.386761020063066,-5.778422469124409,-2.387709882901862,13.201994639460803,6.165472119998882,0.7142072561176684,16.218372261118883
6.7450530784531,13.09389425059084,4.588551573947592,7.923850079997763,7.311310464496207,-2.40568098892913,-2.390940884387274,0.6694730981027419,-4.753975355838032,0.5342511999916022,12.974218477093496,4.927960137088519,-2.1366635501889526,13.870357460620614
7.80907656337385,13.146433813730114,5.623509613410571,7.659755845069872,9.392093598896174,-2.2372474344404285,-4.2637435338831216,-1.1871215476464414,-2.893936979169144,4.308541746694132,13.902510753208787,4.8543238112595954,1.2389224311966225,11.929663587569092
12.869711445380256,14.829924228446396,9.668557180806957,9.545819590125848,8.86320339422888,-1.0221486899389305,-3.824340919619004,-1.3424314709348142,0.0380408489558838,9.289529115516782,12.76157131313426,7.753906414971905,6.169574452348467,12.417514360796238
20.22768283390073,18.05369188903347,15.492577213151163,13.387860136490245,7.093258034160646,1.4099101137396417,-0.6437748397449997,0.9373708791228026,4.072318937811879,14.111304641405496,10.07659972091993,12.967084119021145,15.066493864185714,15.611395216696758
25.8172398347718,18.231461007091585,19.919111266214195,16.711248528303912,5.423697200440541,4.084595766124659,0.4886011478036855,4.4347086031621465,8.322476824743719,16.393409939923764,10.07785070443621,17.45677662258296,18.660771891583337,19.207243883716608
25.754742298925983,15.676138011110623,19.90989799460197,16.48779769367545,3.934519047815421,5.044773264986297,-0.1116994980646473,6.702932487012264,10.94859423305109,14.741408956252869,9.046605100012425,18.029922399245866,16.115204010077502,19.52570979843205
19.05203362347245,8.50578271028951,14.846346962175907,11.573918974783812,1.7716906019309562,2.855720592896901,-2.909297976340834,5.99611490587187,10.346647489893495,10.1541966936574,6.912706445934296,13.910177175280694,9.97444304303532,14.369897036913647
8.498892120490169,-4.586556091671154,7.11679788743292,3.844805791907508,-1.4294622663775378,-1.8568312391956996,-9.096879871766882,2.9018850182072384,6.767199642241771,5.4129199504068914,7.676645559767653,7.472858558716105,-2.468267158014007,5.353187513926997
-1.0454467713535038,-10.212140883912488,0.451619043727625,-2.9479078588308845,-4.651478486325949,-6.46589216920653,-11.186152492997795,0.2068399320313432,2.7546591843382764,2.94441023658365,6.645861856986873,2.495981920585379,-7.685361781699693,-2.57752129496636
-5.819684147178034,-8.252179969712397,-2.688637152857993,-5.717541192057929,-6.182234679607838,-8.221752129367982,-9.202484653452489,0.860573381247864,1.5759987115618763,3.109859097039113,6.8978097396592455,1.3729250313243533,-5.152318028664413,-4.575349443177103
-5.53803038920989,-4.622511709405133,-2.6201849457659208,-4.047278027608236,-5.233127703628124,-6.397937511761999,-5.879964063064642,5.525728597698926,4.645208752752872,4.405442141540227,10.864959670262634,3.53122943861964,-1.1850821690975124,0.2413262465345553
-3.283422670538986,3.834261934519101,-1.7827190788414595,-0.2537426685191377,-2.81561486867977,-2.812328622833288,0.5328823954554187,11.72503962896107,10.12213938377699,5.176022313547609,12.368677552770643,6.201013528675187,7.538544539785977,7.761646882477407
-3.0583266214136486,5.936245281023848,-2.659161046574884,2.370094759483635,-0.9268569945662896,-0.293494888010283,2.472739090200074,15.45464397500546,14.09955411146554,5.04899279506748,12.644928107534462,6.725629501211138,9.616154019216008,11.81582905011916
-6.84183046346239,0.6779163509543762,-6.014527631116305,1.7742038079636302,-0.8080992186461735,-0.5008644195766223,-0.6086967061435604,14.14245143104613,13.59795699841384,4.765154683203818,10.774020591160156,4.477362149810567,4.0198570975781625,8.846578972402593
-13.277965497565184,-3.368344092945656,-10.666631431878791,-1.653590536954784,-1.9611522128012664,-2.9547399986445697,-3.235269537063368,8.630662955190253,8.914520026362986,4.836398912527127,4.953526472963411,0.970007080784434,-0.1965613367297856,0.5129485599755981
-18.806482944402823,-8.887564303678166,-14.597056916851049,-5.559715386103925,-2.8044208928304606,-5.866848532496558,-7.1987485270778135,2.541870941181429,3.3132046522052114,4.643933754265049,-0.5066416323389968,-1.6474391373769564,-5.735659438994835,-7.881962254226327
-20.241145289875654,-10.096177573125711,-16.26483225091563,-7.31829392779176,-2.1926998604861545,-7.721223904474687,-6.984998181115843,-0.5072212949207007,0.3126967421698943,3.017818658910759,-2.9807264433246363,-2.2894153331640616,-7.234163072309462,-11.695367399705312
-16.883460135230596,-5.569915955490967,-15.20074370721554,-5.820132591553868,-0.2515742526761499,-8.118571876539168,-1.536216418231689,0.4171142725273604,0.922534679769413,-0.3112592748039304,-3.724220722012304,-1.4750482863272971,-3.1869452045517908,-10.282756617441446
-10.79907551388293,-2.1158973605221947,-11.847262208406512,-2.2337284348431403,2.155023715830172,-7.403083380169548,2.790276939124322,3.1744358417711744,3.182350559446345,-3.961317885383416,-3.0385116099942504,-0.5200853928315574,-1.586760861485357,-6.713613456631837
-5.286215280652847,1.8776590174179288,-7.167247964852514,0.7732978039383056,4.497242482845806,-5.852641135068776,7.409004630961921,4.6620327842789,4.255306791435732,-5.733248948923386,-0.8447150337614925,-0.3070380089880089,-1.0165494216838753,-4.521187331038412
-2.7209440803232603,2.809141165108913,-2.351099811509311,0.9120220568795644,6.869139287277466,-3.4483094421445983,8.664846475975116,3.5093338007267576,3.048741461933691,-4.336485967954129,-1.1691433652594303,-0.7033954374681919,-1.311851059591516,-4.6468646254981785
-3.1869039486955586,-0.6184012344616319,1.501923533467,-1.981273735602212,9.200221646898616,-0.3772881952611229,5.252258501329908,1.0158329546640346,0.9776396597438932,-0.4634040964682704,-1.5754237236458295,-0.9327532544085102,-3.82215489710465,-5.212126385317259
-4.65414295795474,-2.4933896375867333,3.865292068204951,-5.62514778697178,10.46486811363527,2.482274862367205,4.2190864803748855,-0.352320452007806,0.3230852591710427,3.68187293439464,-0.2851430501761265,-0.371261666096693,-3.3073554683246225,-3.902504257713286
-4.48927010419791,-3.8839880785772456,5.133917549240394,-6.808192050108971,9.101693816591151,3.820228945378496,4.585127278405438,0.589394690272691,1.872699494253407,5.904915084791504,-0.9311260518977372,0.9372665738232372,0.1136155491115974,-0.4005212888766287
-1.294854359628001,-4.315337757041372,6.3401038640014775,-3.782386427159637,4.539409293535307,2.7944465365215088,4.3762466867766765,2.578062830124514,4.075981748386219,5.3271487644714135,-0.245623685498161,2.329086121221419,1.4951823492903684,3.3996467150910448
4.140555279743968,-2.7478401545722138,8.23820292234726,2.2391477026134154,-1.649507432419366,-0.2253983194238777,4.7487269091694175,2.97118823228448,4.410792630784039,2.617947731477873,-0.519214940735102,2.9498703903733308,1.6694654969071316,5.2934206499277465
9.461383126103954,-2.384217079301248,10.519533507820787,7.741900334608438,-6.343857328886983,-3.7363460655661136,1.0088917875289798,0.0090426972099475,1.6202419833470056,-0.7328135444040775,-3.417039100035184,2.265367469219541,-0.4295035816195571,4.727329219922101
12.508638857232135,-2.8770380833205564,12.000192950700544,9.376308445996958,-7.011951208242543,-5.945181364805155,-7.266218745842877,-5.66384225959019,-3.170884061011876,-3.394356710439116,-4.203198118182912,0.4404987821262871,-5.830730091065686,3.012785629463277
12.858151800007477,-2.8422392499468465,11.72440805084711,6.389824674887935,-3.667260485327507,-5.753636255928996,-10.399193218506442,-11.35115174256764,-7.307638385760889,-4.815575867965839,-6.401722259676006,-1.5962101566736493,-8.665763254976557,1.880448794427036
11.844514066881713,-2.7905016689196613,9.908118862308418,1.102114091988749,1.0362456096777724,-3.2813963140376536,-8.899641515372608,-14.11404515279806,-8.588573195669717,-5.2804827808941255,-8.620217590568744,-2.578969435460729,-9.17840784703762,1.955724046041576
11.05002498551995,-2.5673124678510257,7.686501506977629,-2.977123210302688,3.678755636982327,0.2767681896005847,-4.740158717155453,-12.675242469225898,-6.797515263581108,-5.493446676048379,-8.699223051728511,-1.757793982518912,-8.837194710133259,2.498839765996511
10.672038588793365,-2.0434880445154144,5.851667915845338,-3.8570844132997593,2.4165998204535786,3.306465242418044,4.282901884795568,-8.222791451685163,-3.773986079356005,-5.95700812715449,-11.686001010467532,0.3300124664473891,-6.332184030532778,2.349808157051358
9.373985212501807,-1.6007961622944231,3.929522639220142,-2.378203697237959,-1.9561511106643523,4.621210714598979,6.827210502668611,-3.730750324304096,-2.136689124388385,-6.54514188354565,-12.830474010063648,1.8751222415867783,-4.910021523701939,0.99203721845827
5.817763441653539,-1.1849692163516248,0.7140214301840899,-1.114160391379107,-6.795284074902617,4.105203834894191,2.404877209939884,-2.215981728205132,-3.5654794642900693,-6.654325502429053,-12.065565732793717,0.8597532580806186,-4.581271081819553,-1.1663816161128384
0.366296396191542,-0.8217119149039261,-4.148512723678589,-1.9377706538258908,-9.387825805924422,2.765679535263581,-2.136220121111028,-4.862309926633615,-7.678773247517259,-5.9040066539905744,-13.57391130462656,-3.4346320605680507,-4.55784998116802,-3.2901149672617365
-4.81061753377269,-0.5839527603675201,-9.183850058719596,-4.440703797566924,-8.375029996377654,2.065997914101154,-9.45230495272648,-10.103086270873016,-12.168632431979564,-4.76061847454634,-11.910037673117756,-9.6046439011416,-5.615855790247319,-4.766418867402687
-7.435732970727096,-0.1125090263031063,-11.939895330714894,-6.522398610016241,-4.077397960091874,2.909871686730223,-11.501073812327396,-14.388612926433414,-14.175793308309991,-4.324352871917073,-9.512339941451224,-14.736935648175152,-4.288411622689982,-5.477195852466247
-7.013517907247078,0.5832770616807996,-11.072197114937484,-6.432130243603607,2.065303914784626,5.000537499360728,-7.069653255629455,-14.3888267494645,-12.117196634837596,-5.225900880773479,-7.575080029092211,-16.146054389322867,-0.44054391438039,-5.638625159053191
-5.103754876590129,2.391727074716594,-7.718482112978999,-4.280512525656004,8.261669592690051,7.082365812033078,-4.107646331263576,-9.2715099790163,-6.756252278229736,-6.597423476142364,-2.1332372995687594,-13.052125585729726,4.364694778468922,-5.489731338460068
-3.8142661757961047,5.496429695604708,-4.754295238274108,-1.7098956368993647,12.88049673091546,7.859311434655297,-0.6060026967336085,-1.389142489384737,-0.6949661572563093,-6.309509417247823,3.146426851056037,-7.034929235249086,10.98097165648307,-5.116435824324748
