AF3,F7,F3,FC5,T7,P7,O1,O2,P8,T8,FC6,F4,F8,AF4
-2.1168607964221087,-0.1227103213741781,3.3439729499505733,1.471729842895522,0.7786622914987462,-0.374428635831478,0.0722282479330651,2.4704314050873624,-0.9616002627801676,2.8918236285050503,4.240039635527929,3.229670295732796,-0.1569733775985957,1.5037648241436212
-1.706687003560578,0.3310296333608941,7.160786481581886,2.4298951324380416,1.1614654921689986,-0.3661559602381022,1.0594896491666383,3.5946698884732733,-0.7690871833856342,4.43782777262461,6.978880798574466,5.207591911938018,-0.8924482416702606,4.200132701333974
-1.0170215500079982,0.3369940331382975,13.576874768150168,3.477202129931209,1.0924787613932558,-0.1884778509846238,3.129921322136501,3.3542369582763643,-0.1311210078869774,3.795497632860735,11.292942068359038,6.366941035416527,-1.7796516557034965,8.042252271591796
-1.0883202598953197,-0.6020911281029218,16.742464625440668,3.528608032522621,0.859839055968119,0.2871940497470039,5.487296780616312,2.985215528105514,0.090015376569239,1.1305481424211692,12.75037448273082,7.046830417305428,-1.484279293478279,11.659622971820458
-2.096423861743596,-2.346464085154285,16.807043586145205,2.352791890511243,0.7647247876109331,0.3645110498251913,6.892693596244996,3.5767880385136297,0.0840101416012105,-2.220711517506609,11.13357044556811,6.5842634923281285,1.046503311098041,13.496987557941972
-1.1524736839081644,-1.2124518740026535,16.81287480740976,1.9169289155661091,0.8024291532426755,0.4905374326174645,6.599969380792977,4.804440357607756,-0.2688055926804285,-4.342602550619159,9.597397325763932,8.66954733197895,5.414614409273465,13.121158632563713
0.8051867826783787,0.7031397593526669,15.51223487685436,1.994920994633281,0.696283522609022,0.9087343456844664,4.967919446151186,5.114480558497948,-1.1301725401536362,-3.925116418837856,7.121545880222874,13.416990320943658,9.722018534537868,11.518277758096083
2.560459964327427,1.941122577585781,13.890647307527033,1.868955435461116,0.2769189942405017,0.5755948578017892,3.162157765142159,3.21083594502159,-1.0764628049261369,-1.188720403882853,5.900137618739419,13.673556353964727,11.76880037243928,10.178135624701532
4.674654618532457,3.0362729719080086,12.198883222065325,1.877810515870145,-0.2015171248593326,-0.2491874830990385,2.1138683185621363,-0.6146630557035424,-0.0782559365524721,2.272859574102568,6.452773832957872,9.77366871460486,10.545537389296932,9.830025154204304
5.396042888087528,1.5388419054536024,8.844584447428693,0.7714668830299244,-0.2046691540312917,-1.0430089120025192,1.6536629948974784,-4.580927475760518,1.851055389096825,4.645692804475551,6.176079993531464,3.1727054611409087,6.887991874552782,9.913978716720187
6.57102528491663,0.992605605412862,4.026146211505347,-1.597441386851411,0.5328834986865427,-2.626988504708343,0.6868819270765476,-6.83019910733772,5.119094813719745,5.063263888580564,5.667465988444049,-7.791649102770688,2.8748310065932565,9.145155826109718
6.655862767702656,1.8018448687634456,-0.2569650707291416,-3.475209803937427,1.5734793665936913,-3.5133945733943728,-1.6751636381987849,-6.847747473022905,4.960933715968245,3.855330290087086,3.5114731268066723,-13.427943643588357,0.4594946917249412,6.59433694677719
3.918021411915651,1.6030429114171958,-4.121285887548788,-5.1007155058926905,1.958087727228704,-3.233420982736462,-5.088312055106825,-5.6731184958319165,1.1161856624514856,1.87027639335954,-0.803829085020709,-13.262736429321397,0.2579340577970743,2.3716929451802
0.1912646073222754,1.4490592450448812,-9.080827461508978,-7.014703350942957,0.945561121523988,-3.435712961048269,-8.09681649835563,-4.855209178258539,-4.797951905258335,-0.3352647677353522,-6.2151154765757815,-13.72839847989908,1.2022172190212723,-2.5479791791248703
-7.108507475068593,-1.947835580917753,-14.787446533907955,-8.923524363050579,-1.30761692051483,-2.9403052860617587,-9.329745188330628,-5.163007673780384,-14.08245903196455,-2.721591093292692,-13.274795757077896,-12.57273668898486,1.2134219860198965,-7.080663926045974
-11.28010625972862,-5.268156420010987,-15.897620940922554,-9.302883558927958,-3.739889873430939,-2.326259634843866,-8.625472995160374,-6.115861356769601,-17.499035567234934,-5.429660425370542,-15.682165918424126,-11.446070465633616,-1.500959162035561,-10.66925724854804
-8.511501903987298,-4.390014070567073,-12.093173723905087,-7.991199914478058,-5.076608366388125,-2.7613100792709524,-6.981107999844765,-6.542000334406642,-14.39673453498166,-8.393671845048326,-12.828778400467892,-11.01778579126453,-7.22112930907984,-13.305239785077722
-6.304240595396335,-3.017751977233818,-7.71103378067847,-5.949050290178695,-4.663884844453317,-2.471816391492856,-5.391733419467427,-5.510435447102244,-11.079057371697203,-11.224188283048605,-10.272309360494154,-9.07628244187496,-14.248090918044346,-15.02434759348096
-1.594589227268009,0.6816955173463244,-1.5000101598988624,-2.7417217973865333,-2.841150345353328,-2.027511259391253,-3.759619994860532,-2.857586145866788,-5.289903261397412,-13.268381084354711,-6.494380937175852,-6.135392064766366,-19.567045997208464,-15.429610433161985
2.4283881516455725,3.61880535587762,2.5684761751416163,-0.6019739778234187,-0.6884175744513876,-2.5491710604330526,-0.9953419118126332,0.9126157761015344,-2.36765881084734,-13.7183113326553,-4.018968866087639,-2.343972653430573,-20.4381574970192,-13.758351507720969
0.782502533187175,1.7375159926591883,3.596342946858467,0.2260677811111918,0.5829723140689809,-2.6755148228833363,3.732348883271859,5.003442214132633,-3.3147560244880334,-11.90397384378516,-3.772136775749593,2.579681229210025,-16.082022987403548,-9.519240429841876
2.8677081708326395,1.2263542181917269,8.393766644488503,2.031393060451728,0.2380135805468048,-2.7611652562532654,9.76404358260496,8.578662692700917,-1.321178062100546,-7.879769551617125,0.4969528806622573,9.271757123093607,-8.36272526627411,-3.199782866847471
6.203465851424185,1.0840604910381495,16.092159204378273,4.303560300546283,-1.60577760168989,-3.77834232486872,14.928329196103231,10.867393155918444,2.3474267380601703,-2.9133383733465994,8.264819562089093,17.892978637135446,-0.8591996948814042,3.557064098002201
5.347257803097858,0.0427158758100588,18.11458610395182,4.484350303036197,-3.985591018031277,-3.2393079479843854,16.87115502759611,11.342887484764836,3.4880153240166965,0.8295700428565027,9.56594236441275,19.352101668157097,3.1755085324482906,8.518347660803656
3.76091777121261,0.5511670646824809,14.953372341836335,2.650690818959037,-5.584503210686247,-1.2813667751237658,14.71430744595038,10.013731902663128,2.811822357542528,1.576092123633734,4.788229817673686,12.996575793826404,2.562802839663082,9.85037109069496
0.1793174627863444,-0.6385195841611438,10.095465323336246,0.3361971731948787,-5.5590287128786136,0.1323011774435352,9.743411713369706,7.544219608761442,0.1093625946650606,-0.6781352929354267,-2.372103635728956,6.772234087865405,-1.5626849104443927,6.977724444970729
-5.164613018242094,-2.8119260751850748,1.7327662763978602,-2.9990620531954133,-4.166436761993315,3.119268516456687,4.604601960322199,4.94387801962236,-5.473449102056762,-4.001684756961235,-14.135119186733084,-1.420059190836274,-6.980442353133805,0.9145618221528222
-6.026007913323641,-2.7883185662705428,-0.9599184134036997,-3.5671064428237784,-2.5974409192288404,5.176112624357876,1.6281161432017792,2.986524017417607,-6.50180530578123,-5.92140972331024,-17.596147998670535,-4.350836362569222,-11.854879831103316,-6.049576288896234
-2.5124710531219367,-1.3374426871695688,2.932126069198905,-0.8518953774330483,-1.9907483182895844,4.299073241943878,1.511684690482312,1.8566070154054524,-2.723636228263068,-5.265130702973974,-11.63756521835862,-0.2725043421360993,-15.262992088534313,-11.192366040815456
-0.6396938485354877,0.2947376094171841,4.258340084994813,0.562572649392715,-2.414783312301993,4.127121518776824,3.2296196444277454,1.320358388526758,0.7669918731785824,-2.856588897608018,-7.215071698407903,-0.3092471425085146,-16.774970378005563,-12.488330690393113
1.402816719831003,2.09496850404848,5.091055554835577,1.5373582985981908,-2.7853896055428216,3.078881445814604,5.060957297213095,1.1701003551522624,5.637428844915618,-0.5458889916349738,-1.2982608305037262,-2.6763762381162843,-16.049659254568017,-9.583057528886812
2.9315909659060573,2.5697935725980767,5.032410716272494,2.082919398208829,-1.894519323395504,1.640083049895364,5.829059604691015,1.4190346244455403,7.4861124767665475,0.4007860119585311,1.763382046931816,-3.317978315668252,-13.088447950857176,-4.044316839886087
1.6381207512347775,1.302613816767822,2.696562873057386,1.428270757091286,0.3712513102670507,2.4204287750079008,5.444017588630436,2.057945156612825,5.392438327795355,0.0795591157117168,0.2262561060821327,-3.841268726667007,-8.732654021517565,1.4418660671194368
2.25374294287526,0.6520920388570784,1.5640936275031272,1.895718292523716,2.808394288807288,2.6721847585781666,4.538167541129179,2.756094979678995,4.41847445908526,-0.5836058005130969,1.3176817014546325,-2.8811598659217137,-4.501225026155196,4.584417683299255
3.1842581710469084,0.1576252317567732,1.1865061984926102,3.327126881577992,3.938998567414563,2.40227831577752,3.726721833717935,2.9564415533683785,3.401239733566264,-0.8665754384382756,3.705488920129936,0.0069453057844201,-1.6698104224861394,4.732769578555463
1.8927101476575907,-0.3561920291869156,-0.1396984549811781,3.93511831242804,3.3344781156035777,2.7573148181514178,3.177191112556062,2.3531582749813573,2.969340437820082,-0.7396533804949073,5.122384210719642,-0.1336143819524785,-0.4495448139493594,2.953252392063512
0.5354626038810522,-0.1361117798794586,-1.9322828116898765,4.062013596936654,1.9302139367688431,2.5627313896553785,2.7140396679650305,1.220938941907212,3.90294747390626,-0.571925208672206,6.52397040791257,-3.250170667017612,-0.0911704377740543,0.9165866271561648
-1.0985196816058704,-0.3140489941087483,-3.551333463800714,4.210212933789745,1.02134657924704,2.296961316170064,2.1612804248173445,0.1706265840476577,3.697347335823983,-0.6205442445649547,7.19234410349842,-4.750538384949342,0.2870043356641627,-0.4417450234736693
-3.110187084370762,-0.8424048592154059,-5.154810662860368,4.117611441781755,0.9612685657599976,2.549011256220088,1.5246834786018182,-0.4524684835853323,2.662658151053233,-0.8429832381146065,6.9008326411443655,-5.503057599601359,1.061361575670678,-1.3766412270491273
-3.121020048450937,-0.8775541759488705,-6.224278598975317,4.367163593038374,0.9170051537851728,2.629717697106656,0.9239285118959496,-0.8835409103224432,1.3987328130272492,-1.045950821859412,6.67367100169601,-5.554316743259463,2.1458026375003367,-2.6370580655574507
-1.521739228361538,-0.3974519470103859,-6.594634498709088,5.026175041757126,-0.0025066800410744,2.465535043814165,0.4437248983414861,-1.5915086220476704,-0.5230882475802342,-1.0578932597523174,6.329423216179729,-4.112742332709647,3.330035630943504,-4.415720038728672
-1.0120642190376363,0.4018434563823639,-6.408603875644577,5.421464420648299,-1.378258166859654,2.412850252447003,0.0516713351715321,-2.635820701172362,-2.1859643197008958,-0.7902338891095972,5.3761393754667886,-3.007544499714592,4.370393004861034,-5.984979738290143
-0.3417569529232417,1.5770451294217034,-5.448437004012762,5.673725936246891,-1.401908503375168,2.31387285759499,-0.4157741362650835,-3.476209570974373,-3.557336883981804,-0.2987642216641308,3.936815523171599,-2.0285688519550185,4.938610978283695,-6.291023157725228
-0.0130183947152175,1.7595257532760495,-4.702280933730204,5.571633857165217,1.5427069620414473,1.5326589445664007,-1.2269417830423317,-3.529570543330367,-3.818290395459924,0.1420427374706854,2.503635237794251,-0.9346087209640808,4.857122820843587,-4.889358682698413
-0.7650476391001844,0.4793787971505713,-4.180130626125987,4.976382196472132,6.978125965876094,0.0138989430769586,-2.6163726424089617,-2.9236014576797498,-2.6282921635295566,0.1229384543154168,1.05095455907031,-0.0580900219380762,4.53729577289079,-2.363967597492442
0.4143088580509501,-0.3303181879928147,-4.5685282569510655,4.45307025521765,12.026608938962095,-1.7873232337702702,-4.519642916854156,-2.578936316570271,-1.87151313375422,-0.5731450404329266,-0.3376404721757978,-0.188166650235584,4.89477650896284,0.0546988499178251
2.1306511767593777,-0.3164928068101221,-6.211232477806695,3.926924235303666,13.325814205808602,-4.273131533305531,-6.391883514223311,-3.372627946339197,-1.3162804865196749,-1.6620721714658533,-1.5243406128148165,-1.5182784674714591,6.406110003743704,1.27692213723458
2.4627820509378644,0.504662910390354,-5.503795705139055,3.8500580005122274,9.709848727103845,-5.197901820980354,-7.40353433857557,-5.13110676781511,-0.3025653435660947,-2.4307621001321387,-1.1745365315554248,-1.1369102602473518,8.149593099676478,0.9797244335564076
1.8628557210162868,1.1723303859405885,-2.464460178063692,4.378620652434106,3.303491312151829,-3.582584461240392,-7.010323370071445,-6.488391348834336,0.8564116723777176,-2.218553895884812,0.950028188205414,0.90846433517822,8.170618914888804,-0.2044049199892796
-0.4013755904924301,-1.009885495208136,2.058823361593938,4.572921977696569,-2.0386185104566046,-1.8872620666493511,-5.456799446624682,-5.902793631475625,3.2116957418377603,-0.8711629108748173,2.5902014430587506,4.250768091641067,5.304277445974549,-0.9243479482441774
-3.0614516427799834,-5.706756835980673,8.964453184212681,4.548780031200623,-3.65480221944704,1.2582180594563743,-3.722214711930846,-3.001771120715865,6.888782927435472,1.2757726118050243,4.030342219209052,9.6336086795545,0.866829713095612,0.2823275301237693
-3.5947434978801898,-8.661048118621718,10.661407294986931,4.126620883026013,-1.8445441884584517,2.407492044646848,-2.8933338051755886,0.9452999176381756,8.142852593367502,3.825154460598851,4.957955800888793,11.324510171456856,-1.6985238674671308,4.126886417524476
-2.152677589670194,-6.77808030765434,6.64182770997875,3.0973941050367566,0.914583162247391,-1.0414902026080777,-3.4899970260900712,3.861039614856724,6.940676783527981,6.665712195922527,4.879791705756767,9.052288899175608,0.6308043895841937,9.840715085600769
-0.076506120181532,-0.7189262308175782,1.9805713330156944,1.8511546382644677,2.339576932867061,-4.0413860990851855,-5.283957568720538,4.293240172484769,6.099351040850899,9.856938941216436,5.998594286718772,6.477235674248497,7.767792470812074,15.207876602326715
1.5399099170617727,7.515972701261436,-5.179389929666955,0.263737939885939,2.0369974563074766,-8.705067133440354,-7.633030881062953,2.302066906564997,4.844361154512208,13.192523866201515,8.185130476533379,2.2463415473402715,16.13246152243054,17.694329017168698
1.820850741898748,11.588350094842864,-8.270638192521279,-1.089870380562364,1.1799293447106631,-11.098378580896226,-9.898362215620894,-0.771499410995478,4.544462218391588,15.940208104814282,7.883945487805208,0.8839940452541948,21.08438042335882,16.128126714604058
1.4458930452433325,8.250978141113603,-6.274973059341977,-2.1214154272861228,0.907502918022356,-6.469503186549065,-11.56882929555246,-3.280483108074522,5.688141303656702,17.104871705470266,5.251064033917429,3.099328358120369,20.237862688335245,11.70710101521586
1.857466461943151,2.891612042038158,-4.8376582659837934,-2.5620719164816688,1.2425455056610488,-1.935736318734893,-12.183502726057393,-4.209370764849199,5.053538201838395,16.064161093604007,2.314124905787949,4.762268652319755,14.954399517165877,7.356249462998472
3.6849843279766064,-1.6017802706779245,-2.200772450669437,-2.1781273272414325,1.454777833141966,4.448482731893175,-11.381803434482284,-3.556954300214171,2.936252675616325,13.085340093704936,-1.6332648854231189,7.060060653748407,8.919448560928718,5.719571475904125
4.600906511974888,-3.0284745171455123,-1.3674226144575885,-2.644568400612921,1.146264545203742,9.266687707953054,-9.167210830597496,-2.125616136736549,1.90139116321836,9.320721484886691,-3.1700026873302267,7.227835651481522,5.1970711775346,7.294890541357163
3.149418786226306,-0.6935673220910765,-3.182110788679104,-3.920981534628686,0.7127481349972449,6.7946179760526455,-6.092609272176319,-0.9436929007277896,1.4995542801676165,6.257882600740613,-1.7704213141368892,4.531288616092887,4.294043008955841,10.219379372844555
0.1954320191232863,0.5947304370597934,-5.651847370328807,-5.912053327129196,0.7496845115017772,4.6890013565215325,-3.061916848830976,-0.6228270300372385,1.8535172580232144,4.953658241899761,-1.7009997491930564,1.0500949280929857,4.631912956197935,11.852232609282936
-4.65249642643272,-1.4695489809197175,-9.815352350149553,-9.044401160932258,1.2247106441941975,1.6135311457427406,-0.8264121924573864,-1.0008133337814664,3.453324150425396,5.493794210665168,-2.1731570672139924,-4.142062926557072,4.570360629215761,10.772448471564756
-7.090432368844803,-3.772327310589571,-11.234606496068755,-10.323484260727811,1.423372005200993,-1.4326221500092204,0.4163374744216463,-1.344685788638583,3.1914489530167245,6.979156008222551,-2.48419489747261,-6.676278621864257,3.882917949724364,7.543304416494076
-5.074014032620331,-4.295086742171711,-9.524558518259049,-9.655767177095615,0.7151255860021295,-0.0530802255145985,1.0052118945872728,-1.0264501411663636,1.041312623860377,8.044075327360318,-3.2856008640488024,-6.081103080294438,3.442482562900412,3.812884346757597
-3.1114448451676835,-3.662287283356976,-7.048345813168523,-8.730127852608724,-0.7359645633293499,0.3884891439016241,1.4521957301295814,-0.1136967378438669,-1.77838745912259,7.62787233770497,-3.3920559577727096,-5.182183378506877,3.837340213107197,0.8506583647174608
-0.4917808841713838,-0.8237126463661637,-2.6314741102300587,-6.846009367860443,-2.069866243531873,0.3791179749479063,2.0613741417982463,0.6948597027927619,-6.00721847741152,5.556541328356679,-2.819571271174932,-2.8175884644690683,4.597544254242775,-1.094694060384037
1.3858361649191648,1.603366905156828,-0.7831393585194865,-6.025250162268359,-2.502250255908286,1.11323587950119,2.7983605794426065,0.7509436997651342,-7.790631184211328,2.58726407218716,-2.874552293001432,-1.8700684402133243,4.787463875787626,-2.339812928528888
0.6567320630710335,1.4715483290842426,-1.943331006786986,-6.546235612079669,-1.9685742080147155,0.7435557051860656,3.409581858481862,0.067243702938563,-6.812761742570961,-0.1192541917685277,-3.397808374537374,-2.7452340370748005,4.06221477114446,-3.0811013402989977
1.3010705536123195,1.7179561606727436,-1.756485075604037,-6.252529714575785,-1.093497913424689,1.009214053668802,3.6429032263485,-0.7585725054313306,-5.3242028316948025,-1.7332356915085914,-3.0875100277796794,-2.376262421473718,2.906637202571264,-3.324250720837359
2.660583537177111,2.0504875009874364,-1.2370816476010271,-5.616315687665542,-0.6126936858578205,1.8489327276219731,3.432254672899308,-1.166429912753137,-2.328375317315173,-2.187826023213235,-2.086357165647347,-1.4346553179144583,1.9312938776730704,-3.260421438182581
2.479338493750275,1.3896138105342832,-0.5178347872077561,-5.1751271245779575,-0.8062910630762268,2.200319206460561,2.953062452324437,-1.086694875197698,-1.1980233425366134,-2.030318036689521,-1.7195246738213366,-1.1443536066959024,1.2628932483967512,-3.311770224501946
1.7643144089863834,0.631461672118784,1.0115252223990538,-4.661012558721565,-1.3754355755029923,2.3562575061745235,2.493780241545739,-0.7926045576558867,-2.3292178910330827,-1.8760001272325664,-1.8320087775270968,-1.1720111904361945,0.7489626376358807,-3.6484337559014968
0.9127246437887758,-0.1321817369962351,2.043921689095284,-4.37455866689663,-1.7828166410733868,2.1325773994332837,2.2017841807501477,-0.4830949015694603,-1.6860855786072546,-1.9569940002444044,-1.5521424827283326,-1.1242531912617342,0.4388749343367379,-3.900871604200691
-0.1620909193068995,-0.9702281990964696,2.70894848691342,-4.366508929235805,-1.7477904683466594,1.8319404282200284,1.93253360985978,-0.1722076526469909,0.0198936184343165,-2.121006662638969,-1.0803878122385957,-1.144963404098094,0.4487186692242559,-3.6659386279915687
-0.0821358519168579,-0.4487760058300215,3.254695238672177,-3.945185780267852,-1.5248164448564498,1.8774037520369504,1.4281965670282872,0.0616067324781841,1.3429521777024986,-2.186577584109969,-0.2575126387295029,-0.5735182347832113,0.3475838965462063,-3.2943717817644966
0.5212443872723974,0.7113726007018509,3.4417395523394267,-3.140394040294787,-1.7053309981090123,1.3670150308956632,0.7391283284383743,-0.0093698364583509,2.8432879984091373,-2.2321012387592685,1.070380941896767,0.7017878345231651,-0.7819248807027517,-3.790754126056166
-0.4005950318836652,0.109055245000126,2.369001638339231,-2.605456179036762,-2.6373652821918725,0.7932634276757738,0.4347214390683049,-0.3956290668397599,1.7195142912129164,-2.516847782254649,0.4623150486507081,0.5163437629623124,-3.167636242116222,-5.61673352414088
-1.8128807140739396,-0.9144050292900472,-0.117209589829737,-2.232774119514263,-3.944237812051704,0.4924768717320203,1.2080814861031843,-0.542705814178845,-2.4358268445007747,-3.16580818424098,-2.209709920014016,-1.1101059521971932,-5.33753708844853,-7.733044787431034
-2.4684310917055106,-1.5147784568498115,-0.1169227291007114,-1.7366585293623742,-4.699024054849183,-0.451210478756794,3.1049369669796576,0.3432348909094074,-3.3038929547164813,-3.98644588384564,-1.5228346309737972,-0.3290095603052057,-4.903011861427331,-8.276726827421935
-1.9980073672643688,-1.4106249671292668,2.419658491574582,-1.2111180459542212,-4.246186461442196,-0.4130260418544989,5.166702380483756,2.4210496292404464,-1.2273422720047615,-4.626673188538799,2.329931807275723,2.664486455976544,-0.8733625752751699,-6.4475903037956
-0.3359261780188398,0.4052724805636753,4.99875044630528,-0.8602020716879614,-2.924564303061757,0.5164799926075699,6.065333382041519,4.763743700395683,1.445127430665383,-4.8894420059907056,7.65522510256412,6.443735969866801,4.861711854802742,-3.529657151040748
1.0907517896145027,1.3957357078233148,8.479855123528978,-0.6733772979522038,-1.8855941346832843,0.5131988525861535,5.324176631074312,6.033043469848163,6.031511832322735,-4.859956055792527,15.685166105407047,11.83192682338938,8.796041431529822,-1.6801545219947052
1.0076460343059876,0.5067537363147199,9.504618063960097,-0.4508850920414811,-2.075728777992513,0.5469232389084373,3.938841412898565,5.7371763040749,6.827335404067259,-4.740132904120021,17.456623031995612,12.8666441683638,8.86385306878347,-1.6447240776258738
-0.118681010969123,-0.6826799043511333,7.519758367391814,-0.2277648132584458,-3.389583910780086,0.3278553098315614,3.612116103976735,4.740645229576607,3.3219993847318547,-4.607852829974785,12.265460752514931,8.994172070357214,6.21522483703556,-1.9356983079613637
-0.7152172645658023,-1.513652641230074,7.482091894671129,0.7220460942524316,-4.868417746967687,-1.0451254587613803,5.16516537856581,4.403005967269749,1.9942222087901096,-4.3864582119959294,8.145195279607266,6.524622928584527,3.8484529409174257,-0.5143223834301622
-0.2845927214374651,-0.7150047190711608,8.68300477963273,2.5098620871724537,-5.699346313703174,-2.029030069916472,7.641448529827649,5.200494272996913,1.6788361557633713,-4.043164193403335,3.0615457932512933,4.155709089980072,3.5469915029649077,2.805255912201829
0.7228806079042557,1.125180420651799,8.21663353255351,2.897165449084438,-5.908391359331468,-2.2689579565922675,9.056658239425808,6.265874948076274,1.3398672532549194,-3.763955564659213,-0.0569725717815334,2.1585273962016243,4.312184064170687,5.87801163547163
1.7028779240309797,2.0296089815193543,6.745830363314161,1.919248208634664,-6.069621857178525,-3.0057674594113166,8.135697839343504,6.292561015527411,2.001465871802304,-3.870451283117063,0.1537615408993008,1.5642458557119336,3.7514394946031535,6.214445715795144
1.983104968491509,2.070216695400541,3.398698492901848,0.5442544401925279,-6.528854330790907,-3.659293856369412,5.374670328133817,4.812862765586651,0.0448545994767238,-4.527391294609956,-2.9532225881661445,-1.6473257283693443,0.7110368291838896,3.3108947607132717
2.0495534439554395,1.9311185102908104,-2.3848364111204976,-1.7313459229888286,-7.110679208565038,-3.8093139819541335,2.45375003241373,2.552029129864586,-4.662778409220092,-5.53235840148318,-8.555543265911252,-7.285681254382482,-3.650995449690356,-1.0307716279349035
1.773993774186465,1.479460477718382,-5.316515440828669,-3.086913361814374,-7.510143858437082,-4.482496137522934,0.6935420298094144,0.6415035994456204,-7.151132804899285,-6.426651571063452,-11.788925634165558,-9.932889618702127,-7.2391563044468015,-4.487566570148111
1.0666988236695918,1.0071866460382324,-5.385720170950378,-3.3488107564692737,-7.690163027824802,-4.842772201227978,0.1134952920870588,-0.3826356549713452,-7.953163218882474,-6.863978649382688,-13.486941797403766,-10.003799250197943,-9.091856555735037,-6.117062363041327
0.074104353969126,0.2654583090088382,-6.1500216449285645,-4.119887736082135,-7.7448741598998865,-4.507884986084574,-0.1375914081039937,-0.8315449556761791,-8.76699342951044,-6.905689796565504,-14.410684002251813,-10.12897194747748,-9.996401153096116,-6.651115299841031
-1.5011479519345086,-1.2467624780552504,-6.510711675027827,-4.978141412874528,-7.600628461267341,-4.633075844419962,-0.6974731022082992,-1.3346467898620418,-8.682145338550496,-6.951013834204062,-13.710502278258293,-9.286008507071196,-11.313974209697854,-7.362615986548569
-2.0546344393107416,-1.8208205788336276,-6.812295940791458,-4.52547759572505,-7.164382808377383,-4.384743334711922,-1.4948444600519508,-2.226723977644376,-8.834068314830407,-7.350003833827557,-13.841413999227465,-9.33749782999001,-13.548481661726402,-8.919249219188714
-1.6389506879838391,-1.4179101421214195,-7.461853240465166,-2.819295582490565,-6.752168401007182,-3.4954123656828937,-2.1943583669334785,-3.3970497628270917,-9.321599658223317,-8.063246489772059,-14.823544320229647,-10.649625973597807,-16.10400051919526,-11.112721749058837
-2.3737198662029853,-2.212322552157272,-7.501109943502922,-2.24994029496684,-6.935056031262334,-2.745746090970873,-2.7922269755758578,-4.5118120594894044,-9.20833358136571,-8.696421946321113,-14.85086434050018,-10.959155500524076,-18.185694313678784,-13.222342799429004
-3.766314120064613,-3.958839656543784,-7.109774254309716,-2.684283436808214,-7.605136126952168,-1.433601317926226,-3.5384651623864904,-5.242553611767974,-8.731133414986411,-8.866202466430604,-14.39908126542538,-10.71784025635862,-19.660684483467247,-14.410939443324985
-4.400273214701625,-4.990491495807461,-6.01498457839572,-1.3080178187510256,-7.347071569233421,-0.255819179344385,-4.343250861780863,-5.355185186057675,-7.696831195818659,-8.529358044295364,-13.167490312178494,-9.909187157693257,-21.019344366818306,-14.042250526466184
-3.338902062871182,-3.9968513154328074,-4.040852675405629,1.570769928124601,-4.289004905680571,0.2908019717976791,-4.559056322344201,-4.784992812454426,-5.962299060412255,-7.964260405709716,-10.8903604359574,-8.170622296206206,-22.66531021223826,-12.04325117300998
0.557108707004079,0.4669927783735221,-0.541099786210765,7.908069488711304,2.0124845717313318,1.1508811546544582,-3.5747127772259475,-3.734268746271528,-3.1612471179392663,-7.465226423466014,-8.012351073113193,-5.281386086115957,-24.370339983904643,-9.109742111285446
5.9955712076705705,6.9879630504747565,4.719446710910545,18.52570150688889,9.630149305070407,1.7671072706637083,-1.5985298694721877,-2.635671088910893,0.868991291765817,-7.079730818827464,-4.365140590332406,-1.028118086807279,-25.398364710986357,-6.371579871287352
7.772966717396654,9.188820010108936,6.835024356239093,22.40279263936477,15.541779012271562,2.2720968943719377,0.3234598054148812,-1.8872880886637236,2.510464180892994,-6.608491000805039,-2.7609205519764104,0.7360059369233408,-25.088441942826208,-4.622630885735557
4.687910977937386,5.3830209687128034,5.624326660500245,19.408603043235345,18.038533809298823,2.9363041807180017,1.1895383200307883,-1.5598378872039795,1.5929589857307715,-5.797268163306381,-3.5057626452504747,-0.1852871518280465,-23.324016126498314,-3.797416965669514
0.6485698978318479,0.123362597007678,4.832499840947127,16.266494749359772,17.85909774265972,3.075780952442459,0.918004357679278,-1.3861295546961152,0.9476947294447136,-4.512606360133175,-3.6190822110572913,-1.0773997300731366,-20.54372968499004,-3.2308511705937253
-3.602350974313322,-5.444647009540252,3.3752288685071443,10.53780224855824,17.01003470498489,3.178608145533959,0.2920336101670653,-1.0642242156616175,-0.2391895099660653,-2.8114377230640404,-3.750385045629313,-2.844763670027117,-17.380616599473328,-2.38946339597984
-4.823712630458937,-6.8007563852028845,4.167913624448574,9.155172158682182,16.75200118969606,3.837120236407544,0.0708896800455498,-0.5570658916882376,0.2619593322936971,-0.9395967661421932,-3.03165681061502,-2.5513570068785163,-14.292193936803638,-1.2809745304970337
-2.163258364723722,-2.844016603087142,7.935275091752898,13.322812698900648,16.924007910891167,4.687003152695449,0.2613839725667759,-0.0727277233364525,3.0034647640025707,0.758867485587519,-0.9213096527046256,0.342257218887107,-11.421485817522091,-0.2078518732289787
-0.6697282377525688,-0.1718982229563645,9.56873257761294,14.205013301530034,16.955082451840173,5.883577816864816,0.3082731803457896,0.2269202062584536,4.158547995691984,2.075496999236597,0.1171779141751857,1.439305482083006,-8.68544093183604,0.6819785830460043
0.0825199356357694,1.8191464791807848,9.724362030646851,13.413161562365252,16.898572087070924,7.4548025149379535,-0.1016515934092137,0.4363442384475489,4.236826265573263,3.191593341174203,0.3529268568263256,1.3775215046035592,-5.927226234899284,1.489934955534446
0.6699236777009395,2.7048668429239338,9.099650446707916,12.04255808344234,17.084635044979827,7.336196020527073,-0.5992045000479078,0.7971871931946186,4.294316821648889,4.62738426611081,1.770295836291231,1.4178798256429648,-3.006225147210855,2.351473637336874
0.5403146950867456,1.2802795968465774,6.73975052868373,8.699867858227627,17.052085309202912,6.009285797187383,-0.5719614993356523,1.3856737937830452,3.68146310824502,6.723293488831716,4.060353766659527,0.8443789974723467,0.1329631335940853,3.3441329694704685
1.8398469122185257,1.5636419276644902,5.264241093884735,6.553214824775148,15.505108319317785,4.594760299484306,0.0327360798533948,1.9415683654512976,4.108841425229428,9.048963281893144,6.531100468934461,2.138058005642275,3.3650734312750616,4.616178536653789
4.206980235449065,2.441787528067361,4.624167258352878,5.515647469905892,11.706670845003185,1.466042793702952,0.4840403888525557,2.0403142555413964,5.701964319575642,10.453388024536157,9.504573145353511,5.529270699338459,6.381234907562282,6.355808360514284
4.807243900816795,2.286389760130091,2.3846695607544213,4.038712357404274,6.68705296896608,-0.0703044882007359,-0.0681187399881544,1.4845505877461085,6.610978921159321,9.969956476198243,11.490260089672145,6.658717484707665,8.90871441679975,8.379869637108879
3.473664471545669,2.522721432072993,-1.0413107395262509,2.738744684424935,2.606634017335129,0.2709089195250348,-1.7169900987550086,0.5553710994065568,7.167400797247168,7.8457336415031715,12.309929317868548,5.872647011405267,11.044728679415238,9.840771296903798
0.6002543482015354,0.5889498827553739,-4.956390789770942,0.0268223074361482,0.7464997146947034,-0.8130356520101508,-3.627852719096886,-0.1225166237078276,7.248177374522629,5.604688668888048,13.4244487886319,3.542317123559362,13.26999858111088,9.678735331060022
-4.210516565009929,-2.945559307213167,-9.739077193499307,-4.347794139815975,0.3180910975425561,-0.2675419795376479,-4.752379433806098,-0.0276753138753491,6.516171256878631,4.887145195497105,14.47891051505011,-1.3097946291196398,15.923480870266092,7.665485019603782
-6.911066857005019,-4.4903169058103725,-10.795266611593444,-7.048534706898464,-0.5851442314995836,-0.3105183052676595,-4.710387110272343,0.8334647098247103,5.373266241998394,6.062054996485546,14.476300141556123,-2.272817925128209,18.56741518148484,4.986366346964619
-5.831009564220201,-4.413297309389887,-7.653180538175444,-8.292681499997714,-2.994028110706587,-3.0253364469198587,-4.001004710710475,1.867958825039146,3.6492527817056617,7.936929724514421,13.51349649283618,0.8757670610984306,20.09349880354818,3.5594439109704297
-3.945500223847856,-2.932145943310393,-5.7442999199220495,-7.449190847253045,-6.231775888273688,-4.338071016367926,-3.442060867117398,2.2516256151746745,1.4866282184497217,8.847767238000849,12.114304814147063,4.341673723039678,19.799468766031545,4.543830362933619
-0.8949400570054009,-0.6327840990198063,-4.08630803513952,-3.6518722348010737,-8.96828502344247,-6.374291257420422,-3.4747193861939465,1.4415246597348457,-1.0997014305215982,8.068310795423542,10.091671279381558,9.616053276389584,18.46583091489279,7.406585291485058
1.5833431776329248,0.6589888067718044,-2.724667080096084,-2.5175810190749237,-10.702201734365325,-8.096093950813785,-3.972161091247372,-0.5118245476319174,-2.696668481744037,6.238726867808978,8.807828977710079,11.494553926376025,18.083630239954356,10.406587309906584
1.3320484500816383,0.8415277167836961,-2.606916268824204,-3.9632901284851134,-11.914069947475028,-6.315778097037891,-4.558547565438168,-3.004494459135508,-3.118147987270243,4.575273455472853,8.447818751610054,9.236981930256976,20.08289979035061,11.95754599422512
1.098408978135689,0.8680964320577016,0.4203089827635354,-5.377154375613005,-12.922893495334796,-4.473080342494241,-4.958879577343652,-5.166968864298255,-3.726757493836989,3.7878152901248185,7.253025483601828,8.028610785503291,23.64209093947097,11.583800698569782
1.84930510316577,2.1375575415198527,6.276531617534007,-7.979985095644179,-13.065795927962805,-2.0357786219889977,-5.052667803278709,-6.23104678083952,-4.159216197113098,3.716977635074976,5.521789813919902,6.588558601878802,25.943607923156183,9.80588220099832
2.0658468353701864,2.69464730428891,8.132654868454486,-7.847793673240656,-11.324587292396686,0.1461558143797754,-4.777567933451536,-5.87681017623099,-3.261268385188417,3.800488145584509,5.021337310310901,6.168120373357635,24.455934139355374,7.445764955509418
2.228715724510813,1.378249445774697,6.36226068131323,-4.53589032787049,-7.691449235246196,-0.3231148894524437,-4.168837591991462,-4.453114866590639,-1.0808870525928056,3.687590182067538,5.618530937597365,7.587205630590174,19.19828377867512,5.205454459887221
2.8060667583985945,0.6010456448559115,4.5580190705116514,-1.9519787398398831,-3.6541972682347534,-0.5882607601413463,-3.49366366624065,-2.8653064548147285,1.9882755271315344,3.406711469672388,6.816955589639142,7.782371955348712,12.812246663967828,3.709495109135034
1.737245092458099,-1.2105781594904017,1.3819235565102066,0.8007818253284819,-1.190436580404338,-1.026497979189022,-3.163970276769774,-2.0145052388778737,6.219090998448934,3.1276300031007054,8.999428628059363,7.198278271105745,8.38408000432301,3.506163329432468
0.0139412206737633,-1.7861736839364202,-0.1027894503923983,1.474067231457727,-1.2715035844028222,-1.5542416881775116,-3.3479740569904664,-2.0970617922593533,7.719509336139041,2.920849933180193,8.705455961020707,5.405799176572121,7.098686437335886,4.657519313086908
-1.112216708035076,-0.155969760069016,0.6818489142870174,-0.7286231633018971,-3.265901297222868,-0.9437798404742423,-3.650007967416798,-2.382541112550868,6.131824838209884,2.737893988483308,5.651691524771088,1.7920668634201955,7.781961761351425,6.326505753707721
-2.4237166907361085,-0.2118753568554356,-1.1858734772621216,-2.3401461338637364,-5.550397741553098,-0.9188083660154688,-3.3286463659001413,-1.851330914413154,4.829337238574042,2.4998246835798312,1.7863475058029037,-2.1932828773139863,8.339282811493064,7.004858104670589
-2.7369149032436453,-0.5595917765764686,-5.084510468034451,-4.047823565017778,-6.573369706580444,-1.1046723948929265,-1.9601179624321572,-0.2088040977982572,2.875169675250425,2.1522050565711126,-3.805519023832778,-6.850591955906646,7.413915729473381,5.454722520206083
-1.6300714095947175,-1.656799790942738,-7.219570735197806,-5.302191069114004,-5.57871945197563,-0.9386970910785856,0.1062100110121164,1.7470331977836366,1.3490310516757444,1.7099551446495769,-8.17631546739907,-10.089888694955976,4.908954791941326,1.6367760925323296
-0.3535513485630857,-2.698845405271441,-8.20116281366968,-5.501982920840911,-2.8282034997677457,-0.9793232861570248,2.0117422252843795,2.883969871414223,0.7582759321648019,1.3255405668110711,-11.010565601345576,-11.488571935453828,1.5353208405235534,-3.186686084376369
0.1948011682331425,0.1450228330252591,-8.51591140585317,-5.779344476928449,0.5223318011164437,-1.0629096863047274,3.1283393247708773,2.8767081868040094,0.1447004412963923,1.252067185281902,-12.383472769474542,-12.470526552840152,-1.7140979791535995,-7.266170802734038
0.7339540561600418,3.896927950340512,-7.46803575326717,-5.785250216872859,2.9170731868215967,-0.9549041643166812,3.5174865707648664,2.444839858210827,-0.040947602435197,1.571556698894149,-11.337445026185634,-12.368378392755762,-3.90616748607183,-9.435672855391095
0.8551370321597969,5.728030432519259,-6.654188250263728,-5.7797001095859,3.272809706175636,-0.5730644088208688,3.6807914225632175,2.347908676684149,-1.2708499853518356,1.86337631759676,-10.96350533704387,-11.31665648111632,-4.7525809041806895,-9.700398292293094
0.7575523500880154,5.132841222250465,-6.006565841799701,-5.880570618637187,1.767004659643305,-0.5141942419356639,3.976857337552097,2.2768880228029573,-3.6851276497020455,1.234457327440758,-11.040271331443522,-9.328877856989571,-5.371829910015542,-9.083643933815353
0.6925522510959492,-0.4115698187239881,-4.196289289091593,-7.078756066091264,-0.2240552671459497,-0.1099276762603966,4.387298135286756,1.0836041064982993,-8.605858006412097,-1.0800959356860176,-13.421885530624555,-8.322921677933113,-8.148892658668636,-8.922681057739567
-0.8551245205898255,-6.25979403628386,-1.464135691070829,-9.600415509191578,-1.1944440592999896,0.7933903212301052,4.803746096813086,-1.6936304306201748,-16.641599201398243,-4.940964527016391,-18.99664628594076,-8.510975097905579,-14.90911056452982,-9.974458261875624
-2.063000401986081,-6.9933291317318735,0.506122608511158,-10.128687434636628,-0.7175390379843236,0.811533986651465,5.333469628111104,-4.719589309300943,-18.72316827520944,-9.083040170462958,-19.1653624208574,-6.581812886869208,-24.4806394246893,-11.740819658819518
-1.5046965652352764,-3.9065929906482864,1.7800317474068506,-8.734749810029923,0.3576389838027154,1.8837494286520304,6.157592048973058,-5.680523708090185,-14.641741090988656,-11.771578202640512,-14.059872160843913,-2.854661479212788,-32.15845039901148,-12.457863581696216
0.1972992774287098,1.5488952979094686,3.4996099410173005,-6.614766041950283,0.8600994284289669,3.778440129220173,7.119111509025267,-3.463475677874129,-9.263028223597212,-11.874175919333616,-6.470553699866975,4.161549778532335,-32.45408529760118,-10.030404581315985
4.0585825059194445,5.654507657330118,5.336019603464992,-3.0116969080581546,0.3948526115263391,4.4899906738953606,7.672041785016972,0.5780077179061323,-0.4507178566217101,-9.49183903406022,5.613419418044577,15.358051287459356,-23.40673128745412,-3.584609657557486
6.256907864772835,4.796177688308251,5.971270125936465,-1.847035483565028,-0.4737258988799908,6.263896449618124,7.41253384173784,3.788421723161431,3.831308334275488,-5.700285268467326,10.279243393109288,19.38063064172561,-8.760292139682466,5.409520129106856
3.4165168631212515,0.7724257627360448,5.405771973835872,-3.4317420996364825,-0.9587412891656372,7.602101147680617,6.626695304148274,4.7492752265454,2.6253537776544986,-1.7439821659033008,6.658133642632256,15.972791905468222,4.256146469501722,13.516153050198898
0.1171286442697407,-2.022285259202595,4.172910125116386,-3.3121626743997146,-0.7976143785908789,7.259199616569789,6.138166775218721,4.5593914951656025,5.112519096099012,1.5930393815414092,4.937344580403519,13.143771620170153,9.977962420378583,17.283954120054744
-3.9914885052896176,-2.178586589247435,1.942687554314188,-2.273305117140864,-0.3084605250849321,8.526590869194328,6.483775605771701,5.485607393457059,9.554149399044237,4.045599316495885,2.4181209268442823,8.425151170706162,8.056744899572989,15.494025343419818
-6.422686301804822,-0.5722381976124394,0.7121006094640863,-1.464203105771209,0.0566066673894276,8.689703180511085,7.254853024317728,8.39748527246182,11.933893832521557,5.565413466327336,2.661524161276722,6.450867262669299,2.9631080320775034,9.97585696304558
-3.4776212902749704,1.1699338414537466,0.6482538547248272,-0.2148499437128977,0.0437242454896189,6.599223064869123,7.34874146320346,11.676182269041089,13.380137414594811,6.115665522049177,7.314869688258493,8.526755066363478,0.0374701112824595,4.282130553199016
-1.313920424223625,0.2947433362762036,-0.5135329150591624,-1.3164484145191355,-0.4118109165383199,5.474397591959423,5.944878654279285,12.69492389897635,11.874038835973886,5.749116658935551,8.576003607218334,5.533787956644311,1.636522147357307,1.2389565427240736
0.1528282443290832,-2.679414309437565,-2.365613599674269,-5.032859171121674,-1.2607005720460194,2.6326149079770835,3.2685036244009336,10.303887650989113,6.643840624375665,4.758223102683006,7.456930081607872,-1.534545398735574,6.308049614304329,1.2949967864969771
1.425308440701815,-4.037027041054094,-3.2781239521500054,-6.592415755958875,-2.308982698447,-0.3467199995912121,0.4439616514379807,5.8615925759905,4.629932311735912,3.631634389051822,7.134211713040791,-4.492185258560861,10.94469726211276,2.852000471868028
0.7451747808516284,-2.195212110892121,-3.478894780342387,-6.407221053437639,-3.2554909244565025,-0.3657846329255017,-1.3743276242778464,1.9781422894416991,5.591685283963917,2.7904310188864088,6.397431708579142,-4.429874398739673,13.47968513816906,4.021684841730412
0.7735700668699198,0.6824923317449992,-2.901945506654257,-6.0456611130641,-3.933925365447848,-1.0939484164759818,-1.7895163465230226,0.3767257281131222,5.595213659578488,2.3454559857050867,6.205302842484429,-2.637408520553141,13.90264033782134,4.131774986271033
1.3489319930028316,3.4195881877027685,-1.194111656488043,-4.57676983402579,-4.4976865483231805,-1.8657811898130905,-1.2638756947484424,0.8496838007407348,6.011270683593099,2.1056687457357697,6.904492226056148,2.4741828815034417,13.397782595210671,3.780633440369712
1.1375443829716458,3.945137536329898,-0.5972271241449412,-4.4134893143259415,-5.215918732654032,-1.9542600714083576,-0.5984643944978814,1.9483898248144695,5.87117283168354,1.820450388576802,6.975333878185107,4.532183376833238,12.99732116005464,3.7485603981297686
0.3016337135999825,1.6722557610588835,-1.1325830102611558,-5.73248492448828,-6.071516096545977,-3.447575523588128,-0.302903475402033,2.438023637698649,4.741547719517913,1.420819804052016,6.672587370225909,3.374616433034617,12.992873556531563,4.093500582932521
-0.5243944852202713,0.7608243851601821,-1.1387738213728251,-5.909227043132861,-6.733109821734772,-4.986827642283121,-0.3235491195337232,2.172212011823831,4.366717080773815,1.0384462034827493,6.887762004233027,3.934515038787603,13.187036942606897,4.3112174612160885
-1.346718474184183,1.0486153496774122,-1.0700482651569645,-5.408900856265774,-7.056084337250439,-5.826728883247409,-0.2492896448056569,1.8647249762712192,4.470170967552991,0.809987874523344,7.4472425631666415,4.911308491376564,13.32539009019608,4.154278464819612
-1.5376497327503604,0.9721910280087706,-0.0309944899274775,-4.87853581221929,-7.460265812922643,-6.056924542914076,0.2176970893801808,2.207270328912685,4.149957388597676,0.6895794927163195,8.19807046792853,6.025819722527441,13.289033769748642,4.00497641266297
-1.0421537035211508,0.6393641170673435,2.276916570568237,-3.921370208480071,-8.497836817787118,-5.757417574759867,0.916618420977585,3.1457326240197574,3.625292103244804,0.4877398473301753,9.287480203398225,7.8849805178339745,13.132009409167551,4.324687441562958
-0.9639537309353806,-1.0346246417639555,3.5188318983427376,-3.108206573173744,-9.934472002585096,-4.927354122063631,1.333719611404632,3.8787182322008102,2.881873432376497,0.1100877404296341,10.14495971081267,8.47414281078317,13.079054573312249,4.885186984614194
-0.5964539394239207,-2.3275720643753983,3.855160930263036,-2.474554837334372,-10.508024419659762,-3.208031122014562,1.137996732789702,3.577396012482069,1.7773258848192552,-0.2723091254291887,10.744830807208452,7.793887817973132,13.351153287359068,4.825581721036627
0.5420649428971596,-1.322569982857254,4.288499336331993,0.0405411952640734,-8.949006246733461,-2.3874711619981284,0.6866124422690234,2.2555085638718992,0.5798567435006893,-0.3580477153230106,10.052870342871406,6.96365937095158,13.74513180120718,3.636126113478923
2.081286209167637,0.0848353268455457,4.371788944362701,4.486972900859123,-5.339002073127801,-1.601160921131927,0.926486876844848,0.9541439893454822,-0.7580594970077295,-0.0713172360566432,7.794588923987725,5.561350781207601,13.38827902538992,2.0015739188114026
3.739100312393946,-0.631564754592476,6.563261275811891,8.624121313058923,-1.229127841120743,0.2199040955267492,2.6047332465390127,0.8795306755673948,-1.6901139076871134,0.2347425803486942,4.742085706094569,5.885393880554993,11.15103066832853,1.4035312737403842
5.0822995853025095,-3.677666032482729,11.149816723160416,12.826760875969503,1.810779684342663,1.0412307902349869,5.411082587052164,2.1304996087808945,-2.1184334582607973,0.0072454894559825,0.5267593586522175,8.24592260243628,6.581190628353852,2.627014912696154
4.04901692401642,-6.491193312531496,11.555840933477894,15.392412193164123,3.7269366848152,1.556349398034892,7.880768608402946,3.270441523631746,-3.4451942079273192,-1.010997719989405,-3.2787584116256814,6.352859603477592,0.4711899113072491,4.557898538821632
0.820740195773808,-6.3529497233587895,7.937672896823823,15.732856609268412,5.869986070484742,1.461014109132928,8.265694239277991,2.3806206591020214,-5.607721904965057,-2.51857071348536,-6.518690722144061,0.3614718112763372,-5.600134483514808,4.594049826665923
-1.1959658946771272,-0.997314254769144,2.5503433694585844,17.30344145867396,9.294673729976552,-0.2267663459442354,5.700320412956586,-1.2172836853940794,-8.095215101193723,-3.9353655639274905,-9.40353116102025,-8.611241570140749,-10.398650310341909,0.546096492915126
-3.648071956474381,6.517826641678859,-6.117679250289669,19.663643636923656,13.33982815491038,-1.95385437152019,0.7206248287114363,-6.205734261989392,-11.20848939756201,-4.963778094648603,-11.441563694233876,-22.11333375016532,-13.755036005076477,-7.49265692421784
-4.636281597675138,9.51640861840278,-9.868008318204105,19.791571045874647,16.10901407379066,-2.647128187024588,-5.178868198486327,-10.280219962395565,-11.895252522982672,-5.829947572025901,-12.858758156152904,-27.2728332747887,-16.2833913400126,-16.90257352393104
-2.7456339779421666,7.308231898984558,-8.07858936971386,18.067911331221897,16.358270423581928,-2.474919822222996,-10.441571825110088,-11.993543879158494,-9.866609464231468,-6.907384912010741,-13.449859347103663,-23.32699123273056,-18.589803054754043,-24.13425214214601
-3.312924201257664,3.0469090968159627,-7.840655556283302,15.630873672996303,14.725885028859295,-1.8902753555880092,-14.060455929340492,-11.682921907488833,-8.400791280915222,-8.094377268146275,-14.978622333532854,-20.36909487003156,-20.846572934831443,-26.861100803513864
-3.1084520177713246,0.0114813374794228,-7.297292778725075,11.946118034697038,13.016476919211982,-0.9023073654452466,-15.644732138533584,-10.723279231743192,-6.827415744232495,-8.630048156280168,-17.550347991988026,-15.460632398247752,-22.917628704853712,-25.093271116343036
-1.2591641241597942,0.116838551383246,-6.936291888249841,11.00988479001206,12.3942069664146,-0.484341068812351,-15.242444844145751,-10.057099966792862,-5.808670522844007,-7.632948960991882,-18.33124899248572,-13.410114184231276,-24.493717821140564,-20.64652703781863
-0.3101819837013297,1.9726710792380813,-7.710948477948277,13.265808479920109,12.442723470459612,-0.5268404409291286,-13.261308855296022,-9.540079162183131,-5.937400929397163,-4.904131179643912,-17.5754027542477,-15.835014093709669,-24.91225894584204,-15.69162550618023
2.609936657299019,1.1260376992446588,-6.683454838026305,13.367947052770202,11.96505176678238,-0.1861061880540201,-10.476012771229987,-8.583324069695607,-4.307702627770734,-1.2587950851471987,-15.268448970489846,-14.26157661077213,-23.185149111607075,-11.596793626531053
4.934624713320762,-3.849524139436208,-4.146635919322705,12.116360768234818,10.453650404467169,-0.0613753502885058,-7.878639761187685,-7.152850717712909,-1.1136476980298384,1.914967098922432,-10.763117558832322,-9.954831623974902,-18.85220772999048,-8.70457490674238
3.768213207510354,-7.431154661627737,-2.8930935806643783,9.861889064935486,8.564720624661845,0.162971861037296,-6.300100481251207,-5.962094698839167,-0.4062120801899432,3.475118217202123,-9.20613768905479,-8.117050811731962,-13.216202497725874,-6.7903229339822815
1.311621728372892,-7.154259372054378,-2.5963871531792897,5.616556948872313,7.184246738689296,0.2789350545415945,-6.041178716288357,-5.736167648936032,-1.9245350603795883,3.0823002387470524,-10.765766508291035,-7.70072045169024,-9.457480023130756,-5.559558773266019
-0.7404397888906867,-4.925920306081961,-1.0144193560543944,1.915517895844074,6.280697334458182,0.0356641894384329,-6.79414507473291,-6.448027238321629,-4.201378293356702,1.2053475080207932,-11.397960678828266,-7.306133304107117,-10.72569195121696,-4.82957415787763
-1.858174092219228,-0.075835759762278,1.4723198027488922,-1.4084597844746447,4.899051762584747,-0.0015318357954175,-7.872252127403897,-7.325793099999601,-8.083119140546719,-1.2222304759726512,-12.197518207292363,-7.710437336074485,-17.308400339167463,-4.482290605687069
-0.7374624579943017,3.3035976740049064,2.686185332083434,-3.98206802080562,2.323021770801546,-0.3574869424124343,-8.522544829337619,-7.504039684434986,-8.19843039890865,-3.1733173440739506,-11.467002146183134,-6.527734721482701,-25.41859005060175,-4.389836820859557
1.1631243807089282,2.643760740502967,2.830475470233896,-5.195998922900038,-0.8693005971479693,-0.5022333496267598,-8.140759808644788,-6.5881092672536,-4.053244875823543,-3.836236601012416,-8.528525748824046,-3.514541402723356,-29.239556500689478,-4.357173505011815
0.3651459987951696,1.9197401685859163,2.4370357905175792,-4.881681946841353,-3.037672371422275,-0.2898959259621986,-6.413672697281072,-4.695364057567332,0.3615042258996416,-2.9215460209055664,-6.569333933982814,-1.4684014118835098,-25.088343364083727,-4.065162770553968
-1.5672143651870063,1.428795520158825,1.0477129329838368,-2.5771493616797403,-2.8631139849374563,-0.6971802929012774,-3.48302189833322,-2.206505090915556,6.385795504596013,-0.8778221806280442,-5.1047034957636255,0.0956540708298447,-14.404701723636748,-3.120374077337459
-2.7198092564802967,0.755355808387152,1.2353226375543145,-1.4985526690050417,-0.5863209468472235,-0.1594193745370831,-0.049842737720013,0.3619081591386646,7.365695709206264,1.2358339834306378,-3.7206559265092265,1.3925767810644234,-2.9380505081147703,-1.3665903128011223
-2.4860420750126453,0.9933168256817844,3.16204832213608,-1.6381077425951744,2.068721752606677,1.2413062041077685,2.8042406706015868,2.334057877885215,2.2828703314282643,2.3023377883854157,-2.9617159265075985,1.9469162632814876,3.44128332596361,0.7387265308252893
0.3915576304343638,1.4060143281462796,3.717919905163097,-3.0228090533417595,3.21981838491061,2.1839415867212018,4.161305201947499,3.02951341389948,-3.389746470222053,1.7832520398062854,-2.3869382955183016,1.7172436694245692,2.940092077540612,2.1300381944249978
3.5270228017064045,0.62820645266403,3.3765275590265955,-6.532632788089969,2.1846241247944107,4.340887765193075,3.865791377664564,2.20908427942841,-11.475962941816128,-0.074769002544869,-2.122980528280028,0.5107827764594378,-1.3647871769256597,1.7721193651592555
4.088895885136262,-0.08607764690341,3.171636338189404,-8.26832404482549,-0.2908525630729883,5.168699436206502,2.6735479368218904,0.4324791538868595,-14.63267260909683,-2.6037684888238743,-1.8387620079884208,0.457943929811258,-4.622459393684579,-0.4679753872828627
2.3312042444695105,-0.3744432682339377,2.614138938689791,-8.33762639445973,-2.957194402930781,3.211481023102431,1.7406617002380784,-1.1529980869255638,-11.6546134983206,-5.229788571699714,-1.4737003045727683,1.634565481714261,-4.327341912104728,-3.515910378739292
-0.730112719697033,-1.2110747579344625,2.3563029766110573,-7.869405066401604,-5.100591909645985,1.6613901003207474,1.805662597494333,-1.5709645696526024,-9.992271003557104,-7.615614537909025,-0.9915958099789683,3.2824150267435077,-1.8535706803774303,-5.749412674190992
-3.456173169217508,-1.451684899689876,2.4983129849746364,-5.987125492921542,-6.722868122518264,-1.312696724416171,2.725793382174672,-0.6895035838329733,-7.747559130073298,-9.392461869539702,-0.2670504812103699,5.955913652841253,-0.3186298383548518,-6.113061258091193
-3.7857947897505326,-1.113668783993813,2.079011886924188,-5.642883015187186,-7.944388188381538,-3.695085017354763,3.726047394091381,0.7951095613517225,-5.277901705483529,-9.964449234478517,1.2894706856136724,7.16829063219136,-1.0857195627622502,-4.727787959291597
-1.9098326439655064,-0.5212317443769419,1.2172205526801732,-6.962493317135621,-8.558782585130963,-2.839385666969559,4.10332391691567,2.031472794276162,-3.5737209964293912,-8.7883967100095,3.82311735404078,6.770409450749521,-2.314720369708297,-2.5388315857379453
0.4135160143016347,0.8440778098602905,1.1435891921279937,-7.366207809206665,-8.327477748193921,-2.631521620942132,3.758798009712749,2.707201330895977,1.0112979514249352,-5.943485773629426,7.301025248811608,6.870943391877516,-0.8001758817677143,-0.4465736671087086
2.497023360321055,2.351488723894104,1.78733556281661,-7.4486830817762515,-7.572264852088359,-1.972077747928548,3.157706438579723,3.151097472469896,8.274575879484694,-2.3601068568943155,11.97386693229466,6.92926260475396,4.845274954161479,1.26245467765429
2.9772282908266,2.7771849240660544,1.7461586497738373,-7.0012349977432375,-7.171859106972967,-0.8495160403723777,2.847600990954895,3.836362680462592,11.409808808348146,0.659225725821198,14.773975115195691,7.374395080099235,12.731680161633236,2.8147867923318444
1.34873610186512,1.9651042296351329,1.1863009799514554,-5.623096327361703,-7.785573394180829,-1.4256120525521343,2.9998115355185444,4.829499062852198,10.57896644134591,2.287716491608504,15.52600780570925,8.527281304768955,19.19515360114199,4.488706557859373
-0.2375918353383246,0.5947942312378366,0.0954635548459884,-5.256890446749257,-9.136239549024012,-1.4129513162488294,3.336760365129492,5.713131998235841,9.590717736176169,2.658060674745693,15.665093558569112,8.638708721912414,21.705011836262543,6.309549797583134
-1.403483113477936,-1.06152132622741,-1.829737568511171,-5.84277292722476,-10.202965928949377,-0.8678018735483038,3.4453812288089574,6.008537582674506,7.009381895628431,2.584416548706204,14.38927700109112,7.807245563563847,20.544510449077183,8.098513299042358
-1.7058823916991563,-2.19283077867697,-1.875504237033648,-5.837647763516268,-10.140339452038212,-0.8045224928979637,3.17711693080507,5.648393680731605,6.515454734168712,2.8260084099863825,13.60860683585639,7.115605402233939,18.03096745668076,9.697864687714729
-0.5407673798808221,-2.428580334501381,0.0686633659618021,-5.575478438669093,-8.940692771739442,-0.4109735184590747,2.787732722048009,5.046932498264077,8.74563803451927,3.556890244873234,13.45713131857686,6.255147602753646,16.297064349406035,11.131154852340169
0.2911804127852292,-2.498865059359661,1.9405406439442672,-4.833367169643468,-7.201087705900658,-0.0037901662829067,2.6629797270125657,4.693030417166934,9.306806561032202,4.427386160786234,12.765088693662776,6.158992178175057,15.694293038452642,12.582393213589237
0.4845244601865683,-2.697697714362898,4.338785074902039,-3.3428865564950976,-5.443360451512426,0.1273672574124774,2.862049990832933,4.666996662162109,9.07710558792232,5.036263886819171,11.98785412603311,7.055648846450741,15.042147340079786,14.240093647557284
0.304711138580086,-2.0065582715705106,5.776617230704403,-1.78248605888006,-3.810350570011998,0.3685494429665013,2.983281338264405,4.5865156571871495,9.57427167119273,5.33468331728853,11.483668657531748,8.292648612071627,13.235243168351978,16.130039106342046
-0.4926294873405693,-0.6465763962879381,5.868578267449758,-0.0216935351105362,-2.3068219980497773,0.6527852225029888,2.625774024096742,4.084255323906717,10.251345290602131,5.650488672968258,11.226894694327756,10.18092085856738,10.62664171983149,18.02857610429268
-0.3691704190121438,0.7155280983839296,6.8034653039419,2.570269960610677,-1.0090837060178544,0.8251324402917533,2.086829580624169,3.379881047374333,11.405865391583816,6.38954415237955,10.763532687602574,12.304737661219738,8.88426991383082,19.50757610001937
0.7145019728461219,3.6959370667475024,8.196881213880665,5.954626885457069,0.1208953354966908,0.9789884511549604,2.45252016049389,3.309478038208354,13.22298625824312,7.677076292248977,10.15374808272766,14.625981105686234,9.400479653071947,20.06280553275385
1.3769488067298843,5.36212476544926,7.946339332179829,7.107332713273154,1.403496857750966,1.0893858192578416,4.636277254143579,4.622321555532487,12.287076335855952,9.165273901725769,9.9053890811866,15.451499958101849,11.705785165077607,19.23541476724725
1.253561129282458,3.890787966917938,6.2129350056568775,5.878085673088514,3.086243496040119,1.0794828760196105,8.094253033647554,7.098481858298676,8.410528723344411,10.109469407446724,9.976410495077577,14.482868962247352,13.484033246697848,16.75219811706277
-0.1834808925500107,2.095991182226752,3.2026485980197936,3.0646849437757275,4.761900901248865,1.040187477132864,10.6611628013721,9.378745802402577,3.486697658503348,9.72512638789224,9.104049496786896,11.39492032459672,12.40912303312404,12.768863792003188
-2.7011715272602634,-2.790372703918709,-1.579364863584534,-2.1872131206008,5.449942406652596,0.9290214623836784,10.140689323597693,9.848555161072468,-3.346901211834277,7.716389709485867,7.279686880221448,5.506901290390514,8.232640537797195,8.121225591783897
-3.861469930120384,-6.959640966521721,-4.298298266144379,-4.634922253929711,4.577149832077886,0.9144166641075376,6.434042031286481,7.923900822469456,-6.4190656040538805,4.6722039975631375,5.200119537228869,1.116909638218632,3.1334361345997337,4.222602677967302
-2.276675676494845,-5.308215627153309,-4.776419231838402,-4.009008714965104,2.880515410491405,1.2267905634378875,2.061130278382315,4.59626714761442,-5.115051807280113,1.9463338446425735,2.575717627697708,-1.8259145005770816,-0.1026751542017265,2.3355891555414487
0.0153284798354246,-2.409602404573966,-4.882841466288577,-3.243286953322762,2.029553013409412,1.590128537825075,0.2075014346680532,1.6991788580074072,-2.932044504312485,0.8923391691886096,1.9235191764429376,-2.8479178724545515,-0.3920094517711519,2.568463867293304
2.6112643216799505,2.9382149647324085,-3.6547856351038055,-1.053563951563706,3.075691021509257,2.0197425629399386,1.918036616891648,0.52086520497555,1.673027609582681,1.9045649356658672,3.5326402970143462,-0.7540400218906841,1.0255077260810097,3.50563013104334
3.976963360534403,7.202507066902407,-3.4208221625801776,-0.2390788552121739,5.263050986033662,2.3357125932044625,5.12876931794252,0.968197824425495,3.825953241124076,4.05793735315909,2.616593259160457,-1.146562633989263,2.0687394570331747,3.088015554796314
2.43930931649572,4.724652350415726,-4.388080213145795,-1.1667755984208157,6.534346045383302,2.245641504708173,6.550498187050046,1.9227928903053024,2.951581615218972,5.758098354779307,-0.4591109984375524,-3.789922804375516,1.7520962811952288,0.2198875587237694
0.8879863159271133,0.7835810858141381,-5.378527580707424,-1.495736717746584,5.350590590401829,2.1123511858200783,4.603530126378402,2.3054019581824576,2.49825551187648,5.914555654910366,-4.872552545589002,-7.433544542262423,0.6721666370151027,-4.280759671564354
-0.2215556829025742,-3.4859587438206314,-6.998464554852474,-1.9210609590157477,2.071936283477904,1.9207206897153437,0.5815267705952252,1.8171094775962688,1.1955080966646845,4.625122333191328,-11.661104375838304,-13.332141033094238,-0.0957768041260607,-8.331686976510994
-1.039523331293837,-5.971625690501991,-7.861325092225449,-2.4710079613841094,-1.4042212948012534,1.5633718304230255,-2.891462732151737,0.8213350332496034,0.1065904039447596,2.8094374632763603,-14.639086374499351,-15.411479180435345,-0.2136471871735139,-10.292372292998948
-0.6246606886271652,-3.3258622879408937,-7.848993509066788,-2.9046252279391145,-3.320494233059776,1.2007097341096342,-4.321257838895271,-0.2631797758938532,-0.4420296484849748,1.2657186916457164,-13.513889730390275,-13.400016532718166,-0.1577792848934791,-10.162368809852907
-0.3321549368438507,-0.3691502090463581,-7.9629451248497585,-3.542099812247106,-3.4325008876438474,0.6612791126876076,-4.253172433176175,-1.336717686962892,-1.4867922884623512,0.1349039313425919,-12.812121806205898,-11.760434272289144,-0.4301065879199797,-9.236537199182544
-0.5591516420041214,1.4728523315383382,-7.8775296553026255,-4.31887398090289,-2.913294871053793,-0.0943905082680497,-4.083089868848283,-2.4913588384347705,-2.708133779187124,-0.8237862645184748,-11.144008192863591,-9.149677610665666,-1.0413229548274856,-8.72949612354067
-0.4480814076130167,2.540005855466171,-7.685403236513924,-4.858522603008043,-3.078958901978936,-0.365336226972733,-4.4473351140471,-3.733168257139596,-3.1957765583670428,-1.7088243402327803,-9.95042653721116,-7.654880540552318,-1.7455717664971075,-8.817571988788416
-0.3079089271841004,1.6196855738608502,-7.486090289035482,-5.164284291752919,-4.199432450831644,-0.1613280115367012,-4.962904449210527,-4.9613169238255,-2.949714615493986,-2.4470884127197152,-9.844373422188507,-7.965228221205892,-2.439652759968588,-8.922070642828267
-0.670899415602091,1.125845786086812,-7.021385903702957,-5.369577917689489,-5.385880933982534,0.0642111912089285,-5.217005050615796,-6.140496602409982,-2.9915226119854115,-3.197530194527125,-8.509156847448038,-6.540914222859598,-3.0998336128062576,-8.636545247386387
-0.7690482955890272,2.485919440983427,-6.332506641055302,-5.381338034158062,-5.488136895421398,0.7715970497973097,-5.433186287928059,-7.270488873406357,-3.15610218180276,-4.413163888739838,-6.396504092496062,-3.934797864284618,-3.47071008997073,-8.080568063459964
-0.6416909569743634,3.323658568744676,-5.257908180664787,-4.750014583116598,-4.137090316279398,1.1503241322884104,-5.897157880048013,-8.066970438277245,-2.6758812932264067,-6.181128924421742,-4.113572396731093,-1.9248262027571643,-3.156692110525917,-7.314194628256153
-0.5481504600121129,2.631717980894346,-3.7365605531972,-3.413860797963829,-2.0595237109104687,0.9148350347397276,-6.011497840932332,-7.7879863834976035,-1.6644835107403664,-7.54765516508477,-1.358312672515876,-0.0472733362551041,-2.122475355416313,-5.70822733125793
0.5248706661476712,0.7736192873226073,-0.1566739844867651,-2.8782295096990427,-0.4707370419054548,1.0567226006401904,-4.484868883886655,-5.67592591727276,0.765314541174355,-6.892965232214458,2.8537388409808626,2.604780036369009,-0.8869021336175962,-2.3295836783645107
1.510742755706169,-4.028356516047595,5.72591809605805,-3.132367051367623,-0.1021651930877745,0.9311175391532928,-0.7990491742177497,-1.8313154350822352,4.863112030859979,-3.388041469538912,8.604952962365122,5.864598306471785,-0.0065818855451382,2.79325129870314
1.349894633246988,-7.491713540313697,8.483373590570087,-2.22561390947549,-0.6697697459798349,0.647853601895442,3.630541572175769,2.320511162289698,5.4642602342746285,1.7947534373497651,9.546610087598598,6.733610406174856,0.5536934739497461,7.877526335975464
0.7602032183050016,-5.742865680515908,8.151546791525098,-0.3708181647237842,-1.1740748553872713,0.7568452185608701,6.138920550913984,4.651436435886044,2.423357171570997,5.898390060246374,5.36247402426745,5.084009970716742,1.282070956346811,10.202314658347705
-0.1860565026451129,-2.182830378096144,5.313645349967581,3.2965386364171243,-0.7086004426618757,0.5796721515560347,4.974063004127018,3.763023531615671,-1.9025554446620436,6.508107428134004,-0.5592063384797087,1.3393156799720651,2.27988232446584,8.115858340337104
-1.069807061745613,3.88504076243817,-1.462407377911843,9.292162312126814,0.9316538969521008,0.2644617023397949,0.9014025446722568,0.0967576308536681,-8.792209703980278,3.3517195323954923,-9.828554969208096,-5.379246268813976,2.797112540807309,2.512699039678012
-1.1235092849872572,7.69262815745221,-3.451693054814445,11.661206845128424,3.276820247524729,0.148603936827264,-3.3498049426801906,-4.265748663161083,-11.617180628898277,-1.5940788673191475,-13.323582919750676,-7.7174501384544705,1.8882123191318476,-3.5933938722979164
-0.699051180755723,4.231044473453517,-0.4075270486371053,10.317765057955484,5.65408644883636,-0.0791769775287688,-5.304386945359203,-7.02892014890824,-9.769481026439715,-5.689022700936654,-10.087002458069977,-5.306490626683626,-0.4519465790930335,-7.101979747380716
-0.2116567939667298,0.5967316512839511,2.345865113660386,8.930224105038988,7.588347854013489,-0.415576793387763,-4.572174941065793,-7.221299762769123,-8.341573364878885,-7.44413618865798,-7.646837341060364,-2.7150653410457326,-3.0275496600278,-6.799166236936326
0.417299667122685,-2.6618195287761,6.784663500716174,6.179167025409439,8.847209999782203,-0.6603146408909919,-2.7478712808987416,-5.655951533062401,-5.708865218386534,-7.123436863835092,-3.7451857467688,1.82107283649472,-4.472475816220192,-3.799168850701703
0.8027259929737729,-4.473573283405568,6.958770478055286,5.509226077719131,9.298585126607664,-0.9387353782259212,-1.74362693018456,-4.032773253298117,-4.207496162182017,-5.954898399461769,-1.429134859279535,3.7570362945113183,-4.473064903605948,-0.3624591795427916
0.65657509610315,-1.570633478097962,1.8994630306365667,7.548349923667856,8.900977677718789,-1.436917846153672,-2.2356745902071555,-3.5007733553088416,-4.553037107815585,-4.916169860234137,-1.7939177650225775,2.3655910494555097,-3.831308952066572,1.8012849631682446
0.2826181884464241,0.0816918228731343,-1.1593288975086526,7.973788350584264,7.845335532653832,-1.9753145953857467,-3.503046656592476,-3.876155705880533,-3.473752089483101,-4.150678616963174,-0.8022577219918213,2.054680328115959,-3.397789278672631,2.514331570399592
0.0172641397835447,-0.0169830414320771,-3.604999637460862,7.605071133195561,6.57666535261818,-2.484984903279596,-4.470200553729875,-4.1041049111569965,-1.6220959151152576,-3.271769457234045,0.5851989565584446,1.6684992649258212,-3.198153387834965,2.889912731948029
0.01122908652283,0.192626148284223,-3.454736485807014,7.730395432210781,5.542800866075895,-3.0179441728592744,-4.774314148465342,-3.463716426234887,-0.5560660436781077,-2.033112455565954,0.7921882652077544,1.1895045779733262,-2.740866340630065,4.195250276372173
0.3104420438261474,-0.0165296227471718,0.6905368377948736,7.765098662805755,4.880413520562504,-3.368977682957602,-4.914306654009634,-2.3682187432116457,0.0774299469861594,-0.6810723190317347,0.1916005754445832,1.160709934423958,-1.970129711264379,6.628944315251424
0.3249957447177669,0.1164443060280437,3.034595005656633,8.06559317079439,4.384244814787287,-3.509693297795423,-5.540091775852467,-1.9820242694573107,-0.1131441857690556,0.2721491792440318,-1.3864142004838926,-0.5151615422665293,-1.5472024298042264,8.88013667659971
-0.5381247093003876,0.787886370492126,4.271588796052583,8.7344537037904,3.815017926235516,-3.6963743700784,-6.671425328083608,-2.994431630521955,-1.434107685502081,0.5648159458789657,-4.233370303613189,-3.8023792334247375,-2.0581348852553774,8.91129286819643
-1.3865422760653183,1.0261229290413791,5.750314709164051,8.619473543352417,3.221335458723935,-3.413631408550537,-7.562041881493727,-4.748615196787757,-1.5558883390634448,0.4625694790972865,-5.310025373139344,-5.171004106399803,-3.1775174707125693,5.545116908869321
-1.3783274676182593,0.3695308311886099,6.442655223128793,7.733719142448338,2.9220710457496786,-2.203059923740513,-7.270464093156637,-5.63988692587543,-0.5070795970462162,0.5271492478763484,-4.50033580770344,-4.801117209055657,-3.8965700909688863,-0.3673503932682287
-0.5457010269374596,0.1330285108699577,8.123457471043054,7.080728782347405,3.169813034511918,-0.683645342369958,-5.40723513123196,-4.470764889621247,1.3283010070528334,1.0948374941058925,-2.5493898271506192,-3.1655662517735106,-3.602807851266217,-6.2904049232473085
1.1653287888050634,0.1380356057875118,10.799625763033111,6.452503565531417,3.851408622158015,1.3466171732995798,-2.444046797168191,-1.4854726001739245,4.534320957865394,1.9712541383414504,1.3721163846382731,0.5768942911492949,-2.724487502414405,-9.734882706558944
2.1510338463626364,-0.0381856404165277,10.687157944635974,5.2569457214860345,4.518691587184147,2.866575218548612,0.6173781812967505,1.87799274007012,5.807825016248781,2.6278316688689927,3.6533056125827774,2.479838469417992,-2.1880204021238754,-9.965889463984208
1.2177760557909072,-0.1053094568497629,7.851467794264467,3.5968109367880747,4.6913105644003,2.913850570749449,2.89487522506575,4.201240366156153,5.0328048190891685,2.684740543811987,4.19164956019296,2.475816004291901,-2.3808993697543315,-8.245681071019522
-0.1210933258127344,-0.4461875724497022,5.030496244757778,1.92477801211455,4.139555075733913,2.935890971721586,4.078041106805397,5.062368975744377,4.064311386896578,2.20035559759377,4.636161834551881,2.693256798474191,-2.851118922239216,-6.528223434873741
-1.4755265701925169,-0.8527239840619101,1.4813853446205043,0.1702560073304919,2.951661582127852,2.5956331016092653,4.420001550290909,4.984527789538284,2.126678900697139,1.533667321798852,4.122549436535348,2.24356993237038,-2.987276347979826,-5.90565240489553
-1.916698901999447,-0.7194858432922717,-0.576026029366301,-1.2771973734585311,1.4274076776772515,2.080035307960804,4.418824083251213,4.701159334616548,1.7705921124570747,0.993684557226242,4.041793098172849,2.149556722888693,-2.726509602376339,-6.132678206313308
-0.6525699728582595,0.0688865313041408,-0.5652768541089391,-2.285934963607014,-0.0749740149882036,2.284490993307256,4.503807452397453,4.620510236589148,3.331651169042797,0.6398350754046049,4.502353985270454,2.604125913700922,-2.4335677456370206,-6.338646685263871
0.4230383459373831,0.8968118185549588,-1.6583648654648175,-3.569102224957988,-1.2974362393569692,1.8753553666935736,4.883925411842814,4.838963814320952,3.699151314086554,0.3491061859400943,4.7211986525038965,2.8642780599821878,-2.2656598995949477,-5.980503682545283
1.176048799077458,1.5696050998875035,-3.263997864399118,-5.018906095407443,-2.2478088749528347,1.0719890035361268,5.505006703154493,5.302331600338096,3.4246938213172955,-0.0201448091550169,5.030327310740643,3.209818652975287,-1.99761064253153,-5.186017883384391
1.4227498401135468,1.3564696614105842,-4.365206771341283,-6.309958915672033,-3.27159383773801,0.7012623842285208,6.065651930136443,5.732864125374434,2.197147712301952,-0.5378696512980667,4.835700458664902,2.683794002274678,-1.56960614325925,-4.479330428997464
0.8562189004386143,0.3461319307539819,-5.384054928577106,-7.541439535902223,-4.868295522748969,-0.3380467827252834,6.158526304598819,5.558059779122651,-0.5587632231664418,-1.1847220882109006,4.050687380618831,1.1475732853031813,-1.5269136812315622,-4.371663624172104
0.0486224721810104,-0.5018137801789609,-6.364956217249564,-9.595010686961448,-7.265785047938845,-1.553083049216451,5.570200964366421,4.280435544383618,-2.410075507329155,-1.8429717000131944,1.724660274886884,-1.6743934229796344,-2.5780548852281413,-5.098456759602765
-1.0534420938596365,-1.3446166118531448,-7.24050010457257,-12.521681853145536,-10.069669486790833,-2.329957237438179,4.512199912741448,2.1093798454144093,-3.4964313677435004,-2.333918845363442,-2.4411346439574,-6.1453143519366105,-4.651313322481862,-6.493359828235942
-1.3998455824850795,-1.2378391016075934,-7.496668878216456,-13.295536826188805,-12.337902488826977,-3.228695536748388,3.490631506506446,0.0837247315356606,-4.066931022411783,-2.559586839874345,-4.163133768350703,-8.041058986542334,-6.621872825413533,-7.980912176251579
-0.758984238258325,-0.4612215688475438,-7.073990986772145,-11.886282158085042,-13.096164102860168,-2.95942857959984,2.844153976431788,-0.699231967810011,-3.5703009807214747,-2.6423553228693244,-3.441672603560384,-7.217714587947416,-7.211990462764719,-8.817550939944379
0.0422105190674039,-0.6110318834621884,-5.922055803817175,-8.773303599458755,-11.913661959277086,-1.6685303087719727,2.3958154350574112,-0.0837625213816686,-3.8163226301859616,-2.858071071536152,-1.4625168251853866,-6.023200331234346,-6.18969200363639,-8.555193294594748
1.1572236845610808,-0.5255011141613585,-3.854352021546875,-3.1415322055453894,-9.122714440300127,-0.6529171263498303,1.636977586864262,0.9879710136298794,-4.7532248231327445,-3.352069292852395,2.840895009614143,-3.447957315799675,-4.578664380514301,-7.367927536454026
1.4313660752803277,-0.3260900000553321,-3.131961032527261,-0.7908212626124768,-5.604435750126777,0.028656898873722,0.3181753822543562,1.3836727909976112,-4.727868325154844,-3.925103583188216,3.65372346351444,-3.106161802600857,-3.6594215358963815,-5.89880272934073
0.3112137649333366,-0.7443303423488854,-3.864358008253681,-1.9864846586504687,-2.391660891509144,0.0202936833195189,-1.156005827953937,0.7990683674444767,-4.023277407727321,-4.1656720581755575,0.6528317520108532,-5.446565717122615,-3.844556528182775,-4.756440456045038
-0.0872488221442739,0.1864880530384848,-3.870074346684208,-2.775726398243972,-0.3124596082256055,-0.5596063249360386,-1.980574404735037,-0.1509384798190893,-2.9636914354818926,-3.849582370188114,-2.0017641124492203,-6.769615911951056,-4.544892044444229,-4.146295173361576
-0.2512632739051557,0.8570325506518268,-3.613191687346657,-4.493727695318326,0.277647154773943,-1.077524694610875,-1.629817172678136,-0.732057804046244,-1.2774266731528,-3.1975537812365395,-5.649532648587006,-7.918637464974148,-4.992814098026667,-3.921119549086935
-0.5623025278607375,0.5173465235508488,-2.9946831873888478,-4.799237010371362,-0.3540447780752309,-1.1102618297000804,-0.3149996572380935,-0.78456026780478,-0.9878849310583134,-2.7037594506029308,-6.793563868280221,-7.361678235134539,-5.023600348551083,-3.840071511188864
-0.2593109824690611,0.9681135214354332,-1.6616572477709173,-3.1152782565663717,-1.4205810035596844,-1.2137081369379388,1.1718840035808924,-0.6127607235248416,-2.252432395695061,-2.695241233699152,-4.684859090750666,-4.404075161474448,-5.029173151231079,-3.6883687086308896
-0.8002621456086639,0.9928104706713942,-0.9458502811184984,-2.5784872075166674,-2.060655410049096,-1.674920627110399,2.0186479228439147,-0.4222686141127276,-2.0199888264082064,-3.0431681786893225,-2.9629710792170467,-1.1506111303338145,-5.297542191443384,-3.237828222822568
-1.6249376060310157,1.2237264604029343,-0.7766216353068583,-2.586800137213637,-1.904146565483957,-1.8546104606255815,1.867422675435056,-0.1162379246690603,-0.621796247498476,-3.2601763172118385,-0.6552548749003778,2.9695349038101444,-5.545095364444752,-2.298370338410791
-1.4455895873038211,1.3055989340624623,-0.1537541997910834,-2.5035561307132697,-1.3051835086725043,-1.9529527697283748,0.9363923433661664,0.3614564182324127,0.7932858751841222,-2.847157012885913,0.915703414656682,5.744302473320874,-5.1103527787942085,-0.9290596309304906
-0.8944888674113967,0.0558680604761576,0.7083619908214503,-2.7738698086760567,-1.0037283274565478,-1.979985305731784,-0.152704534420506,0.7401462832610504,2.767392977411629,-1.596988846753174,1.1812020921571231,6.712626389593835,-3.5391369300158466,0.4829287150745163
0.3320328285710542,-0.6884120055324192,1.5612893410233697,-2.931957279060218,-1.494502939805117,-1.4496854491361977,-0.710095073115224,0.6862987256276645,2.970009124469465,0.3006660135153645,1.5385715703515173,6.928382915350775,-0.9621665480733448,1.5498438826882648
1.7962263315054707,-1.3462364787734291,2.5412279620138327,-2.9773099874508717,-2.6559951934498507,-0.8661608250638261,-0.3962234647890481,0.2974337650075958,1.1326858308314791,2.332262457478269,1.4807367816920374,5.642342471603224,2.04168159155768,2.4241921500402164
1.9518933324838468,-1.0210756366806977,3.2113969567805944,-2.956258221431792,-3.914966424650961,-1.037454129729189,0.4764947143777545,0.1281792836150392,0.4571030362710145,3.860039654673925,1.434519992366781,5.22338117305469,4.893040561771121,3.985189592821632
1.269733736424355,0.4780209380103961,3.524910033012976,-2.762994050411569,-4.741261384315218,-1.2626541466062249,1.0623570854671949,0.6171477266194247,0.4903892544234437,4.419680692087342,1.5207728564547511,5.762671996377557,7.3291538150093505,7.245828953611525
0.9375374226906712,0.0679392190280848,3.829379242084573,-2.264097080494144,-5.011780590847615,-1.3499740718223014,0.6283695495705781,1.5862634223855407,1.2247915372662732,4.012915058879996,1.8812331934215096,7.246044626593928,9.303346780865894,12.251730351711725
1.0448909111748137,-0.3489420744343143,4.017489350894484,-1.3984715605193228,-4.972502033021076,-2.148035754388541,-0.7253222231471992,2.41887498958804,3.287700693278072,3.1779748942901818,2.6959146059391506,10.354602294652883,10.594019286782409,17.360686260488166
1.5147417481492176,-0.3864330106288967,3.611844108917016,-1.069542696099866,-4.892252348753551,-2.6839420235430387,-2.0106405589996834,2.665605457607878,3.27473304293968,2.675187497899324,2.325067473405261,10.42772388489793,10.582203619946885,19.76750924448464
1.8181342871002504,-0.6771503012183786,2.5975292430371013,-1.2931334561991366,-4.741618505189818,-3.039879311568055,-2.195403042646977,2.297587077511355,1.170283323079296,2.912011299329696,0.7479276418010482,7.374356229848754,8.581816111308513,17.30854076470145
0.4159504651080296,1.1076165897469794,1.644520432972165,-1.315474149804403,-4.227641681314731,-4.241581486423503,-1.254383911147422,1.3405593437188812,-0.6317355694674213,3.5245678330675987,-1.5461808253896232,2.576180702442677,4.588311525719488,10.419058156908209
-2.024775875417288,2.3760998775408977,0.6743146110543177,-1.3188155666702803,-3.2146940442288177,-5.1662831510779,-0.3665476227654798,-0.4882348526479085,-2.820685935043669,3.5316504729014064,-4.970788746724926,-5.15358551424076,-0.230897314098935,2.546763786172943
-3.2894564833820743,1.6862125147068538,0.4059859739991333,-0.7123235969703795,-2.176770972564954,-4.751977001652636,-0.9409215153912384,-3.4456713693809604,-3.245697891889072,2.079579367557947,-5.733343319271154,-7.505687632613227,-3.9268083845592425,-1.787180055221515
-3.107755935127961,0.235739041419753,1.0561768689974775,0.6717555653248363,-2.101657181347453,-3.6006534748149384,-3.3108268203508926,-6.982957789215657,-1.40720691031143,-0.7267305931765913,-3.5429062566944687,-3.9180046120761647,-4.927604921876783,-0.1532120034997737
-2.228212240697607,-2.7632285543138315,0.8583019617375837,0.5451156995180698,-3.647054592653743,-1.7232626698092746,-6.303273034209361,-9.53946324271082,-1.646375580372013,-3.606675204617536,-1.3560805585173092,-0.7219176151686079,-3.0717616115759108,5.913995143821205
-1.787511877649243,-5.670363323424781,-0.0476592634704756,-1.074621905920729,-6.161683398608555,1.4062910710070864,-8.079164873041222,-9.473181340030244,-3.5530134206738158,-4.816478843309971,1.734419460130917,4.029581236231662,0.3604065519920727,12.109682409252756
-2.03061966093013,-5.758559373745389,0.3469644244059592,-0.5933213154948015,-7.632978145971583,3.2831860048053283,-7.480445922570886,-6.421322004566644,-3.453866416322636,-3.360296688987773,3.0877018508701437,6.185430336747318,3.626379276466502,14.789760322473043
-2.017558105183784,-3.3992523086855875,1.8427859116612957,1.7343252601036756,-5.984839791002609,4.110508948792318,-4.75357241795842,-1.7656103693882017,-1.932634093149305,0.2276235876199202,2.132750568709993,4.677212084527199,5.654544867611408,13.688806626930347
-0.6120002030361008,0.4097146479338196,4.640172945061461,6.559690083427622,-0.8167080883572746,5.849892495453929,-1.190530996743215,2.316965644960704,2.292154091682987,4.19094845232523,2.4286491801677275,6.133988836027473,6.434938398250803,11.552674877312764
2.874658887422326,4.993559468672245,9.216376902346264,14.814372420738104,6.001125342788544,6.556117848142397,1.8346554260868209,4.376430818737443,10.069580105377096,6.744635558883671,3.3164134284206583,9.552958479713904,6.567866554412915,11.202312488522036
5.381735247408285,6.766583197669972,10.184263611121947,17.670093674422613,11.572442050665323,6.997947821992469,3.6233892435776713,4.4577399888661615,12.82777883764614,7.194214952625038,3.791672933185767,10.294177404723817,6.566810774745306,12.93226447065245
4.950362049758079,4.974233269736346,7.30859804639918,14.920615206072458,14.031173989824328,7.683579632159937,4.277872427315492,3.632660916266622,10.501598884731326,6.126268056860412,4.348100007721465,9.119983639174222,6.5356669299310965,14.606204456493131
3.5862022028203886,3.0068168831413984,4.4826394365410165,11.759044083870496,13.608795548308208,6.922566256368542,4.323881740588814,2.95493872658217,8.316475504500845,4.663837232405738,4.138893788085344,6.505273996282552,6.327377210143582,14.00307214679493
1.3527779379656075,0.9124197617978208,0.4825585687426023,6.1667328091147615,11.927654542653968,5.943536823257894,4.21901273660588,2.791865970926022,4.405744038948189,3.5545223407340094,3.0461737012797503,1.5849912165133089,5.865519484546762,10.86082846352081
-0.3903211039200582,-0.6488770644574483,-1.2201212619805937,3.67136303701268,10.437797983504286,5.701220173608643,4.090353326607568,2.8770226661126426,3.2857796774191192,2.837694793730776,2.6803695557680305,-0.4886843237029775,5.296461368902495,6.73572108997794
-0.2328326866851978,-0.534739079674456,0.116093850644364,5.1390082237346215,9.520723935308354,5.496837250893665,3.8232690490505696,2.768924583009394,5.820807119846541,2.168393345783297,2.9249960668984274,0.4895862654069788,4.881483330025805,3.2157425531777086
-0.8991286372550659,-1.2332234146345056,-0.7549647317674447,4.240013744522101,8.796930712632143,5.29740022985238,3.3744164489891846,2.269616137129037,6.010547786972123,1.2994666339169036,2.8379204750802973,-0.663228908329926,4.75143083028987,0.5376506422076792
-2.80979740301876,-2.8313234408200705,-3.0321111551877302,2.275767262125616,7.897950600251439,5.361046739323204,2.968183363210022,1.591749041298308,4.912319759384299,0.2682501148141414,2.70241446117668,-2.9569085663022565,4.752844319796636,-2.141006761321965
-3.330749909443511,-2.6855357559319573,-4.280305659460113,1.5143999084556723,6.775889201473905,4.961785623046638,2.8748441387262,1.1992479099992623,4.003064433284247,-0.7310788812374849,2.24037321645445,-4.360681527813557,4.547795193411607,-5.460434802215003
-2.5633164352116764,-1.688765770409048,-5.230639946236312,1.1944791701035091,5.511091949527328,4.089091713863,2.9193076379443283,1.367521871333568,2.3930925154710296,-1.5313650354595438,1.3148817903295933,-5.546376784330706,3.94314917370424,-9.061970722008754
-1.8534405352089525,-1.7767503696483624,-5.332437780732619,1.7586025400680858,4.214539221819705,3.705015704545464,2.325737966516653,1.7598009980094718,1.439403110219712,-2.06207900856431,0.1863899082260908,-5.334300907889886,3.15676787186709,-11.94892268298926
-0.3382594840535793,-1.3061956366983662,-4.225526357767313,3.514665917003918,3.2522146581190308,3.0731323682127183,0.3481639968239403,1.5140531722376585,1.237521537892034,-2.3301050178027776,-1.261424415165627,-3.3705328111945083,2.690682601235009,-13.393085389333775
0.2931950627265507,-0.9957495207822228,-3.71917949325875,4.376694261101765,3.297212246236,2.1451672749121173,-2.709829700193821,0.0092110295176111,0.918213934270442,-2.377782264071489,-1.5698262868232449,-3.1779188700342766,2.845755903890379,-13.42169944487264
-0.4462433286477951,-1.0759410986255866,-3.6732459551293193,4.394805079127916,4.76862851363665,2.37475539854722,-5.186347074138012,-2.29517057657066,0.7865219545484968,-2.2317869431650994,-0.588188853325586,-4.616940473299271,3.36411340526898,-12.58237805340825
0.7479182708294281,1.2242481463297468,-0.7561616283531422,5.342245898464112,7.092954513733813,2.4877268789975946,-5.144202670858316,-3.913810996677428,1.7159085980315167,-1.871058709571943,1.2125293131066115,-3.9532583266707104,3.651810355584399,-11.421833008448417
2.514745556678466,3.100106852771197,4.963569902219129,6.858679507100915,8.759571477395625,2.223675078406792,-2.1352308768227166,-3.5299034950042056,3.730625445861967,-1.284859204876704,4.2739269693649975,-1.6956266998952263,3.4168947257789988,-10.210820916343325
2.936754110639466,2.630840991562341,7.019164153126991,6.820087947660691,8.473070669671861,2.4871200440662333,2.029132899373285,-1.318870426661355,3.874361738931925,-0.60639453872533,4.727577348488056,-0.8064213674488317,3.0135998286081795,-9.041628372800636
2.366669022643752,1.596915706716799,5.6476506269542925,5.302449538188717,6.423741263221585,0.9863138269578656,4.482479680766595,0.9839549342557444,2.1158954607699587,-0.1559272163795135,2.3018699561628586,-0.8259441477231436,3.021764428236557,-8.061900505707214
0.1891025423120237,0.1529772503235684,1.3723624944485386,3.963720293921818,4.316705558447883,-1.4840294379078247,3.5845485472120657,1.5182023876118924,-0.8020417704428641,-0.2508704227656912,-0.7891246510102021,-3.126554973854072,3.4493202492911017,-7.551625738693807
-2.343665073965699,-0.1763055208445514,-7.436253807471772,2.4050263664344205,3.9056330163667097,-3.0888713668184544,0.2217058453892462,-0.0770830159635074,-5.649632060928882,-0.9075232370770868,-5.538108231250239,-8.442378476211893,3.4646647376565536,-7.736336077841433
-2.8064471747763022,0.7946371685428977,-10.473829550455095,0.9832906524923808,5.335397366978235,-4.837458746523401,-3.083431160207057,-2.42006234619022,-8.023395292439348,-1.7635347916418755,-7.503814066175473,-9.874688023796926,2.06938497073028,-8.462144847839356
-1.5020716912337333,0.8616250677630604,-7.451287335348034,-0.0232971296966305,6.895841081729109,-5.384417362389246,-4.366561768388557,-3.712285054276058,-7.70226009369974,-2.356909850756788,-6.1861925565119575,-7.4962068294379645,-0.8916871283699823,-9.057917224927971
0.1667809093017601,-0.0424313492396135,-4.793051088029092,-2.513624485416589,6.476525326201685,-4.668638239219929,-3.643506794561904,-3.264803138978684,-7.6131821198746685,-2.505883209212684,-4.943192625921224,-5.501212625560786,-4.406430975117185,-8.641330341680776
1.499235560765391,-1.78194117292684,-0.1776840581269668,-6.442633286052525,3.374012638419595,-4.600192962384456,-2.386355016187972,-1.7938207449261727,-6.730568491047551,-2.3976043932373785,-2.6341015767220606,-2.4599578385608,-7.008385874159679,-6.753868065211963
1.44540147080578,-2.73931793112292,1.104541354240551,-8.70111124283776,-1.185289368948678,-4.76543484354069,-1.8622811310979757,-0.4452470349309676,-6.527387672322947,-2.3213614027841944,-1.3662217978867317,-1.3362020137560917,-7.8662659669752495,-3.808405785323016
0.311911409039277,-1.631039440527606,-1.95718441475654,-9.463612645743174,-5.163827807514254,-4.995865169447282,-2.087953928878436,0.2534931200925927,-7.381855939169529,-2.368167794987784,-1.625567929645101,-2.800404820020483,-7.270235964013818,-0.8723396366995289
-0.5071904582794563,-0.4619234107377137,-2.9492234720532338,-10.174365935995176,-7.318659055852333,-5.618080847386573,-2.2396250416482646,0.520457927558537,-7.39217861751117,-2.408319520801194,-1.1679937729494023,-2.3479356210521303,-6.17533781011549,1.1141346459541297
-0.902968804626973,0.9385235141934648,-3.1662892059154557,-10.20664299918002,-7.870409112145065,-5.947172490863952,-1.7654760883015732,0.7138838138441419,-6.944647449366178,-2.2956902299919983,-0.5788177719400897,-0.6637751664145201,-5.333857889019228,2.0095155113518146
-0.763140574128011,1.889562217932253,-2.8188758402050818,-10.785971682323996,-7.883787542629839,-6.083380579226242,-0.8931488463901921,0.8965342112915442,-7.1489514269547625,-2.0114524692745146,-0.0017148177979266,0.7672069487113552,-4.810704223825516,2.4184237765490524
-0.0905435617332679,1.6494762299519603,-0.9130294735802692,-12.094529299674967,-8.196842709053255,-6.480735566888377,-0.1553221572721796,0.9940938450195226,-7.823124224728572,-1.622066798653103,0.822354661549358,2.635272039674685,-4.207424535920279,3.016681599713912
0.2266077895714824,1.1896958121877703,-0.2915186713400284,-13.057301083423967,-8.914412163765563,-6.767938132305179,0.304330903460718,1.109106517274958,-8.008261804988587,-1.1935390956217835,1.4372004037480823,4.129989209561318,-3.254376314604261,3.960909153020771
0.3782102203705106,-0.2711148919607145,-0.7987192695586581,-13.982755442529566,-9.69030325346797,-7.104063956072905,0.7962030190044995,1.4307145115694784,-7.831179840659462,-0.7984192673950172,1.8763455381090317,5.113253690538247,-2.151893784095983,4.935903246672661
0.5461599839896677,-1.908738352783894,-1.2959894434807482,-14.260884518118242,-10.245457980426622,-6.355272184604669,1.5479735819936675,1.8531289156407305,-7.292552112925505,-0.5330113130528404,1.6953558025609965,4.615279492706337,-1.3354786144017765,5.670413573977896
0.433952030811248,-2.276861344086917,-2.329713416630266,-13.71141442979625,-10.54132291359749,-3.807451976123364,2.284450066984527,1.9018992437855968,-6.187206318658782,-0.4117079766239182,0.751451335238292,2.2617148122187545,-0.9248858032776816,6.260930818211158
0.523475434708115,-1.3475907813863648,-2.4661594855010724,-11.743556810872803,-10.568532347565244,-0.866247399784971,2.40089492957334,1.1885346962483812,-5.252855131775701,-0.2410115925861573,0.3817981943838098,0.0868284415309064,-0.493688476315663,6.904361010907935
0.7653066706559308,0.6613342004993767,-1.5425566143286882,-8.036623549725778,-10.12720459784307,3.219164238731457,1.4683788677279848,-0.1381976599098004,-4.454438571204689,0.2567197488394734,0.5193744242733265,-2.192100618649551,0.4245729700982856,7.335006202978663
0.8984440219968992,2.1794497474576,-1.272293863406743,-5.533461926937713,-8.884923987139016,6.153369536389384,-0.4669239335359341,-1.5626455890874462,-3.8119029830186526,1.0598088192241018,-1.271826247184102,-4.056567993884889,1.482130534753538,6.641974407953457
1.1302359935294688,1.5439378151433325,-1.3615336505232658,-4.179936731910441,-6.65606301955151,6.134560210926715,-2.958034017389717,-2.867041398349549,-3.5049697579058265,1.6015346802137742,-4.911948380958928,-5.06057724013138,1.2948859995424755,3.828492318981661
0.7002548657971785,-0.0816317731490072,-2.793882765861157,-3.1742735379107323,-3.652700316654964,6.189953651488193,-5.34659120850446,-4.474235003998054,-4.625780725796277,1.0740044539323164,-11.319061183122214,-9.54225196963555,-1.5375764469765736,-1.2375312580283353
-0.4063541697029619,-1.1809491283495483,-5.976521605114398,-3.2144792610371518,-0.5227884926680013,5.34668537594161,-6.882852863056876,-6.930418337211146,-7.393239587316995,-0.8438304590808907,-21.22907500256799,-17.56119785148314,-6.8425821972675305,-7.2957882246364285
-1.515728379565923,-1.4068015090545456,-6.662044034747607,-2.2258008105230727,1.852603736900206,3.5133415213571,-6.924488859858302,-9.990316387385365,-8.119694564534326,-3.4896982534893226,-24.42390075639584,-19.809180393598783,-12.33699448691971,-12.196333081726182
-2.4295988650000253,-0.428668999789002,-4.908103366089599,-0.16520040751427,2.7266172739179035,2.0587800854610694,-5.341513194290701,-12.343466880544332,-6.865288299477518,-5.49550362417211,-20.5255504978406,-16.559433433668875,-15.114355228793272,-14.256307517873456
-2.535145357939934,0.7758599641859952,-2.4619244639668825,1.309346979210258,1.8532708870093857,-0.5092345515971701,-2.8200310011220395,-12.43586133246877,-3.855505889918445,-5.68807637232822,-14.930348964602748,-10.505095491891542,-14.15078069875523,-13.489244040259733
-2.358262286857085,0.9401675130498108,1.6374337319499574,2.6020777251719367,-0.3117124886783669,-4.41806484073601,-0.578787302878625,-9.707288038268704,1.8773267727263827,-3.87271429902596,-5.143441091750749,0.531199863251207,-11.438448644704769,-11.618301189002022
-1.6849916721175613,0.6461951573169274,3.6019633875803247,3.682107621385843,-2.715177762331495,-6.5990341027650485,0.4877478018383527,-5.101026826481225,5.254696727461259,-0.9002736110910905,0.2947870737380503,5.560598409652265,-10.321782729883122,-10.636602493682595
-0.5687288541521294,0.2546209139196904,3.096655602031159,4.313334453337839,-4.117336916744652,-5.926398546943909,0.5162694540076918,-0.391840726331234,6.23969331783492,1.942562183526678,0.4306068975232056,3.9251967181677543,-12.297153857342142,-10.98363231320688
0.1689255752781013,-0.3815172219220701,3.8159077733588576,5.934430361196337,-3.649271163913353,-5.007923697121549,0.4874652194314004,3.023418448883862,7.929395562401074,3.685374807493706,3.115202850390288,5.093772162185122,-15.29361535537761,-10.984596549156144
2.100373851857952,-0.8566201602129828,4.929698423732219,8.568747747821442,-1.2695243509119225,-2.8169367361305517,1.252223165949069,4.838034772714581,9.24033356883558,4.074717707162012,6.329940656931056,6.680934275938663,-15.27736397466726,-8.280874304890549
3.418312571468061,-1.077916731271744,6.123311801225733,9.656934876036912,2.1168125211208184,-0.8797939663678966,2.712145406604402,5.614391710300794,10.236649558424505,3.5049312381993425,8.765780763773936,8.642203957219573,-9.87102169902317,-2.163027343044832
2.8448690935593266,-0.7085006750920859,7.912702967157105,9.341898047160305,5.008863365278346,-1.8340372789587407,3.950552973654343,6.05267761232953,11.174769127569894,2.66016464345673,11.296922216061972,12.240493832889433,-0.6633509251648437,5.307734474181938
2.8312465273213987,0.6005450305888328,8.792997910678812,7.785886822018601,6.04821961908371,-2.306314158822422,4.125294847859187,6.454176447167948,10.40152070826448,2.1173205970497198,12.309441267699604,12.781303662695658,7.918424747046173,10.566115925765736
1.3804666506108385,2.1917158750190597,8.777030965483727,4.3696794392269735,4.777520814939376,-2.283404089415205,3.1952905493115846,6.692499859822968,7.861156142721234,2.0979309406348685,11.675447723499056,10.379487225166184,12.087459408287684,11.206236386791376
-0.6284661413747401,2.696957552712971,7.94297179019765,2.6124640405003663,1.920565284207412,-2.746504384163053,1.83962423842622,6.526333571004866,6.7035997315011375,2.473194767526228,11.30682501967864,8.899653945918553,11.358331890084646,7.7280543469424305
-0.957860315799328,1.737995298340968,5.90744886146191,2.575436205943419,-1.0796506130325798,-2.0803048469437626,0.7955387162593808,5.8984522129061725,6.768974603474424,2.9836694638938703,10.914553809765708,7.545280220735,8.262339940810183,2.926884502804497
-1.7870660965781606,-0.1616557872610574,3.1863876131819557,2.220270682795863,-2.9699586940392377,-1.232749931160027,0.3369414043277543,5.016564417363048,6.523739833438686,3.4788818152054577,9.700253344788964,5.835672907112976,5.817267832723522,-0.3585234836081046
-2.266472285437956,-2.0775941552361936,-0.3632210308090763,2.3315380553689216,-3.3750926764685327,-1.0015634798696087,0.2804700064438497,4.209200643098443,6.600593690718899,3.9698160963326456,7.94775832225506,4.35728598445913,5.266885223078295,-1.0923562767033634
-1.5197031291668173,-2.4844302674261467,-2.325346903378343,2.220738736398173,-2.7873818270753805,-0.705936379632101,0.3021527166527149,3.674388581340275,6.715393160592223,4.48833519134562,6.808830592787043,3.122693114713668,5.856019663112469,-0.1223221250148598
-0.90329080735529,-1.5689822530248425,-2.405663794702072,1.6950557804657018,-1.9802781372867784,-0.4302851067995853,0.1797045867668325,3.324468206579425,6.761866027669661,4.967810978629377,6.326474313046109,2.2960748024549438,6.270677817190017,1.1129623332027796
-0.2502675760735147,-0.8097551167479,-3.604137810463796,1.556713460836621,-1.4263273530566782,-0.3287791664214367,-0.147723441640112,2.877855918617708,7.434333508842791,5.316607774289661,5.678156183273529,1.4619792272555503,6.016216177488339,1.823590222165535
1.017572709936032,-0.5275411211537475,-5.390009113077445,1.6211201394116428,-1.1413373998433782,-0.2292450650585995,-0.5747673546732446,2.1673385962049334,8.69298773701751,5.591175166674829,5.140135112172625,0.7017876842656646,5.5577222076146695,2.1211666808700467
1.6294594533044362,-0.6364284779295413,-6.467293740440265,1.7217228498547308,-0.9079398357003235,0.4139575968501812,-0.8418610058533578,1.3839216210907006,9.05870492507619,5.994799898091202,3.716139287322995,-0.0954524636057542,5.499311656950253,2.4827349442729743
1.2899232384318238,-0.8583271144311191,-7.228542073503509,1.9524425365074225,-0.5293685541398705,1.671710807003225,-0.6607056007717083,0.9690921452940776,8.546564965384713,6.609527396180145,1.2322444830522283,-1.0038270307735233,5.876490063471087,3.1732772072806004
0.7017936705015133,-0.119358206525929,-5.691800909895675,2.303673661933075,0.1253158434706671,3.045091349986757,0.0638709041034837,1.2040277004486744,9.157497925444906,7.131893380971831,-2.425019850894598,-1.7079632485151868,6.215014526270017,4.069211368166078
-0.876752634859528,1.6213140558616206,-1.4887056554219302,2.7727451718512484,1.1578017936902552,4.899630201436998,1.120412389853792,1.8599855009953647,10.688989435576431,6.941060066291459,-7.633508998098127,-2.2450577021991527,6.058521202338714,4.79663597637475
-2.068801536724051,2.618625783760058,0.3211042162730676,3.0850168481817986,2.564452944120708,6.459532479565717,2.1417637395445395,2.274568170314632,9.510520462359148,5.511706101491656,-10.155722933169772,-2.8258541219749227,5.293342585797122,4.941949709074137
-1.5798029524454444,2.2742552566535856,-0.03472987761117,3.212319932644226,4.07807909633228,7.1189845076010885,2.879028775814877,1.8378850175168224,5.695321325676892,2.812195932371892,-9.810848546923822,-3.4081307536901417,4.019040639522236,4.262277485035014
-0.5396141186223221,1.1798347944354095,-0.6618865280793512,3.848112359253145,5.136466942149045,7.869174259945966,3.307780463920815,0.4896306791931746,-1.3776579032923035,-0.6588947267407004,-8.641953277417517,-3.934121336437197,2.2890707104844594,2.874150374802896
0.959114765799344,-0.8863256402228803,-2.6390243228891928,4.970483100273589,5.182794956825853,8.435997892282508,3.5041372175287897,-1.1828678934267909,-12.759108192898095,-4.159095173349967,-5.583974354295299,-4.434673725017559,0.1421546437511977,1.3065473054315273
1.642771332135899,-2.277820592712554,-2.5331918295622398,5.1599916421761,4.126469211411534,8.350264286025872,3.500502119889985,-2.325300090014008,-17.610383780420555,-7.008606428426459,-4.069595832899324,-4.446091585286275,-2.1197768680118343,0.3073396400203808
0.501045921998561,-1.5641442543634445,-0.0639501353458617,4.451418735522133,2.5459935713346478,7.789815367925171,3.3018570890283323,-2.3990415665809275,-15.586072583821226,-8.727474493112993,-4.409952581646255,-3.9200802719050674,-3.835808007661238,0.4577559501402266
-0.7157007803531067,-0.7240280031969573,1.9477551347864916,3.597311526830412,1.3137257671973104,6.626174612347992,2.984358254064664,-1.5328075589567134,-12.402552955701037,-9.094150279828003,-2.6381104057294404,-2.2880221428426157,-4.3495263923326,1.8089916783560571
-1.337323833498432,0.2430329894064002,4.285636150545678,2.295472253044863,0.8841078882961764,4.731403607513332,2.6902921459592664,-0.3651055198825531,-5.456760201004989,-8.241450195664546,0.5621195689492775,0.6649124800188765,-3.5303555707650918,3.8244650746170095
-0.6457608321079397,1.351752873966175,6.097854316438251,1.9744093080650815,0.8999406501541731,3.263867310987143,2.524424543217339,0.527478821218834,-2.016135387300234,-6.6792114152638185,3.692116539031208,3.6672965435521783,-1.884226751117088,5.701281861552369
1.2496173430411277,1.0983487630559607,6.964666317324963,2.821674406818183,0.5852747621576222,2.55985269581526,2.519691885546287,1.1506907840562568,-2.933014396105293,-5.046896654695043,7.3069719905942865,6.872637304601292,-0.0859012377472994,6.93062575426628
2.1395520510990917,0.4827168755611709,8.340918621071792,2.981955049913228,-0.3665353745654396,1.5967234958954566,2.6981313371614446,2.025593641433553,-0.9636871317988984,-3.672098362010104,10.470676833211302,9.812301580843943,1.5948922812824031,7.730683407332932
2.299854278744677,0.2971359191810389,9.93387683430589,2.7583799003659744,-1.335381066462431,0.8300178465043005,3.0545817928736456,3.5017242964903508,2.230849944327949,-2.3612981253377407,12.951301889315063,12.178550064715305,3.352543038090558,8.923875676289745
1.476131343440796,-0.1694573527935887,9.739484214445598,2.082852537783611,-1.3453470406640156,0.2014106769429351,3.386890262123339,5.08903730863486,3.561927626716275,-0.7417382811541491,13.906652532488518,13.156187447460576,5.334032740912016,11.141436697327656
-0.243532505031092,-0.5424511337167002,7.773622877053888,0.6090233932740537,-0.1725690281480631,-0.56844015219366,3.2304711708478475,5.611908155829856,3.7586621648998784,1.1080657041706834,12.88052689786673,12.361289995186578,7.175510669147235,13.914922755296478
-0.2866426655570821,0.0565669668386525,5.132053856719677,-1.216050878694836,1.2343395611779062,-0.8558436515388953,2.2004717896376342,4.256057739086262,1.7426209397804933,2.4206202239457792,10.748792280199462,11.064458740124254,8.103853118841485,15.54164155291542
-0.6228070430502352,0.3002954730809417,1.3605479950875004,-3.549061783475557,1.6230167987086284,-0.8976499044218375,0.5299842307525202,1.5519092201458091,-3.124866590159779,2.2623565468223745,7.094313389697803,8.934503916139155,7.480821343919461,14.152092589197386
-1.38379554116013,0.1001551411957951,-1.0112450727868354,-4.412783536629247,0.7629952144392178,-1.335931895567512,-0.8451906614371585,-0.8113568846361139,-4.912349843798835,0.3987453260776705,4.080625368099102,6.670332305923422,5.21285680721139,9.305592026083964
-1.2121424499379236,0.0468849970425397,-1.6736570828571906,-3.583491149656026,-0.2584544473483254,-2.0052015264447074,-1.01037486015686,-1.366992101712412,-3.6427655089931497,-2.360571229857873,1.917419752141853,4.4940371902359,1.7192235278172796,2.6917996512908404
-2.4910776784714423,-1.1817530048924814,-3.048495438037037,-1.7785823127918234,-0.2166430972358171,-2.625871088138275,-0.0452753175760705,-0.1906954834990805,-2.2569094180203297,-4.731646208045071,-1.3994685285124475,2.1557857018342284,-2.237588513541245,-2.833227617913681
-3.1498624715317405,-2.467643807437823,-4.519158629543243,1.6035674304204537,0.843746389801407,-3.457312971558854,0.8011390420752846,1.1550468734441584,0.5652258830214386,-5.916321499057946,-5.368544435853809,-0.0624975632743523,-5.576769422493192,-5.193623948220317
-2.1440170341931326,-2.626721051156727,-4.949964859824802,2.579227670385169,1.6046163244261482,-3.910305999657794,0.118629307816966,1.035410700082652,1.1532415022406657,-6.068816657467186,-7.415026497584963,-1.7956021711685697,-7.019152749397421,-4.427181941352175
-1.047507237404626,-2.1139631059391766,-4.537990939621115,0.8903657978358671,0.9791236398774918,-3.818282162022092,-2.334711941880818,-0.8599537430653488,-0.94445909714425,-5.895041345576322,-7.540863807440298,-2.905066203072675,-5.721477942123842,-2.371831677778833
1.2112641267491513,0.0555470130073572,-3.229254258414056,-0.3915730415297093,-0.5336478903469439,-3.90243250121041,-5.294409709634651,-3.439517462211947,-2.4725021861371035,-5.884967863072479,-6.777640630284709,-4.8830357188493005,-2.170078625405412,-1.1556097665465084
3.9458901897048735,2.966412275992814,-0.7834078502830341,-2.188304471221172,-1.24012919442325,-3.646431966420784,-7.031870487271586,-5.395673705490866,-4.323058287255844,-5.958354837935615,-4.486749867066147,-7.688634060284298,1.5946373476799849,-1.8648162523106944
4.906233479874606,4.283703762024046,-0.2031852281508207,-3.3384876246277506,-0.0712581978909687,-3.049196596884732,-6.799428645137288,-6.383023620534258,-5.382169104044465,-5.790671444303145,-4.070119997631199,-9.549850099037076,3.057745155141644,-4.308649228725985
3.8212967858305302,3.7875463267901632,-1.654495134163346,-3.397874792919658,2.1043435758274267,-2.721352761036204,-5.335335344494305,-7.074775586766016,-5.150882228159693,-5.346744120135474,-5.803389809837742,-10.67350381111215,1.0138286464953097,-7.633496903456207
1.5344080431656606,1.9945142146778885,-3.384434291685284,-4.924941419775429,3.1505886991985346,-1.914285179676522,-4.048341273097652,-8.213100721983345,-6.3963220157587175,-4.991856848355158,-7.225739641351527,-12.109254954262058,-3.4859326841349407,-10.964253882111413
-1.9259408122053203,-0.080598554138984,-6.139114721856384,-7.646035534024514,1.7184702771458271,-0.7378497485517603,-3.758762569443962,-9.688338048201452,-8.847056033387537,-5.067452411099108,-9.16674546171387,-13.5837561635186,-7.902369386842768,-13.624410606708372
-4.0235163506469975,-1.047900180264211,-7.48022372358238,-8.73736278260475,-1.337536606055208,-0.2529647447796283,-4.156372048632877,-10.50975806238031,-9.35278858865064,-5.410942564930224,-9.660839135110072,-14.6972450778705,-10.005061591170172,-15.134906186491351
-2.715600376568543,-0.2866067024939669,-7.09784418089528,-8.450012368251189,-3.5550890858880404,0.460749194490702,-4.30717031179911,-9.6236054696592,-8.18832621482548,-5.3626481992629,-8.30067646218724,-15.556864981370005,-9.163267239089503,-15.324869514151874
-0.3758329516640686,0.3851907958789425,-5.871186501366852,-7.341736128943483,-2.926938196905999,1.2531500159615403,-3.567827551239658,-6.834906374366222,-5.815407536603992,-4.31288419404167,-6.578510647442827,-14.32322970384498,-6.289973457976398,-14.516590549587391
2.518469293803808,-0.0971056712258901,-3.063793601460535,-4.80782157200862,0.3589817255408931,1.318536518464293,-2.066096820203139,-3.100639683248268,-1.541405655778702,-2.310487960915669,-3.90197563865148,-10.74331437378009,-2.9074367913160906,-13.473998907261306
4.0452969356799535,-0.7850310040341955,-1.793410524085233,-3.7503003715544376,3.89198967978604,1.4929462519937429,-0.4856803111757184,0.0082262674010706,-0.0850081857654921,-0.1840792632996137,-2.8831465504386,-8.52498277945198,-0.3018434905367648,-12.982829386181663
1.690508121419847,-2.105881406825852,-2.19349494287005,-4.291126320064254,4.688784415279098,0.3885428489018854,0.4845614839072354,1.279805900514031,-1.679156217310355,0.9593285614335868,-3.853232750748257,-7.39413013563313,0.8265209992553686,-13.339829082080392
-2.25594917620042,-3.9647819463565424,-3.821690021906381,-5.049276928474941,1.3304704271291214,-1.882213294802774,0.5493084687404313,0.5788149952494273,-2.6315579430590232,0.4837535589131541,-5.495326883067937,-6.788442886807789,0.4612841865573678,-14.136598332182857
-6.701584816061441,-5.267513963387422,-7.549963059249477,-6.73904207794307,-4.84919121405694,-3.8764186754921575,-0.1408532637751758,-1.2028118758853117,-3.987856210325429,-1.3312530486743448,-8.568830504369691,-7.522999872509301,-0.6937937572008259,-14.450388149095147
-8.453906377609684,-5.158854294535813,-8.08521553684927,-6.273667925800162,-10.366197505004218,-5.432202223523413,-1.1797266610723014,-2.887776730028678,-4.11696346420517,-3.454385315855136,-8.139066094709003,-5.786984154528874,-1.4497875461371574,-13.240172677135345
-5.26357813577846,-3.46055546338292,-5.2618864882238015,-3.360721315057671,-11.733637986309066,-5.065081589682274,-2.1528796568254123,-3.806112182344009,-2.4215121799829293,-4.739820240036504,-3.776744810421653,-1.4825388326956432,-0.7969647553155852,-9.716442454725126
0.3670458833259341,0.3822371725048525,-1.367575063620656,0.7040502861012115,-7.819549169517089,-3.552972382277574,-2.813756583065093,-3.9769285242337737,-1.4986409923555466,-4.609797023534728,1.967748409757088,3.502944882168746,1.3744371819206371,-3.65012995428323
7.194350753668969,5.753683646377323,4.902527402642063,6.787761735692837,-0.7210870068375677,-2.212860280876963,-3.127968567780748,-3.6422244401130506,-0.865174430188914,-3.358956190668785,10.427142562945184,10.063343693537757,4.131041366746295,4.330736352157857
9.900457504232678,8.264315151338744,7.0944686447248095,8.799379108170827,5.626858412262537,-1.3009557583589024,-3.170575545043743,-2.763987941166384,0.0185706990582925,-1.9022698013855412,12.935468080941082,12.122176835175589,6.114823709701938,12.586222446693045
6.4149955352693535,6.981354950777303,4.653514840072308,6.256177145548006,8.155918464675775,-1.4899483388729342,-2.9773841928114235,-1.0855157552697747,0.7820857967979515,-1.1223147632794612,8.664587023029933,9.038434296639927,6.4209995151407,18.802619585950325
2.2022018581178804,4.68797722696629,2.4629284979186115,3.204511963394022,6.593988437980491,-2.035425840604112,-2.514096574870893,1.3314625081671303,1.181964138725616,-1.228331949762851,4.077137957764438,6.008368831140313,5.080980621818885,20.997826384386368
-2.2394523534961777,1.2210964410491505,-1.0428637182641107,-1.8845148518297803,3.1506042588773866,-2.3549558211398898,-1.8214856212143504,3.7670251009220816,1.155572555038524,-1.5874035583688375,-3.005523626261521,1.536484215761276,2.9415248588927856,18.747793296855043
-4.208818383354308,-1.4125765582143568,-2.016038346791207,-4.011280121416951,0.4128029969831903,-2.6519100260247868,-1.1778755683362014,5.184396659477127,0.5315991958163814,-1.2222132817813094,-6.328298564659886,-0.0664884396425014,1.1775545391781428,13.684776978689223
-1.7391055199096406,-1.3334201204341307,0.3919557427180377,-2.4193962253212,-0.6303910384840989,-3.149866555497641,-1.0257266895503712,4.992880795486414,-0.828687409938259,0.3292468976358069,-4.713695751279807,2.2195157972542865,0.7190983532426323,8.597739242927114
-0.6083554746431387,-1.7088660252373993,1.5546947378407434,-2.046847824079449,-0.8498683112215577,-3.845897275888419,-1.6093107560930946,3.5108476669620394,-1.6086296269748934,2.484439967065992,-5.131946365337454,2.2092925792122777,1.733435595540513,5.560192738138493
-0.7427429626606545,-3.123945006148048,2.488134543976978,-1.637274270892924,-1.63541107556809,-4.758186626682496,-2.6209661565733637,1.7042879683861418,-1.8027995009241784,3.958289270104713,-5.973134488391191,0.9893483289879688,3.338009943409069,4.503915822893813
-0.4860855610563119,-3.1196209179177954,2.8048136994256536,-1.7085023710455762,-3.4148840978366515,-4.996426103542613,-3.2485592458816406,0.47446332319549,-1.3238017078423985,3.829503925091487,-5.376059674117158,0.8483460375829787,3.876958400469288,3.50510391319785
-1.2114682723121752,-2.675726114305928,1.7845156803184137,-2.948762297835878,-5.350766273007636,-3.840522137673877,-2.71511557106977,0.1223189156882114,0.2037060249627157,2.46074621351006,-4.1335838771492925,0.9520486444766976,1.876391839638739,0.6615905595672089
-1.2933239013807258,-3.19340312709653,1.8710994871983797,-3.251617839272696,-6.2570232599147,-2.254396389357258,-0.9189334669431376,0.3676180910654665,2.0640303633756627,1.3928995810209877,-1.9784527237520204,2.241487322555008,-2.7840280452073536,-4.009361042864434
-0.3433010793199892,-2.325536183823517,2.843311830688319,-2.880350373973511,-5.707957554290754,-0.082165711204693,1.3937019683479477,0.7951803651028744,4.422358655770281,2.1666251680045345,1.2612085744229722,5.030219118317715,-8.363272260245422,-8.344488029871854
-0.0271551284280387,-1.3118199253247709,3.543643157021708,-2.2416430744487625,-4.321129492992483,1.4756727225383195,3.140911403870218,1.299882864143889,5.718853984485386,5.0100409192346245,2.9274784815907053,5.964311955385157,-12.015457859618907,-9.737433921223555
0.2008003226604165,-1.000304704547785,4.379709045264052,-0.967821851946998,-3.066679612842055,1.5641249488729756,3.721253679464862,2.161213917352404,5.7035171071353,8.53046232131977,2.883355091961503,5.103178360787018,-11.531736883818745,-7.314826669742935
0.6724242534027752,1.4567696146478344,3.979423873119572,-0.4651148754397778,-2.328499184995593,1.70745500406847,3.455065728103888,3.6826945173277217,4.636134501677232,10.72037744756346,4.5095636260634855,4.899715582607417,-6.9700931537176345,-2.70979775687511
0.7095620218982925,3.579868849455846,2.098901807215511,-0.7948519913070491,-1.580905752591958,1.4974847788608043,3.2692438786916256,5.684217796045687,1.9705606934286064,10.474251106178915,7.337683931770867,4.713144956487906,-0.955411003867784,1.22259193338704
0.6675358210527486,3.692439295035565,0.876077781361218,-0.8806292616048114,0.0123600556501024,1.958663107328148,3.892585105166216,7.331110415889071,0.7939928213055366,8.392251862543247,8.246657294617805,4.528409052953879,2.799376056959144,2.5999613704283284
0.6033013512986533,3.2291089138110745,0.0254737756636485,-1.024494304864083,2.610073029496938,3.453858351483751,5.263541910396906,7.609041570514556,1.1741471819813567,6.276350486707528,7.590860329171521,4.669848958545083,1.9629850055053597,1.7543201832846511
0.4640413256009194,1.9075894374978728,0.3528954186766886,0.343865754050005,5.26142197521575,4.74938489323667,6.661206759322141,6.195586568289237,2.1170182920549627,5.787605000078969,6.151049328249566,4.445474586096046,-2.6477019826763275,0.5817667069520631
0.5842246468181316,1.0788425302066598,2.367443286871394,3.513181390766697,6.54904592346103,6.641135771679461,7.405527087655809,3.9662101631108895,4.400475432660787,7.326505239674311,3.3119621991998818,3.935337749996444,-7.463114287689134,0.730085842674562
0.5639068837064816,1.1261909742185834,3.32522879571723,4.493776068347024,5.831778949846008,6.824230337637723,7.439340238566622,2.501434794722833,5.646033282102595,9.913435912121692,2.54231772642072,3.6289246353415794,-8.676386413297092,2.271244906447329
-0.026454412663444,0.5583641612508987,3.4472624450075253,3.466607222063192,3.9291409509033,5.367438823177086,7.218501604612815,2.8186072569670806,5.776577702720854,12.023164184284028,4.083739348861326,3.4429285511662675,-5.064836394001759,3.924951395032906
-0.4462087240336944,-0.2750785167559871,2.924615055475003,2.1509276822955283,2.488407949217649,4.146825407052349,7.035507748406822,4.393368337825148,6.469233685816658,12.662912352051858,4.378600681650356,2.243760199058181,1.1545201000092788,4.432362387628938
-0.8619630669765646,-2.3474517859390938,1.1561153107286988,-0.2798532822472547,2.519834105590796,0.9475099211071026,6.510767209358285,5.454193336095287,7.220706399754075,11.917571122125786,4.144005951702123,0.0083235065144616,6.184111374198992,3.712456779817345
-1.0017037627301992,-3.912668041683743,0.9685191803635907,-0.0028252757446002,3.498264311736332,-0.2454792456371502,4.876206972779396,4.450235250533527,7.901997030011544,10.679479766359172,3.687404846901618,-1.685377908529314,7.629785234340527,2.7786544099784614
-0.3829746993955715,-3.019398899744309,2.3737278860087576,3.395056858475777,3.9491777611055774,1.107632374309902,1.85411179142368,1.455953254147456,8.6800630640621,9.898909281492518,2.461794697790639,-3.0101610483063586,6.08131714507347,2.6655117625067035
-0.3054943191596559,-2.3220226645692668,3.5842861882889614,5.491597537950987,2.980333297406535,1.0630562237583114,-1.7475667798133685,-1.7601239547931762,8.613142755512117,9.969618377811049,2.0977493000559253,-3.359840738637722,4.114873821658499,3.4908682577830668
-0.2796324708470565,-0.6190435482548622,5.188912967573946,7.10239005624944,1.217638850029278,3.260615516682933,-4.4276931918632165,-3.1243407647075827,7.640154378989175,10.632241989006223,2.570431264676364,-2.3286455540037667,3.91667070362174,4.493168491742235
-0.0335952085720415,1.3194648451830475,5.135143813914215,7.486883102331059,0.1847430587681096,4.492232796716584,-5.126756975400088,-1.9272773974207735,7.633147293822466,11.30107242105246,3.4849772669174213,-1.1493243714933117,5.76613556034609,4.830960029733269
-0.1311910231339252,1.4181235524185554,3.0462267294743377,5.8115434699362805,0.7768707232595844,3.020023387450249,-4.072145374600996,0.6699124054388435,8.49327156132435,11.443682365193196,5.219175533809568,0.4448870233548322,8.473559954373606,4.268200511626283
0.4332147443779881,2.0768159515873643,1.7959981650282313,4.561211733913824,2.409838933607329,3.6291271100159648,-2.5240247945715133,2.695884768562319,9.219062368110324,10.7723247070427,6.459035499506165,1.4844065392221268,10.856066973619772,3.171220626883408
0.7876703749064452,2.28584758529185,0.9162739126875428,3.3458831243409506,3.7191618349457904,2.944143001940952,-1.6445734307247832,3.0498551424604745,10.17380091043638,9.310316275704489,7.172776594606854,1.6941673044412784,12.614655144977725,2.0493819035049654
0.3371223533516336,0.8067068450119342,0.3978622440743847,2.1757845145663177,4.026503192584601,2.040077939399123,-1.549664243800546,2.333942532589827,9.316186439157262,7.443383944138191,7.216077409153553,1.6377069394215986,13.97298359838138,1.2201732908030165
0.0923966572913997,-0.564925460901411,0.7622532632737812,1.4887761969898334,4.002585948729486,3.4190087968675944,-1.388757423975857,2.130826269131859,6.357602308095177,5.859295790152389,6.204451793379811,0.9562266249816932,14.842653690166356,0.8118082038108732
0.0760712383509749,-1.1437898056377511,0.7381502066556841,2.502596817751202,4.8600334337481055,3.4066596222612007,-0.292473262162872,3.393751383619808,4.637417816128576,5.192667818470021,6.805372245568232,1.7941615964176811,14.58384129058644,0.8421737105328173
0.8352630812192657,-1.233262043209036,0.468002649490869,5.577246977208526,6.94500599002156,3.747645557652223,1.7413237326433872,5.376659338994333,3.778397120408603,5.470113645288224,9.0321424993874,4.313158840017492,12.544620211225016,1.1369956854518746
1.955852813126629,0.1004304117509824,0.2727816818123662,7.499990988917367,9.218832380294034,4.680086750058575,3.796155187677803,6.094900500175808,2.6017639164528554,5.858353245251319,8.119727431132704,3.8181668067845975,8.714676735502483,1.2473131296605755
2.10179940546372,1.753872682669296,-0.0661404371579017,8.507461420718569,10.159492420856774,3.839643687240261,4.761994545142692,3.9878314181949968,1.695237885982188,5.139166002528603,4.316410121507441,0.5036236624944098,3.853575968633768,0.6793511226395692
0.8705934325348487,0.9557301021149522,-1.6105168653541504,6.859232201657417,9.128497794571102,3.2924998496602145,4.149553838312271,-0.6240206719710999,-1.268594528622286,2.676033216153744,-1.2827394313313143,-4.704305562596981,-0.9322481222737142,-0.666026956015215
-1.4507711704316817,0.0930491561281522,-4.497665388134451,1.6257493396553135,6.868333533535358,2.889847439623934,2.385217245317208,-5.567196404558894,-6.542378718958075,-0.9541090075481105,-9.760502280991172,-12.91002641824523,-4.7278698851886976,-2.3216647934801777
-3.320699923050704,-0.5412539726825365,-5.776805415100102,-0.1301258111489266,4.731845366899638,2.1234149043573542,0.5069051612148439,-8.36208579690828,-8.291958273724218,-4.316304662216858,-12.455983163274205,-14.67099190062497,-7.115534838896048,-3.631618877716846
-3.5672286694672604,-1.6391519571229058,-5.530654215269007,1.3107281084547244,3.504604998433232,2.312405828249644,-0.4273635865092058,-8.023197574066295,-6.687259112124154,-6.223545596370094,-8.776402995995445,-9.376193997803856,-8.182060714065837,-4.344200783779255
-2.5262710116774114,-0.7440416700669501,-3.919487903713336,3.938165322605494,2.914272913578352,2.646408488309813,0.1252023128708224,-5.624202456329261,-5.5341635701537095,-6.634529670777984,-6.655140203640853,-3.8491930363452713,-8.341479915625712,-4.810139448664061
-1.1207556744413405,-1.3393104779158669,-0.1849082663511921,9.325120112011852,2.1414093924657878,2.7601824765837226,1.9142355956494264,-3.22628413873365,-3.695098366158268,-6.567008238681657,-4.189095538963014,4.156184633502325,-8.088374081297209,-5.539834216990156
0.1399188769666942,-2.670218537437105,1.2851384533382393,10.256677017828562,0.6736671005139865,2.4530464777292424,3.998766382057824,-2.173642151538722,-4.496062418976153,-7.168660602388046,-3.884072448668168,7.069147891475925,-7.811265921390033,-6.590215985005731
0.6202610651263518,-1.7429046051464476,0.4227337509637529,6.310050755482729,-1.3138376187655858,1.4484678847677646,5.252484687776722,-2.229307963799341,-8.706872848894223,-8.821698832678457,-7.112509342847488,3.5039820712310306,-7.757030375870205,-7.383480282697818
0.1500859845595759,-1.3047719818154515,-0.0622670582655138,3.4044460840784274,-3.250456594655791,0.2301786429865308,5.032096795070046,-2.203510918113089,-9.379325514002025,-11.01741020361048,-6.82158965995215,1.1399166291479377,-8.07996740561066,-7.093325713938526
