AF3,F7,F3,FC5,T7,P7,O1,O2,P8,T8,FC6,F4,F8,AF4
1.0045068157243884,5.476748943293732,-0.4986321534005693,3.710179653803646,6.854883173880195,6.180566956167476,2.3212114504433794,1.1965896662152469,1.7826618950246615,1.3149819299956134,0.3942652571276433,1.0294275819178886,2.7332443472361603,-0.2951793648870986
2.50030901517065,0.7889743319012885,-0.9925885579167816,2.6710412657878138,3.964683191303288,5.365163881265676,3.519570360996592,1.2610088725610116,2.7923643280689934,2.5384725729352247,1.2221096216259688,1.1848395790567203,3.380431977878202,0.5719209610842105
5.455271963051175,-5.775786877243281,-1.5732487242854498,0.8629450419587528,-0.2327808642988273,2.572362867568813,4.553863341318043,1.279688886647136,4.473762794431702,4.51983169089,2.773375180002299,1.032844613153043,4.981793360907922,2.31627115163231
8.001073259707347,-10.279832722038943,-1.447524741523316,-0.7745573318139982,-3.8363592766192447,0.4790348940931611,3.965884111098962,1.089801544176012,4.861062486490281,5.0354784523351945,3.472903377392768,0.5417672008283309,5.560307467889557,3.2017112192698893
8.094384801836242,-9.074567743365437,-0.1224174371025244,-1.462579204452915,-3.541766701048422,-1.354391262579855,1.0296468295593733,0.5883457509141334,2.892419003595234,2.67378610385354,1.9047237901275025,-0.8722599130707153,5.375058652614385,1.3630458112527255
6.306362161465013,-7.828109639428175,1.976172004231854,-1.3483047288367018,-3.1779153934902937,-2.2596057597812105,1.087658830068304,0.4393129995049771,0.0454420349197266,0.3620051995300531,0.6589420373096595,0.8847718043934606,3.486124460661041,0.2398260506269668
3.052209158302022,-4.976247657914326,3.661358126067349,-1.277110951407206,-2.664779369411712,-1.6742091674138435,-0.5693406360996407,-0.5639077187836424,-4.703639792660367,-3.6454787231482073,-1.9949980470213544,1.546281394093704,-0.6127318093444166,-1.941904563440296
0.3880890856268174,-1.4474879718873233,3.889141232858428,-1.7766351628854995,-1.292081943266786,-3.047502548844554,-3.814002814022997,-1.8166894851573765,-7.464474426982537,-6.4684876232390165,-4.377440119324814,-0.1898573911589481,-2.339615401261475,-3.9046789506044304
0.353655497915443,-1.1887990931480694,2.6143590897474835,-2.405699656492711,-1.8435665348777488,-6.246374707458905,-4.704190500753958,-2.130694095907512,-5.569363039040366,-5.0634014757254375,-3.5103946532905903,-0.9595966031369458,-1.7635802037301351,-2.4859652960594927
1.6156373959583383,0.4618065626498097,0.7973673860248756,-2.267396442082995,-2.399275436548198,-9.520048098892326,-7.89804645941151,-2.6637411812423184,-3.67006420093312,-4.508784576057216,-2.848424577563211,-3.1107872055453085,-1.183390359542288,-1.7273593431015244
2.501826674530098,3.537688243717238,-0.4243991270640244,-1.1400685752297317,-1.503934443780916,-13.554865511094846,-9.551334718805544,-2.840485574748882,-0.8154031455323233,-3.4676181132121444,-1.5002953091537292,-3.8647927126001775,0.3879685203749102,-0.7512011256909574
2.4079714974991666,3.6645028716699137,-0.606774484926186,0.0752213337642189,-1.1655846959195133,-13.726515232080551,-6.341719413365289,-2.1181018897235164,1.5625665556114905,-1.6144304905772895,0.4206709379473685,-2.0282516760733698,0.2808976629072311,0.2592124715573846
0.5980301731332518,2.1974467001960054,-0.1455144777240598,0.1687045545828311,-1.2170105684504104,-9.452825477191286,-1.7396957268919024,-1.0477576569302471,1.0569412626102586,-0.9986089933997934,0.759845019930357,-0.5531568445664252,-1.8649828973565508,-0.6970505259338762
-2.61967575492203,0.0368894428380545,0.300988643565911,-1.1404433112791104,-0.7564565213900276,-5.5440751932435735,3.4824171201207297,0.3956964165440492,1.441939889799115,1.1729910735270723,1.2374037298731306,1.2253004228451834,-2.4994157171783877,-0.5373021604991719
-5.184384386735361,-5.002093570806724,0.4389129487789844,-2.876432325008178,-0.8482513542958439,-0.8967254199760805,9.542111227508242,2.7554905843742903,2.6641817902564524,5.013418875873168,2.385556755531941,3.3605493381251663,-2.166552332204936,0.3527553549111274
-6.148283092843485,-8.153240180232718,0.423255352249436,-3.7411075338644064,-1.3002252736585935,1.100830444260646,11.071199740419834,4.249937111018495,2.884680592372584,7.036789576079482,2.797893834749951,4.505830224664953,-1.5071596709688908,1.5239587067890863
-5.354437351894619,-8.837932730424834,0.4527466667233568,-3.3203282091118504,-1.3951110767264177,-0.5944311311994298,7.082616717840396,3.588924840242228,2.5442966575474264,6.162789357523728,2.224623036876711,4.149536204352772,0.0825651854486429,3.292010549408422
-3.834722178918699,-11.293438232668462,0.4117714828133829,-2.3567242936491315,-1.688600800938012,-0.0633270410025485,4.334408902604952,2.686094580568404,1.7237389938392085,3.9370996839821233,1.470571262038446,2.412193891556414,0.7192187853307829,3.777287972466521
-3.045465167010831,-12.308284916128082,-0.0320620851747488,-1.9180494047402248,-2.377269815219075,1.8080630967563005,0.0912149817157735,1.1338861788667172,-0.1925123031363804,-0.1460656942311891,-0.3838975867138067,-0.8910506592929408,0.3483913188948844,4.567419869891314
-3.2507285995478323,-11.845672435054825,-0.9967473554773072,-2.4039222885006657,-2.661980491598253,3.016497942520376,-3.167893064406453,-0.4296661760980507,-1.471050002020179,-3.3821295820724364,-1.809224508287097,-3.6100621803892863,0.6330107567519353,4.397354917919219
-4.514539289835624,-10.395165823313365,-2.0978300834186,-3.343163981846316,-2.0523941819258766,4.464165759043679,-1.752396371568039,-0.7558081627157529,-1.419707267112724,-3.2186880778371627,-1.2601641974042928,-3.211865636247006,1.2122499312657025,2.06049988569571
-5.397792524934974,-5.813481045961167,-2.631847784108404,-3.986955794135178,-1.3072048974770845,4.27100660238937,-2.160637714888799,-1.0680507123852492,-1.1913973443299202,-1.732671482536237,-0.5890232181424182,-0.47366231342126,1.7434790518438443,-0.034938492968044
-4.7256522609318505,-0.0862999635967145,-2.12168055383511,-3.953837073081064,-0.4177894908130624,2.1549102364861024,-2.4706270428489376,-2.125260499589483,-0.5549868497956638,-0.1414364542758353,0.5714566209073946,3.0420152846292905,2.449979053392428,-4.930372347057934
-2.910491993418387,2.1815261976014355,-0.7607713509045704,-3.340345107039513,-0.2566058821207481,0.2153107030906719,-1.7906318268819343,-2.857804272760955,-0.1462718311764565,0.5061912700259138,1.0965134542768664,4.361636228597347,2.5463810075947637,-8.511624828784349
-0.6417549981173128,1.4887506116715723,0.6401735770452546,-2.406343169574063,-1.840924352729428,-1.9788896127995104,-2.9051288698541584,-2.537942024979095,-0.3690970930921255,-0.7541468487302642,-0.4089356684567857,1.354271582507511,1.9664037937062897,-6.714580019004143
1.499559312964948,-0.0600857058099371,1.1948168915887627,-1.3361660906359294,-4.17698532523792,-4.680637976366235,-3.189670389005176,-1.9135120463248985,-0.5963563458121975,-3.0461901884562166,-1.993463653065864,-4.184851704025434,2.1432658201745958,-4.952495304804407
2.9068244519717608,-4.05581710196262,0.5695683660065387,-0.2905702952494744,-7.012005385117223,-7.585431367811335,-2.9809501189676197,0.2148087603023173,-0.3035394118073801,-3.6777332545894663,-3.6281902540737,-9.808873677571928,2.97647813068129,-0.0896200230810726
2.8538045761206154,-4.8944258141134105,-0.776079900012391,0.4855913426307143,-7.864065879480323,-8.215651941273661,-2.343193589016065,2.350904466039435,0.5318553649985972,-1.8971037638163968,-3.785383686194635,-10.48575902092362,3.99277332267959,4.650804719893175
2.8848685850904907,-3.19818214492249,-1.8986524315539697,0.778641854434845,-6.528824110156314,-6.233448491270698,-0.1014384854780881,2.337475535596884,1.4012832649207898,0.8579263625226827,-1.5762761144491502,-4.730327603396485,5.485431377707566,3.262229745910831
3.6041966443598334,-3.888615368593247,-1.9682891739360848,0.6605229027522608,-4.869831018743838,-4.51996569220676,1.6101368883069456,1.2898410789437609,1.2071792150110825,2.6877418177057684,0.3585498361075935,2.208736609649208,6.820490207731042,2.3217639665198293
4.239749336541761,-1.869529735320249,-0.7219077500459568,0.5444930011148692,-1.3490131699230612,-2.4695140556964272,3.501525401330872,-1.2433361921705688,-0.6865633225097985,2.16857835972849,2.32364759682566,8.900470779896242,7.962476963021744,0.46097973446061
4.680730549342009,-1.7240918201899815,1.4747956067639532,0.8911042732207841,0.3061660967802479,-1.0696078959776234,4.1109838993723535,-3.3424226565473543,-2.932173243296379,-0.1281705930298825,2.884558436293088,9.992637052047437,9.076588848522109,-2.117027217907522
3.110134765767996,-4.899396730424991,3.887587668452685,1.814452972056224,0.3764111418628025,-0.8697470728023241,2.4610572333492886,-2.423168066150655,-3.533442726641016,-1.6811667884237411,1.6121856823966327,4.366613345090222,9.995113803291776,-0.3101319369287399
0.5258125821342309,-5.019292030604691,5.765477237881195,2.974271655324589,2.277242985683218,1.1722912059565171,2.6173965280257976,0.5823513748070958,-1.211615005850159,0.0094181694227257,2.335656747596096,1.5619851464473613,10.600488897495309,2.0204310118438578
-1.9788089578154155,-7.637055436154804,6.607339667621721,3.855443481513621,2.299849183193442,4.806881070938109,2.0531601360227865,5.087098498627404,3.418174450426597,3.370841568247722,3.805073783281808,0.5514298395811302,10.829706440907644,3.831088482863533
-3.1180410396686065,-8.703981619508875,6.277267026057043,4.161420001184555,2.886071580842312,5.789828455739837,0.4750651345014157,7.503935661291511,6.684150397497374,5.019829283494385,4.047041201666317,0.939132417591856,9.877798196473275,4.345581407577945
-1.240302504135459,-3.0790853904529816,4.9606043071947,3.9833655944255817,4.644930523768727,4.370685004325627,-0.0799414009417469,4.783498995125246,5.462966073093276,3.0756049111535155,2.922076151605588,2.8289726435732905,7.585253371980915,1.358973402368786
0.1670730452721296,1.4451611505391682,3.0006391470471883,3.6715210003976697,4.053258770253834,2.3191975344275013,-2.305391744107508,-0.3859229290011091,0.2170802032721105,-1.8120539303742589,-1.380411044125189,-0.8090350686377406,5.081436940436444,-2.068124097429773
0.7931533925217609,8.272488668519191,0.7369686537423101,3.5990867378428897,4.51911422512912,-1.2431222599551397,-3.3558712195510707,-6.716075775769673,-6.325034364502783,-6.496538009607953,-7.215113276156972,-6.871152310828402,2.162740378813765,-4.868334616401324
1.539662449929056,13.877954586323549,-1.516269907770976,4.002673034792402,4.832354462889721,-1.7432639303647892,-1.54398033494794,-9.395040190349468,-8.747840787792999,-6.512026425541587,-8.71707762273675,-8.99840295638432,1.012421153137714,-4.7365198199496765
1.75277000169858,11.363556969066703,-3.367834816321179,4.897749687811936,3.184490040892431,1.2967584866471606,0.0359479595511633,-5.25265512685692,-4.618793490952842,-1.6084198365915094,-4.862392190141034,-6.35424461865964,2.0487958052988025,-1.2478805247926972
3.141397059554179,9.146779785485084,-4.335424040070072,5.994313724016324,2.1036417432957224,3.1077976316707816,0.4360214385590018,0.0854638171810141,2.122719300806603,3.2629679061193486,0.4865418993753553,0.3268968212740455,2.7174086813659315,0.7307092354510565
5.720838396292728,5.748727350179432,-4.093201911600358,6.676992168082521,0.0460776091197323,4.714964795571072,-1.2118582907331712,5.184800063333288,8.02682541060715,6.568758390624849,6.54650370600697,7.500608588942643,3.5974573194182806,2.811073405660063
6.617292832458315,2.1991703432162124,-2.8320459495831,6.212785603314062,-1.733354005030343,4.311823548437827,-4.062627985053012,6.562746107580607,8.46557722017595,5.511341457356343,7.967128689538023,8.78575089591813,2.8471676378226163,3.569692883482681
4.940621336406252,3.819641486328142,-1.33080039434455,4.206533343925109,-2.2296593080384146,0.9802081912335946,-4.602907717026824,2.2825638970403976,2.817014651714877,0.5836047422878464,2.9793507583191,4.000358805327713,-0.0905850836448178,1.300192225731683
3.8044978871384543,4.368350173233932,-0.5191139107281693,1.0121216363193994,-2.9160067578913758,-0.8587713242488837,-1.5715934063025232,-1.03992529822959,-2.2417761025910403,-1.567162188233557,-0.6568175321629983,-1.4956361631937856,-3.0512019183720085,1.1629304092959578
3.001450204066678,4.284215592367345,-0.8376091816183138,-2.316588673564934,-2.8380111440339424,-1.7336792661778175,3.619237237116145,-2.827264035547745,-5.285480048058558,-2.9303316285451637,-3.606758329792283,-5.496299299521552,-6.620032198400144,-0.4188965515355841
2.1817208406484454,5.038342469647387,-1.976555613014149,-4.635054766866762,-2.208559320279419,-0.8455507807685864,7.29497626190628,-2.37701542457871,-4.856151548321944,-3.0330953743673126,-4.141381560009723,-4.950600647924314,-8.241508045482199,-3.253687305726168
2.0852297174194745,3.854218281672809,-3.230366260172828,-5.449189828563768,1.0321854155824326,2.785321680240934,6.2564158349946295,0.7112085037892427,-1.0953642624325577,-0.8273938108329055,-0.3965109369122938,-0.6945900284470168,-7.404373244255515,-3.1016757690641863
-1.3376132586414895,3.007980888633936,-4.077354435965892,-5.155560154625371,6.186768695533738,5.588783550669859,1.6905950208892846,1.2415969557897226,-0.1031244522321255,-1.87003807512836,0.4449704602218498,1.5521240895490431,-6.180144235867013,-3.1799022101159453
-7.731484019192999,2.9681423320316758,-4.397964792093759,-4.552866207605752,11.370942671835785,7.95609678094128,-3.221364433021708,0.4921621706694525,-0.383246155703815,-2.1163242769434003,0.5122141619852755,2.3009243829164627,-3.799946657450252,-1.0019767957843515
-11.45797057089771,1.7870973064993414,-4.211572495192496,-4.084833657623088,14.583925224890711,8.190145858862914,-5.305377210361782,-0.1787402689661777,-0.3713116359573278,-0.5179306173421985,1.0209512462096777,1.7934909118701508,-2.69965938757631,2.9768162050558096
-11.169965585124665,0.0983218109127656,-3.4059493814796884,-3.5584351094485074,11.322844415148545,5.382191481422881,-3.3730691432134847,-1.1836418370944122,-0.8228769230707276,-0.1184937379053314,0.054240247440549,0.0204481577187167,-3.249526901096432,3.972137095998359
-7.554024658915793,-1.3005601824946555,-1.8994327559999435,-2.612629583825941,5.191690818921333,2.085069131521049,-0.0264619205864444,0.2237761767291713,0.9323004066201293,1.9767863015044989,1.3631310653654194,0.2370432851095011,-3.3497647138057047,2.4221881101544755
-1.753169720527051,-3.612948150145729,-0.0533701139073183,-1.4081031465684155,-1.5831524841530904,-2.415180416701129,0.4627574870186236,1.4143065217999695,2.498200474016584,2.764882278161566,2.0729587404994283,-0.0626428963781943,-3.643870757925326,-1.197252134217549
1.682369370668043,-4.720072644061972,1.305671447096309,-0.7090805843399179,-6.606334477484405,-4.238318260152454,-1.070243006696598,0.7900171910600355,1.8789923415672845,1.1698352433439627,0.1896317661554329,-1.765816660269779,-3.407441506752085,-4.468844155531521
1.1223681332571582,-2.598305674032259,1.53811941434725,-1.1360714556418756,-6.343967935025547,-2.717270834236924,-1.6604879101369152,-0.0186002943300805,0.8658415811442928,0.2994031544896407,-1.7834513529234206,-2.4186036040271706,-2.360468478258128,-4.058655178912405
-0.3076242916490099,-0.6369189081936644,0.9541891404072764,-2.32246014903566,-5.089936598825775,0.653616260395614,-0.3314178993891912,-1.7117651605276742,-0.2307405681344775,-0.6062302265177779,-4.050020346723234,-2.4980636105239906,-0.7847382851796671,-0.1471730767685867
0.5402931985030863,2.376845554370396,0.7694792925904448,-2.9729801604431803,-3.783256945765749,7.157460248076927,6.427129979643119,-2.014876615534587,-0.3217356442802151,-0.2832556518016933,-4.7312725973646685,-0.1711717577156912,1.6242072047913618,4.706078197008889
3.214287205088941,6.067641202119404,2.031724063680482,-1.985959104292598,-2.384969582022978,10.34030094109433,12.0046144185054,-0.2443853058823458,0.7873619642870378,1.3362019023631362,-2.09108786495755,3.480016217829955,2.5916329563181044,6.821257089188399
5.729790828735661,5.886316010257815,4.440504104077691,0.383431516786028,-0.9990520938391192,9.88079637049232,9.11327543644637,1.100910181729732,1.368165671584267,1.6856706945984934,1.081437575043881,4.096577824850181,1.9908125533824983,4.1418279054549
7.871496047226251,6.186814458444176,6.315187213503373,2.5710716896145778,1.9248977227216224,7.155594968141791,2.447864600346583,1.9634402408245888,0.7540254778878571,1.1071730767523549,2.340009109329628,1.955877419604331,-0.3709800842155882,-0.8828538121289722
5.806225851567612,7.8095963481171005,5.980095913363663,3.1005449201848254,5.684578249466339,0.3702934383836679,-9.241684255134032,1.5292853419107608,-0.8749928218983247,-1.059305069145985,2.4407963810703075,-2.0466660468115085,-5.210452431969923,-5.4742340855347305
0.2772285285237534,6.044981706153159,3.391076800170392,2.033162387777695,8.22512531890771,-3.1423898697545627,-16.906981415824866,-0.4004521657961791,-2.36569349574322,-3.7726734475666728,0.8313674911360173,-5.137974735991714,-7.990953329178922,-6.776841819720167
-2.5165799907518576,5.752101237365921,0.4094300811747065,0.962831853962996,7.813485810484186,-3.2794024903600154,-11.722157257980092,-1.5572107195926848,-2.5148508350185743,-3.881700155850358,-0.6100568909367068,-3.511647772710448,-8.714214907184356,-3.394315923407277
-3.2766434345639883,6.174738394789691,-0.6974138319113057,1.4257111256193935,5.841132868395299,-2.0674582273350057,-3.96786618260252,-1.160689607793871,-1.494226952304486,-1.6522967786135965,1.963413305577443,1.3450218688298752,-8.076298221966457,1.231132083869643
-1.50589226383493,2.316591947896664,0.7598690327663795,3.249273345549171,3.259183879847475,2.319615669482065,5.491483338156456,-0.1057693224795379,0.167806178172528,2.4415257232736414,5.075655423990751,6.256315589056723,-4.909207612958919,5.067121882340242
2.643463864796672,1.302885123878255,3.255396301752458,4.552576738480021,0.8837998243431708,2.543563971911681,11.086137232813268,1.3753144719173418,1.5928615189443334,5.821774665330196,5.938853858584052,7.74843629179693,-3.44445722133104,6.094754195566107
1.8943547786947272,0.436883404676213,4.370866264419537,3.5199715148856248,-1.2710042725249306,-1.673654264876239,6.276189328785088,2.319014332714361,1.750776913578954,5.268986922131014,4.288057267150801,4.408087569596503,-3.6469453296079206,3.368689444244315
-3.873315385941064,-4.4179769689396045,2.8379921885033887,0.2410112878118884,-4.131796622504565,-6.258721812247784,1.2503702065707791,0.8453811485329366,0.7501852727828262,1.3055310609542166,-1.409980353976169,-0.7611326190902685,-4.62665143377627,-0.2498472536990227
-10.602040044243797,-5.612691797267495,-0.5809757396193902,-3.255331951269895,-7.545265557541632,-12.927046189121418,-1.9255200922986853,-0.6643475473912946,-0.2124199353131769,-3.381650347307652,-6.818307593100589,-4.821150613319936,-7.406152808765679,-3.480811384654464
-15.320489666134176,-7.196617742392917,-4.071940684785177,-4.912253421932375,-10.563452940089688,-14.888471997395015,-3.127628895782785,-1.4167001446382252,-0.8839775041985729,-5.500033111054145,-7.427882230915685,-5.781979510959754,-8.273409660677721,-4.655452292287876
-12.661256847745358,-9.841323348987409,-6.497137683385711,-4.653221159715002,-11.110524589610804,-11.291697330131026,-0.1717979696352715,-2.266733532641439,-0.9069900232523626,-3.8799203813353,-4.5736698231854165,-4.148990258043987,-7.178070777365437,-3.09759850559141
-5.106109082530959,-8.153706864111943,-8.158507739713325,-4.469491766607062,-10.390488116880125,-9.558570597728629,1.319762512982412,-1.493404719941537,0.131845455387474,-0.4689785881358049,-1.1239711396110983,-3.134214607036752,-6.664909165895607,-1.3041703520529755
1.625137958037146,-8.199400582649185,-9.98491171847516,-6.396178301528492,-9.56764949645706,-8.140179776727214,-0.6981509558901826,-2.217554287479335,-0.1045716731697847,1.027174289806703,-0.0128576552621477,-4.203436301965407,-5.972082661619606,-0.3273228935028979
4.464529661877111,-8.465575978678613,-12.135062890264798,-10.256533275164804,-7.073832157730049,-7.177575211734485,-2.786565318219949,-3.665945132026444,-1.310666708153368,0.0408695200787059,-1.6330852006252652,-4.849946018515139,-5.727998852073967,-0.1997560753762448
1.4173107836697758,-4.845999262517374,-13.497250972207716,-13.361099204275112,-3.795819094681903,-7.846295736686594,-3.294087836287804,-3.016837418973096,-1.8611967943161227,-1.5923654880689306,-3.0920366675610502,-3.190219800031029,-6.274928766726232,-0.8155667100806976
-4.448364289542135,-2.487239381072284,-12.551391052291557,-12.571740299981029,0.0034099253730009,-4.444630350749227,-1.4572468451615448,-2.069368641798184,-2.182232939390085,-2.072851714718519,-1.7728203859846543,-0.2928630192407405,-3.35736416342602,-0.8136776203337939
-7.763216780504061,1.171163205426546,-8.716374920493797,-6.9696292066152825,6.305896148556576,2.9755102423716204,3.672145968869582,2.119754858468962,-0.1470062156727266,1.0217221659694276,3.233794128321549,5.254876848780644,3.1261408216371547,1.078734016344313
-6.068201504366672,5.768373703828317,-2.935872991234437,1.2020444268947426,9.527108616075036,6.034057364384921,7.223597218878367,6.762361053113676,3.161961645800976,4.443174452973679,7.68072348316776,8.98951080860792,7.428449822686538,3.3092955611199053
-0.7939340200443192,5.432118762373647,2.9353765056170644,8.128352115600592,7.689493172505263,5.38542916064683,5.427777577288458,7.277158238708912,4.408478327024872,4.588889946779141,7.654345398828798,7.487070366116244,10.194786958295168,4.220087880505171
7.447481426693991,5.087657976476294,7.318757145341664,11.18203304154547,5.795796703205546,2.878107245588412,0.9062132759441124,6.698940751590511,4.029705708693526,3.000381717540158,4.77075408441908,6.209248376754283,9.465834036103184,3.981338769791824
14.33448717863778,5.476323720794326,9.709593860805724,10.576116277625726,0.8668188480427281,-3.2793753469262703,-6.067570405863734,3.645767485198047,2.169261461238801,-0.5395883331084893,-0.1654637914360829,3.355454800483671,3.7991497724068655,1.7968707381348077
14.396662876697478,3.320393133643316,10.617861872758112,8.691858977419244,-2.487832235717587,-5.1626987826908834,-10.20927543575463,-0.813337650080422,-0.4693624246696311,-3.064118223145827,-3.990211095281176,-0.6016166548991945,1.2476734719241112,-1.3573594862808258
10.99338667487957,2.8251935643459936,10.897092411729409,7.854708081121533,-1.4316928065151102,-2.4288961337328687,-6.932471163957377,-2.35914531017014,-1.4382637503845088,-1.8919032133336988,-3.796573331889353,-2.2746171428755426,1.2972646277794566,-3.130311209500128
7.343121065088881,2.967883798691793,11.042887982281862,8.510600706379826,-2.374929285590778,-0.5797540599712815,-0.6601608402313447,-2.2601728350885986,-0.6929986860401953,-0.5879619238915256,-1.7133205955585045,-3.605313830113545,1.820742428114156,-2.356981716343309
5.390040355929569,-0.1229623217798486,10.912918446247232,9.228426554093572,-2.227655281824969,2.156255480753016,7.465172268954308,-2.2700954370603004,-0.8667262331142676,-0.2286914893164897,-0.6185204834754174,-4.547985074381524,4.500314734092273,-0.4607279446313748
7.196033448664607,-1.6178524536382066,9.958140680654328,8.279160586601815,-1.8897361136030824,2.836133804818345,11.682143577336149,-1.54585837308578,-1.3087515731477533,-0.3571149694456574,-0.4738098860925577,-2.9055331303525085,3.917729698025732,1.4750829458828894
8.219142540771974,-1.1924061948121858,7.759049572532383,5.251613728475739,-2.767057130343691,0.638544552911335,7.134909399337454,-1.5298035174931808,-1.4971375605432289,-1.058095090639724,-0.8016829702120234,-0.2450842566060188,-0.1461283342214668,2.1545833730724104
3.626052929973728,-3.112044113537959,4.522483449949085,1.3204922542797777,-1.6150132404388582,-0.6941429898139605,-0.1651040450653446,-4.332088994950103,-3.049742037133452,-0.5649710167918751,-1.8698820512327128,-0.674189660976967,-1.9623567504883128,-0.8374518971090001
-6.289882844407239,-3.246569091916549,1.2196053120460988,-1.8727272516323588,-0.7808823929353754,-1.989869973847952,-8.436100718739386,-6.162245505639878,-2.982808013290099,1.768324801945817,0.1731077512578596,-1.5723578532090583,-2.509953572922329,-3.872671378350628
-14.96729110187104,-2.597240784149766,-0.785241355194497,-3.5282596497307672,-0.5610988190747365,-2.706006397487093,-12.010582927932717,-5.4509448903605975,-1.5107335438338905,3.2872344306244923,3.239170197980856,-2.5491195250924727,-1.5411268608441548,-4.500918210432214
-15.847520554556104,-5.584661957898418,-0.4990404849326388,-3.995971360992826,-1.2329698387764256,-2.2460665492741088,-6.324956731506141,-2.936799336302862,-0.8367971197461156,2.659760175427752,3.648029184732661,-2.979064680998537,2.009500782935182,-2.6522713777303983
-10.620744877849573,-7.550355710959584,1.936060283445677,-4.034286972930119,-3.4129394976530225,-2.1318654525142176,0.532308983977008,2.657388185006132,1.5475367568600902,0.8691716013860886,3.025404766624358,1.3436210655100207,1.13473193297622,1.852444800039147
-1.407909581961591,-8.709330293759981,5.016968429383216,-4.009935812673916,-5.035524764248359,-2.0656002182253173,6.831007872391271,8.622760994836684,4.1538031190565965,-1.822632093148308,-0.6478511690228492,6.24858299801878,-4.254544816038619,5.286486805840831
5.20783012215833,-10.43708845439889,6.54753109832356,-3.891545889095429,-6.192061546876555,-0.9248777064192176,9.28888740195214,9.860100336966685,4.49699491101498,-3.347997029177132,-4.261281008651849,7.653669293251633,-5.8609901377509965,5.274286705040444
1.382671552996054,-7.905916081369537,4.991653024095953,-3.816212805047549,-6.465165580319956,1.1758894733570389,4.519274783020624,6.120895298690598,3.3648861861399206,-2.7170677264497844,-3.8586320577125943,4.852372676257908,-4.799530935713334,2.1912341346547923
-6.169472412190129,-3.363386924207209,0.6589309035747775,-4.284195031470695,-5.419238105197917,3.1219111512378257,0.2281032562669568,0.7547867455653647,0.4634846526227071,-1.9945404145403736,-2.5561229967824257,-2.270680313079658,0.050291622948193,-2.201421403502147
-12.59819599055138,0.5580060415783562,-4.269056220956003,-5.54843712893932,-4.823916075835483,5.06198152952575,-2.7172507063453555,-5.508932835058902,-3.642168070179652,-1.5564434832682004,-0.6488300171878376,-9.255476049557307,10.49318653359191,-5.335716531679102
-15.933382673098803,3.2517286552589564,-7.133806287499649,-6.910613015064715,-4.198463952460738,5.6855783611482735,-4.023527367037668,-7.73314264875882,-5.165839379076078,-0.931448246634507,0.8917378630010386,-10.229688233732212,13.357068115595805,-5.194615171376948
-9.647754218570714,2.4515685817856494,-6.702126716083424,-6.983566837426153,-2.2707093279184485,4.624445783075712,-1.7634198142785709,-3.598756670052989,-2.769289386209945,-0.4515478950534488,0.2900664543207658,-4.788169903514264,8.578664829319226,-2.4117431528140427
-1.0127469835683192,0.1073379756127541,-4.075593196246658,-4.964154370652764,-0.3473599505728806,4.5390729998365895,-0.0292912890428347,-0.1300554929661331,0.0702706156905585,0.2982326985667099,0.150161818192792,2.075848228358251,3.93568733601488,0.8441490362859163
3.9510162480127695,-2.7897823864036573,-1.8060660917589888,-1.6748986231735543,2.096798932476565,5.13221416273511,0.8771520963838033,2.8150761844487597,2.6744479687787126,1.9637035742472684,1.4775354471640778,7.589587164354435,-3.422233388842631,3.3595310549330817
5.720894833507775,-4.250504228315746,-1.9090030288371975,0.8582023960996956,4.448953231499315,4.455258380944359,1.3203313384355826,4.0433651435970575,3.511789844799527,2.726242048003552,2.2780207019809744,8.078165640516701,-5.523668424389984,3.616815156218816
0.4747705033090513,-3.907583751747436,-4.409520550040087,1.0689621848720563,4.29425686664008,2.868056935386048,0.3069524522372049,0.905043322843259,1.149564499543174,2.2031133861054064,2.0904522581574176,3.3322536896451247,-0.9931976604516304,2.2769489136277907
-4.153280315183888,-4.356285510336056,-7.548418516005181,-0.8163899566311574,3.499788728622986,0.5090676679091142,-0.7033989675308825,-0.9490944284455208,-0.5934888808133372,2.370832759443715,1.301372103573556,-0.0978197237716845,0.7974658961274281,1.6435294452750238
-4.012386434504776,-4.09550223995199,-9.32492535476362,-3.074133789949654,2.7347917163323774,-2.9629401738569947,-1.1742176132056328,-1.7509999217966232,-1.248192448870656,1.9790374278340372,-0.8167055720519074,-1.966382774155804,1.7748707072788563,1.727996219553596
-2.3090050681805434,-3.807043723246309,-8.979203286137661,-4.0504953144753895,1.8731487252776344,-3.222857039660788,-0.8693612005772592,-2.236576161246314,-1.40951764116274,1.1059480407192883,-2.1615347656117,-2.2505980626045488,1.7712813501689937,1.7411768740079836
2.4747296021679714,-3.767394413410596,-7.257600878963517,-3.426331486024295,2.199841150645214,0.0353150895359649,0.4300720192604883,-0.9380759263193836,-0.5920670568026468,0.5645183230755888,-1.5070280903547957,-0.5962921849523226,-0.6994958392573977,1.3612301213262858
5.164271933196205,-2.174983808956315,-5.47292860316471,-2.081126975720147,2.572057179034709,2.657668798006234,1.3293826241297522,0.1284330273587214,-0.0781986432541691,-0.9428976681706792,-0.7021799224064746,-0.2515190654279686,-1.4827475362914262,-0.0900629320608361
4.297081358523835,-0.5959433457406272,-4.338837046101533,-0.9803214299713856,2.4475052655414946,5.589671873637046,1.554622730044315,1.0039306096202276,0.0791489996407849,-2.5458171652118686,0.1196141749535469,-0.5473460828129412,-0.9569160421595642,-2.3853041776779613
3.904133879071817,0.3106219681012053,-3.5669254167972198,-0.3557163945009685,2.600685436223245,7.1207686462293625,0.8510285888232239,1.213021503243939,0.256434175182554,-2.7832030227797464,0.1098546577499324,-0.6187228251634442,-0.9996885333587364,-3.2110148182991445
3.593170955595077,1.3267541526920206,-2.4328120558034065,0.1594110106675037,2.956646715008972,6.462047444512474,-0.6360301706853229,0.4871185427324577,0.3756201307215758,-2.0329484565536142,-0.9028933759424136,-0.7956943733019721,-0.9221660401278842,-2.4662872288834583
4.604092106673685,1.8610836243499955,-0.6867196400381079,0.9108027730246856,3.643776359750668,7.206074131328494,-1.2800620729919552,0.564995887554045,0.5794692722951741,-1.207929629317149,-0.6965630481715857,-0.5530650360990926,-0.8123951859107599,-2.412501718990656
6.502604902863792,2.2242794236416623,1.0615049678712485,1.915455817744749,4.695024654485436,8.835972517169571,-2.1912763919258484,1.355333990589353,1.151266778074704,-0.4533250773585734,1.225277811502966,-0.3578855439692837,-0.831078661086509,-2.835815816371628
6.827060077516292,3.352037552983054,1.8755824850433496,3.0230348913022778,4.560758949084218,8.444881827654887,-2.620357861165622,2.478647058913931,1.5993696408932714,-0.1057070577818153,3.378082838053663,-0.4920982848770132,-0.5419785691440258,-3.309915217882044
6.526867051713636,4.043966758753816,1.5009645530762512,4.104020932083023,3.560315689864027,6.41107357720563,-1.4111855063362913,3.116202988049837,1.3258221856885335,0.2139270019557941,3.9918322836487294,-0.6042712554968735,0.0151252729674502,-3.289105294475472
5.175444449833063,4.329388757157693,0.8746256383510449,4.994373487427032,2.4985875685217,3.761615446481091,-0.4191194646528446,1.0368007861662591,0.3694099699292311,0.8095874502319723,1.3469289926227703,-0.2489491436427735,0.0880594732503209,-0.0928907611191227
3.5721350656092588,5.203025660906461,1.4754750682090254,5.443309732199033,0.2265312661425632,-0.0218694399461796,2.2967314363517377,-2.783082917828494,-1.6051675096726994,2.05721214152766,-3.403333518693003,0.8640154399491737,-0.3082109356164915,5.800026948499626
2.9103350950797013,4.442807156677858,3.905102929103716,5.3297939375920365,-0.6300967471545014,-2.3188674356055974,4.626823832602874,-5.2933851626389625,-2.9580586825582507,2.8976402636470007,-5.829334822079917,2.0217143578125247,-0.2676250899388346,9.243592281302726
0.83941055395179,2.4266153339003527,6.993024957887098,4.906748904903825,-0.0497109742355444,-2.8495577786012927,3.405562241097848,-5.046523884717912,-2.294889925500783,1.8650483748835385,-3.781658461259896,2.3423907414868594,0.0986226484861804,7.843730298177214
0.1753175016243387,0.8030754212194557,8.478272189268612,4.605592910558954,-0.5845256994238366,-4.75826275607496,1.5680705939541186,-2.0464781872518425,-0.9044074560256544,0.1477959083100369,0.9742705897884414,1.5867158139330275,0.8458088902540967,2.9226892572079786
0.2518311435669701,-2.714453368159185,6.926404301012443,4.469686914720214,0.3735468552966956,-7.497215457436934,-2.1249950278410594,1.240349768289073,0.8159606001010578,-2.9524751468544763,5.368223709601235,-0.2013454498929014,2.1712573168667486,-4.525881398009844
-0.6835776439874787,-4.4845918050149125,3.1941522941376093,3.895302799389306,0.8693399302971921,-7.975716744451406,-5.122119445780741,2.299213542510718,1.4748717224492145,-5.26917608904662,5.451126073481722,-1.8384822961613043,2.5620265614270954,-8.625128839355828
-0.036605090103363,-2.469766418347455,-0.0812378241359113,2.1688581948556944,-0.8706840846016879,-6.433077752068314,-3.711427205208391,0.9838996169675516,0.2435147988634605,-4.435503323772041,1.3729793259544731,-1.7248277694089658,1.985330675791036,-5.5806548682579775
-2.039522945819941,-1.1327604586703024,-0.736906854199475,-0.6539928635558425,-1.4218708613034756,-3.415730977642375,-1.4308097290751216,-1.0578688123916855,-0.4794399623534745,-1.6240256512386304,-1.8793711690587196,-0.6576575979380926,2.181002238500796,-0.612972787686225
-5.346792735932503,1.969501426403308,0.9069188596915296,-3.53967711314472,-2.5330750251659984,1.7764575549118613,1.78513296640958,-0.729981513716543,-0.1632424762106317,3.362431231201016,-2.101956748864528,0.4398905243484833,2.8937665412129867,4.205308743960355
-5.807591390888186,4.252092762019837,2.2364197439731583,-5.316591611349452,-3.4280092760046847,3.62172769711907,4.04408503767873,1.379702353257012,0.631550438543024,6.638691239837147,0.0252902295593182,1.067200168239827,3.793344943724159,6.008620628259304
-4.964743340550614,2.0908626704212403,0.7060475691979917,-5.745346683950324,-1.450596526865864,1.7866146631133923,2.4896696806929097,2.8637560582593045,1.5249301167051252,5.300428070139969,1.6808026494797923,-0.0011436544776263,5.187074300197208,1.9470252012128613
-1.7585350402850244,0.765700559429184,-3.7455486519604335,-5.64519453024154,0.5931826734327795,0.509761135691242,0.3804120306932579,3.4056788069336505,1.1763563205074117,1.8203365549512205,-0.9071746592127432,-1.9377824721185293,4.839803042749893,-3.049136740133508
2.16597245968229,-1.1414286159680755,-8.485751387852986,-5.887312596694514,3.0646058952443407,-1.4806765992615931,-1.3742429874509117,1.4623727781728857,0.0531588119505107,-2.829953927384433,-6.80824121418336,-2.6888422333708637,2.59228446102844,-6.3717314621926056
3.2993495636120733,-1.836493484607048,-10.4124005020142,-6.324428759509445,4.954267464296668,-2.3429938334740794,-2.0134250719206364,-1.1864615665319085,-0.6001253521323051,-5.1788135010064735,-9.925524380486952,-1.7062460774570525,2.520684997115288,-6.39360313025726
2.7616014198436747,2.3021377036443984,-8.564394781291853,-5.832915435010037,4.254970433129634,-1.438397765001111,-0.3409826475409966,-1.6215710481261385,-0.443094056693521,-2.599604963026537,-6.917426969516921,0.3065727148675422,4.340398133113492,-2.2733321109339206
1.293412324437032,6.36596317313174,-4.738607929869964,-3.453370141077116,3.661331042312205,-2.161717935553623,0.5764590788765779,-1.3943657139766217,0.0788617894192446,0.2257638882212232,0.2492085885124192,1.5806136583569637,6.995929731620292,1.6804386036508507
0.4096723434233295,11.61247068863616,-1.6726141417398068,0.5444318288381353,2.5083167051424606,-4.039537745046333,-0.3788573303313744,-1.340248565817159,-0.2109157171051304,1.2836027116266344,8.831652704498625,0.6504539587750939,11.35331475011407,4.066027208706227
1.9548748846514208,15.22164641353629,-0.6044936707230733,4.759944241020797,1.8494358727653368,-4.528362609078407,-1.3914768676172309,-1.1894486377694722,-0.9455272372525414,1.0251422062738085,11.74713623852602,-1.2614186011094013,12.873085631988406,4.123487847263076
4.136079853996946,13.22519149733455,-0.4795793540140423,7.774781811178926,3.535295259212305,-4.0200461901263305,-1.377820073388547,-1.276573455949862,-1.2213402712106791,-0.7427017010178378,7.035581243339451,-1.419488950264709,11.272509991779437,2.1904403793749
8.26601838739632,11.393811268360162,0.6507235354228271,9.160115862328318,4.695491504368992,-2.149100409061873,0.6956632748038631,-0.6820711914224031,-0.8473151681434529,-0.8822323299232919,2.213024778322658,1.6496078234379672,11.191448519642268,2.301428964450458
12.845877880565224,8.145361680325689,3.581426785795095,9.4835851455856,6.137228114217096,1.6344341831454068,4.751161863164915,1.9091934052890065,0.8929447754525695,2.0343024959693734,-1.2024157601028045,6.918258633285994,11.71168563325551,3.840939939338456
13.655823526882026,4.92502753083402,7.239649916970457,9.502430829675298,7.201117157828878,2.760672682093408,6.4083383526107,3.727536910311283,2.2706473084199885,4.090661394513978,-2.031568574389429,9.047917042851228,11.22143233091093,4.111687630658702
12.535277820775,5.6312581266422415,9.79311325488858,9.462394040902488,5.621768135834057,1.15747020431507,3.4873243352122607,2.4714754032816586,1.5168871933889865,2.834907722060331,-0.1070586862512713,4.647128304783713,10.32066377008185,2.239981410626653
10.360017157184757,5.333297487343541,10.301310607091152,9.13099808410668,3.83327582064632,-0.4853944924939035,-0.2895307473543517,0.488306866132344,0.3474215083915227,0.5028504887374191,-0.5452069817243493,-1.4947834540983005,7.252595633301545,-1.1791255813249708
7.533562505070068,4.566413552383657,9.32010112081872,8.329329599059186,1.7490008249183495,-3.189835556357661,-4.236727095159596,-2.3859855704669304,-1.1665785343589246,-2.890339616748732,-3.181733681636934,-7.681586227311371,1.683860815399873,-5.2233418954012025
6.425054828032652,4.518240092317317,8.099128718647819,7.264606993821985,-0.2939989981644958,-4.183740750636746,-5.708286830186539,-3.783714362822977,-1.9635530662312053,-4.588030913464504,-4.231225773148345,-9.513464164351388,-1.3275562827928358,-6.4453998436698905
6.347565124947733,3.2496837063943693,7.392717356053357,6.322907764181437,-0.790703227354039,-3.012806227053332,-3.323538971981056,-1.463335888561587,-0.6885252201356405,-2.240864877337077,-3.010614963201565,-4.4316649852773615,-1.9167527694379367,-3.8064596760623046
3.853896088563615,2.3352577211389978,7.0458997783270725,5.637631320300066,-1.3932249047612817,-3.0837549967759883,-2.579075815154782,0.316040040243261,0.320459232057305,-0.6257669309167153,-1.0527971769569433,-1.0216891645713009,-3.569961392282736,-2.0780913357640145
-0.4711185032041253,2.053735765285316,6.528158671535493,4.97104010273863,-2.105463774055204,-3.756919654068888,-2.885993418565911,1.2925608153890746,0.8299933372204972,0.1056352076546952,1.5525686070889155,0.9194347465867436,-5.318455041491717,-0.7875306580050185
-3.131867185021256,1.1881795469780485,5.632125994801196,4.018063570420644,-2.5323915325339166,-3.490496117266056,-2.2103894988593145,1.340765798789246,0.9065991254173774,0.5105627401358439,2.3207512798301067,1.8306809403601416,-6.869911537408207,0.154228577821186
-4.501757389188766,-0.0589414737180986,4.609038459026685,2.7667808199331674,-2.8984374662483927,-2.6964506520573552,-1.1393867795711767,0.0335717419426965,0.2212914105079382,-0.0501609873599178,1.0933696793181087,0.6397845865684431,-8.626668276283121,0.1267195954321115
-4.9588340203846135,-1.511221249624827,3.76191953660118,1.4858748355743998,-2.7335123309577307,-1.1197987818657549,1.295804678294791,-0.1689953601024579,-0.1058206297142844,0.3509191089199662,0.7192170779678816,1.2068150276673346,-8.777679090770285,1.3807368194173426
-4.4546132561126734,-3.201369257917823,3.0851372157086416,0.3820621506646233,-2.241882280566839,1.493011289640027,4.35324695846756,0.2028451869647038,-0.1922598908563277,1.324804276207483,0.3913714442625188,2.280386931403393,-7.2393698553719155,2.9581182314665058
-5.206154056376937,-4.004964432000277,2.33964106275548,-0.6499846316825568,-2.1315168530807087,2.561158203447606,4.838619639171809,0.4995433072720105,-0.2161632343988354,1.521662496462416,0.2342441505859783,2.166299216760886,-7.068062879305355,3.002103912709942
-6.886103753960965,-4.0495300754781285,1.3848216119513026,-1.886292162353561,-2.572813797614502,2.0162358242478464,2.8441712957769867,0.3673416216426038,-0.3315816808564645,0.6846889226096645,0.0691361599392177,0.9832805041837284,-8.040767594110543,1.6068857813671007
-6.909057129017172,-4.009865021398543,0.3437817810737957,-3.382090305276643,-3.116244777409491,2.267727835511358,1.741911523640729,-0.8790032613722074,-0.8814409420649438,-0.4941270447510977,-1.2271529553258411,-0.8109516846120333,-8.490494946407669,0.2582844743284266
-6.074593393817403,-3.109372498500937,-0.5601549088099222,-4.794873733901292,-3.795928093672212,2.8117670829527515,0.5537839714537787,-1.879746055047281,-1.3511719306336334,-1.6090820182729837,-2.38018992581181,-2.470423531919556,-8.972653975042714,-1.034905258708115
-6.242353764364654,-3.0009331497363942,-1.2518078905201446,-5.6509235637173205,-4.238930652368234,2.8944369186026715,-0.2972392807909234,-1.8264639404886256,-1.2879133774594558,-1.8559210617209785,-2.2861927008785767,-2.821107215071862,-9.14987962418254,-1.553531889852075
-6.8524537809917705,-3.7832150581649,-1.8402987541425573,-5.792703769035069,-4.281136721825498,2.824044303725488,-0.0823040548536975,-1.321726378489578,-0.8812047063147648,-1.1894226664324168,-1.5451256511014844,-2.0079152408828524,-8.82597400250916,-1.245778999803425
-8.387295163778099,-3.7683728104122327,-2.446921842821515,-5.5358204929659385,-4.427202400817172,1.7605121354128266,-1.2400710577029688,0.2834696088071903,-0.0579452907343071,-0.4330304006284373,0.0310473143897292,-0.7231769239575143,-9.049788129122216,-1.3134632553962842
-10.22165853552669,-4.529567020315886,-3.0800707299408248,-5.382483035676338,-4.472822031697484,-0.4416214046961438,-2.5399072873026665,1.7726687285558969,0.7514571896070044,0.2116387064217213,1.6673884178054144,0.868154337446772,-9.748222212574683,-1.206166078587078
-10.600998891479618,-5.537046969781531,-3.711662410361409,-5.607417879334204,-4.53370828430027,-1.4202479209290353,-2.327967307323493,1.7717817556321658,1.1115824519568371,0.6501506343667128,2.0406249747929364,1.7668882918456092,-10.499825138733948,-0.5416992547517275
-10.578713842501724,-5.928193040722894,-4.409064508361626,-6.127820395087365,-4.669576133596919,-1.2368510240139106,-1.1331185491838085,1.5519734031604773,1.6172885587045205,1.4670439163903617,2.2098746626770795,2.3767520780668843,-11.50494962797874,0.7358716524501375
-10.8118667400546,-7.108623997843934,-5.288043977196966,-6.714520052279357,-4.551037765984922,-1.4527202322961643,0.6145232865243218,1.2369906276362146,2.380379806998808,2.8373888807108294,2.7038598562604634,3.1824604166495183,-12.670731753584,2.208515496665726
-11.158539483666877,-8.457095476746865,-6.3147700877072594,-7.243632017860303,-4.498722364009882,-1.607191241952392,2.5309806511278583,1.1387611894581884,3.239235762200238,4.40381293463336,3.2888156750896305,4.062614896373444,-13.980201794958106,3.737956217563177
-11.260629645006295,-9.598563765511663,-7.254106503540957,-7.729397862892114,-4.787712185009935,-2.760422223154705,2.6248755710142824,1.3646598920609343,2.850860127306992,3.955212537648237,2.989923640871676,3.696962814725657,-15.433879502921068,3.564876733375049
-10.642731616644518,-11.130941457357876,-7.928827166523506,-8.20939531198588,-5.269906958530165,-5.199942341791973,0.8970399995233266,1.265960898948077,1.0107281877717629,1.2302956691120386,1.4428670251201978,1.899205704364672,-17.005286034119436,1.5626139113949704
-9.267500899210033,-12.778450054987408,-8.517616494912756,-8.709482727116118,-6.234435438850134,-6.577604395986922,-0.0736312734144913,0.2544507949186851,-1.106973546583736,-1.5222117197476417,-0.7576936176535917,-0.5620513087809861,-18.4649478277922,-0.7501253432652697
-7.478133924988367,-14.505714634254474,-9.437356857305293,-9.308044349956166,-7.46845135087297,-7.092130838927375,-0.011513765289269,-1.6601477210071327,-3.640219528127059,-4.179654420499944,-3.550553383912129,-4.146474691056466,-19.77350837552032,-4.127783049089366
-5.741323102574381,-14.044353533136986,-10.773735300892554,-10.074196882623676,-7.1615804816364985,-6.541777839298595,0.9086989743603996,-2.720273987622288,-4.025230935310627,-3.866984285276152,-4.231184580571772,-5.381738362116808,-18.687356808266223,-4.966348295185056
-3.3254004879691816,-10.84785318877477,-11.842066099783269,-10.79294161606234,-6.054447699022803,-4.373135802155415,1.245159187303278,-2.686100305355504,-2.335429290713288,-1.4129684575552877,-2.915072548080055,-3.874300101487801,-14.88746922043208,-2.4638743462380712
-0.6645309815517466,-6.895137754081225,-11.498845785401173,-10.783891931906917,-4.841211352908927,-3.351946580994357,-1.7363995860065162,-2.475859392993647,-2.245576505113551,-2.309132161667074,-3.1013133983019574,-3.646122488367737,-10.470958281569011,-0.9185126315539331
2.3780121993531558,-0.5384544015842825,-9.077663039159615,-9.225791987895184,-2.0209710204253057,-3.3997689616575983,-7.158761929448278,-1.6042284482915234,-1.643206868604513,-3.859581123835659,-3.235933903644334,-2.7094016700295147,-4.840061571182134,1.8121788163099184
4.835731201092251,3.62185099087802,-5.070495298374251,-5.899804746151645,-0.5125080263276713,-2.363181778113917,-9.600520631312152,-0.4542570491038996,-0.6382687817557654,-4.268320624480319,-2.842418126515775,-1.47487377307543,-0.113843453394007,3.206030050693529
5.351306938645295,3.519776972387049,-0.8255274567065278,-1.6536530790076327,0.0609467156086991,-0.7267774429080932,-5.9708269331211445,0.3573884005924744,-0.6875267353832761,-3.679245150486265,-2.459583685634281,-1.553499049468786,3.2564425289347976,0.6027673247707144
6.521318972760425,4.503590958739401,2.4689332524866643,2.03252814470828,2.323833205377441,1.7299349582354224,0.9859284422715954,1.340804171816954,1.3816822024485829,1.453797328893889,0.989622799559834,1.3527903588637715,7.40222681705213,0.6084930375922565
8.139885616903472,3.6665831727528206,4.48501624729823,4.126609088703809,3.1881886529691195,5.361421794158856,9.20110555624262,2.3165280385922844,2.6306480195284823,6.519335583916665,5.400419428627638,5.13668262220391,11.718136597743673,0.3909825028956608
9.468134195395605,2.747533797858386,5.499680631339974,4.761148659264059,3.7693204652889487,6.531794577160534,11.939396046608037,1.7950211149836257,1.3908842115217843,6.683047875779603,6.547185956698775,5.740805317771557,14.001227677541085,-0.7681292927900065
10.748701227862703,4.633249969404639,5.636327457100705,4.857986931089716,5.450114600566453,5.108578077955834,6.626014301845377,0.4415942349001405,1.11625988444908,4.522689309376696,5.22006113396038,4.797932413792408,14.25709401738924,0.8146382369989968
9.919078906559887,4.83345192445612,4.618764625683365,5.090925251411811,5.679818288835886,4.811899136558561,1.4377879215609752,0.3449692103268086,1.6662068399229613,1.8228465972082424,2.7363851084336543,2.550068496194,14.063766231002258,0.2338864642162363
6.840210255621163,4.669182293062227,2.3789547218538765,5.346379588627276,5.863459135152831,4.94470367359124,-3.307831515297108,0.2329871294900958,3.7773738124861698,0.7118674493017226,-0.2500041546435613,-0.7428279746321977,12.94057205662001,-0.5991550022659441
3.819174015513602,4.951745166027564,-0.255834025116588,5.246729966279332,6.316906456433426,5.720537478910778,-5.5834253832277,0.3475608101921977,5.525445781233229,1.3971839506826549,-1.6396857750308698,-2.3154107489862734,12.214137321106524,-0.1808702488938003
2.9853374738347647,4.304524972500214,-1.7944213799259714,4.999610226732678,5.337737853483882,7.802105786110589,-3.275173566815208,0.4635668963236144,3.3742666021511365,1.1313360200705738,-1.2501243406055198,-1.857474401338089,12.190136793459322,-0.9049737645113892
4.813768720172919,3.74692894410353,-1.231501587685841,5.3883041772022935,3.717162254364748,8.924869517881222,-1.64007312566499,-0.99732680884428,-0.5338979818446349,-0.4579991778268303,-1.038888942702395,-1.2265112595448868,12.271830372506166,0.2764100140547574
8.280872127346095,3.040590333260736,0.9767227171880356,6.744240885215525,1.8639568850145896,9.261584266529692,0.5163739871945685,-1.935374185275776,-5.486323990193517,-3.34984078999938,-1.2992569416531274,-0.4162678147506823,12.922451029539705,1.792651235142659
10.028803832524591,2.2362907226114346,3.167931095482185,8.11293061845878,0.9254042646146562,9.559906085441442,2.887449298380886,-1.5936407854045382,-7.598270885675368,-4.600343603806541,-1.1041751995323037,0.4781452404549996,12.835208647999186,1.8133529897085623
6.610412533887297,0.6759819867014579,3.824896649593523,7.809932897961797,0.7725184420761236,9.390068662679496,2.3619357807457995,-0.4542352018663912,-4.508643837710336,-3.0187752734678224,-1.0451998948734824,0.0774932987207474,11.986325392208784,1.1155554146678823
-1.19165439621392,-1.6381485240079212,2.790914439899943,5.040102623445932,0.5648169357469712,8.431716947799092,0.1644913683012118,1.4520742404720282,-2.004393985884611,-2.6427672975028487,-1.9947829880950565,-1.6341874262712623,8.735469840163478,-1.7597266870784498
-9.908639260213434,-3.520830124066712,1.2547874984436262,0.914239915315406,1.4746289563600254,6.6246067456873785,-2.9837983889146638,2.500241139641119,0.3941706288614126,-2.0897466693557947,-2.2416553270061854,-2.9116813884073363,2.554685419521048,-4.591885565705404
-13.774409513999366,-4.926481915658499,0.6045348959542771,-2.319997924306673,1.6099442511029252,5.670962325155725,-4.825703951706453,1.9720421617084332,1.9698274153248352,-1.10376167006223,-1.6724496284207588,-2.9077835750872554,0.6450257051989329,-4.4508588797304505
-10.382460631464756,-4.863339233671874,1.274875614249293,-3.1502780010992044,1.523616958580899,5.601932599865,-2.693860760641401,1.0820972413320924,1.2400766095067814,-0.4214291601535768,-0.5475263852835492,-1.1917886561861042,2.9850018501520195,-1.5030565423813729
-5.240685923988587,-3.542498147638595,2.5899532463238266,-1.931113502349508,3.098298164203832,5.4573747618905015,0.9869629353052988,-0.3886515236003595,1.5551989025905442,1.9950374196702856,1.723123701967234,1.5850219003347932,5.727398741627975,1.7916060935713676
-1.4224646589415346,-2.1056878510314654,3.572677724224404,-0.2567578327987725,3.826145639978407,5.631328580037279,3.832550569349998,-1.819009568335888,1.9815623997697396,4.141677476789534,3.362603995540648,3.4499289666245776,10.46126591128903,4.093583940211711
-0.51953204103154,-1.1284679973526903,3.812801037888331,0.5916796258763917,3.931947320568972,4.8510255217158464,4.085905221342392,-1.8262726842334192,1.3990433573312482,3.815932978529543,3.011933154577874,3.1239789061565904,11.467490653064006,4.003753596888197
-3.366956242118862,-0.8448677340453358,3.604219737954704,0.5207742193553733,4.18814860411615,2.9420782431868497,1.242260189077436,-1.407977770236834,0.5857312993482732,1.8486137638230569,1.3262998827170032,1.1293155693996426,7.982645426481332,1.2355752194044356
-3.6224229009283673,-0.5084601808235578,3.4100063649109256,0.2048647189213488,3.444362868874008,1.5013610137101432,-1.24797966159698,-0.9765015988252356,-0.3963450959921007,-0.1433115759788507,-0.4545508565139646,-0.5422961377086724,6.553671887746888,-0.5747444864784014
-0.1778280903096045,-0.0414136918423077,3.3572005747647937,0.1713146938622127,2.4968296836840698,0.2545982540782259,-2.4384950327886075,-0.4188544134929899,-1.767129879821532,-1.9340089140146817,-2.05706851629634,-1.6782235821713112,5.886587372992242,-1.7568083182979248
2.3108177057561003,0.6206454931578936,3.272565490300659,0.4258081188682796,2.234709539173377,-0.9017432546042004,-2.320755277938197,-0.3010123213865333,-2.3585014628695617,-2.3724252528179925,-2.3309662349917617,-1.9543567695124089,5.776475717980381,-2.3325435333605427
4.219266089486719,1.5909060133546244,3.065436760685128,0.7337373940898044,2.157835880165852,-1.6944713802345142,-0.927651166714507,-0.4155529167488246,-1.918945662426931,-1.4597253911090835,-1.1750438704439896,-1.3525515898521034,7.267084426073257,-1.552722216808614
4.547104835504463,2.533397999282045,2.884287926051667,0.9436951868776212,1.9550838001587016,-2.6787120654549472,-0.1714233659086469,0.067606314958361,-1.0894599761143684,-0.9110707914568928,-0.2996999931500346,-1.0445197963419963,7.831607897586383,-0.87970130368883
2.617061337368293,3.437071059185808,2.867290592139155,1.0084397187286354,1.9029228751363236,-3.797476913781831,0.3486680354347047,0.9126221884128668,0.5234912999857285,-0.10668930911256,0.580663864830629,-0.4146501493590221,7.688191339612959,0.1382507689634486
1.573023955355822,3.9006702144712015,2.885105830134296,0.9367772757141896,1.7376892496017204,-4.976827346830975,0.9024904708075996,1.119036959079714,1.5454259543650362,0.6221088892632598,0.8553927239635014,0.6935343352170626,6.835328450417985,0.8987815180867789
1.3687588615250812,3.960068681282891,2.695748947010869,0.8929358432777981,1.1145963855597731,-6.319927056829173,1.0292865880621314,0.8862812426705036,1.5305784047696198,0.7417084506077671,0.2142226201539505,1.5539150556119274,4.735928191393871,0.9516015678518372
1.4921999805724626,3.56157799237826,2.3407344139806687,1.1839204841662307,0.0202189796160403,-7.534917978552707,1.6808363527035015,0.8472833543849574,1.950677373606121,1.2382049740647707,0.4670722516469219,2.277674271943144,3.717364906010423,1.3126326360234997
2.1822357998923296,2.6301665308737783,2.188682528017128,1.856718848495282,-0.9660920479285352,-8.627217732118181,3.0749032636744107,1.0018846766316118,3.27541122007439,2.277728910209732,1.5908256429565395,3.4541954929997347,3.722489791506105,2.1143951269121466
2.763623613672846,2.086588279557533,2.423873530051586,2.2763637032759574,-1.945445803232498,-9.672329567150776,3.817776883274536,1.3306486361514724,4.2370325366078765,2.722898713563612,2.4418372614082604,3.625685733196793,2.460718611850189,2.547466861439431
2.668664949645448,0.8088612240575446,2.5633342048606704,1.415133243246228,-4.317256028659751,-10.60392562992674,3.2680240365377027,1.1680377109997642,3.5430922935263136,2.054350943612598,2.341299161336103,2.1629343784015025,0.2923545042668921,1.8997280397770937
1.2225029792912592,-1.2375049912666942,1.7257754145066393,-1.108478429572718,-6.740770027519622,-12.19041372834162,0.9051025190523287,-0.3182771650535526,0.4823963223416464,0.2985935797830485,0.2253275447394188,0.1878247441507123,-5.417685496118792,0.0677223998916665
-0.5378828556894311,-2.8165060763513234,-0.4586122906530105,-4.263764502678463,-9.035132066985664,-14.49450390671183,-3.636537680465299,-2.60818945253766,-5.158819583027731,-2.9959622034697158,-3.2658822770148577,-3.8556210853198487,-15.380818659830346,-3.010092173963499
-1.3258367123547392,-4.173958235572134,-3.2624222172696333,-6.151629578109832,-11.03422721243695,-15.007023036732596,-6.654023969863706,-3.5156886259835947,-8.309789497312094,-4.842275239245462,-4.785991424201321,-6.4435792906401135,-19.06262017869749,-4.429457432275424
-0.7314276500764423,-3.827359329558519,-5.353451621730315,-5.568539168039986,-9.291148248594682,-13.718132023429304,-5.971684869534084,-2.12174505474964,-6.049355288197344,-3.472606794246375,-3.193076103396081,-4.710754316122678,-16.507697982927482,-2.691016303869398
0.5378299769889275,-1.976654326719704,-5.938277515845563,-3.093213118758009,-5.841778589956561,-11.410961720486776,-3.638683443933149,0.0745767807898269,-2.027994284833535,-1.377145288801554,-0.345793627116191,-2.627321194818056,-12.53087066569168,-0.4120752137876834
0.9947740338559566,-0.2915047495893949,-5.380155881550804,-0.5753630427070604,-2.5458246897720747,-7.458980233297074,-0.2848844938282395,2.2920921990459004,2.9606128724537317,1.390611852199514,2.6058465346379176,0.6957648732483397,-4.728514901424087,2.3476280169332338
0.1672549035508269,0.9920711421361432,-4.670337099061984,0.4851298529773604,1.0743654619054208,-4.837380703413234,1.877725299394487,2.620679318412104,5.070224936217886,2.7471155147691224,3.190829237718737,2.9041161316194297,-2.553264476086897,3.595184826445549
-1.5603801701960869,1.6655914944679675,-4.420750108340872,0.0661604968573534,2.696297696970261,-3.714472367765349,0.8664250615607112,0.8075860476725346,2.174173872086555,1.2278950038938916,0.9053315356284828,1.3724997472135865,-6.960969576096621,2.2019765154693824
-2.3282869934491397,2.110460032796031,-4.491939163992594,-0.7216730117975194,3.6964212794344062,-1.7758630772559878,0.1869669037655214,-0.3653114068773678,0.0010985525697265,0.2147388641777527,-0.6567104171409048,0.7024574060106133,-8.397757842395187,1.0881636380624675
-1.4244282884591273,2.774160810833528,-4.510744434843772,-0.8966843751802145,5.951906601396955,0.3142570520866483,1.4509105950857697,-1.0296943422669766,-0.7725918481744225,-0.0757410045345728,-1.2005609395112442,0.7219963515325765,-8.968510287455393,0.0314599895976188
0.0180348596090567,3.740442103725592,-4.452112508775656,-0.4484651448292727,6.612902149000691,1.6511572125977378,2.587411094405485,-0.9206026801001334,-0.5510699938790394,0.0314202197927438,-0.7787279787320515,0.7923732289788511,-8.561902500277803,-1.0090587942505174
1.224987924610267,4.629264344733911,-4.510057373216844,-0.0777828342699784,5.585453923408214,2.404892251886681,3.450060445944142,0.1376807683655647,1.137923399684364,0.8977860058734337,0.8509324395033557,1.72880982603601,-5.728817377025776,-1.429054153271227
0.2751034302050919,5.008230199342412,-4.513076394978749,-0.3130816172614237,4.354697582968969,2.6697919649453348,3.485118425242615,0.3883057066502007,1.3115665352068655,0.8039482263833673,1.3937084350852815,1.5695897530814953,-4.970801690679847,-2.2884823730103365
-2.185009896587511,5.462252316290784,-3.805718629987651,-0.9497198546890866,0.8943148269473553,2.268010932915764,0.6493473488221938,1.120737563542355,0.2422558149841452,-0.0920861473180293,1.5308608441938818,1.0077985759273176,-5.990299092039685,-3.5884875191319496
-3.657297805204634,5.417543929702921,-1.9440558655351508,-1.2578561218260438,-1.6238905738814493,1.6373382236072636,-2.3110697081061584,2.16541748887836,-0.3225590600953781,-0.6077556483846742,1.5354887557981036,1.0038247997412828,-5.861288703084353,-3.4332062694321053
-3.758014073986773,3.769639958163361,0.5583190165252399,-0.6652203897788125,-1.8218684272585597,0.7557092653430718,-2.440481054245212,1.8834029711854847,-0.616079754542282,-0.7491600574133249,0.6144728443690515,0.5814407959804448,-5.309968840203173,-1.8581755622870595
-0.2838108332233693,1.8481365439788509,2.403429542393133,0.6824572892871279,-3.579950758420703,-0.7569179153261474,-2.013732979437521,1.4502856341457444,-0.0497838108179119,-0.0680393325574014,0.25818177848598,0.451881478361779,-4.445590995754666,0.1785943394158037
4.684656051856102,-0.5700480025756155,2.585765646081408,1.9147387577820432,-4.517949254825158,-2.837523755745131,-0.3938486202879265,0.0612322900180835,0.7122777218217899,0.9288820932745744,-0.4341768621558758,-0.4798461349308488,-2.8584500525447827,3.872477926636583
7.099339466346001,-2.0535773832142965,1.3038719327328057,2.027804295620492,-3.9009448859429625,-2.47349536431986,1.8557172918994165,-1.923426402580888,0.5909133573836981,1.0312134598019385,-1.3784113280164842,-2.324504355374542,-2.1882424252866155,5.588644475478676
7.7279978937624305,0.0415020701313341,-0.2138866706172235,0.7213753959700728,-3.635504168190995,0.5734958913653062,1.4113017258833689,-2.4291621480582357,0.0910189583455699,0.3335393373818544,-1.5264874716858166,-3.010428325743871,-2.434152122441551,3.4801285203331074
4.745167186391206,3.118600703135128,-0.7512048023385938,-1.1463635567496056,-1.6245784198871212,3.0545982411797503,-0.0895397244845171,-2.637085538939385,-0.7509834325326346,-0.8781625979882834,-2.335371042315076,-3.2336754792182822,-2.6891525079449807,1.1367380453823954
1.160269061112574,6.729102706550597,0.051727235011965,-1.9662788942743816,1.8779145862869455,5.619975338147233,-0.5045084661622717,-3.419960938996493,-1.6135646605029637,-2.216212562186056,-3.0050415049411194,-2.963209366854436,-3.300891016532277,-3.414083490216685
0.8688974228019174,9.205966569498198,1.7408182959375194,-0.5237119740006349,2.831869369722117,6.683276654960984,-0.0063440323446623,-3.0936832993952823,-1.4564754154629227,-2.274041448552606,-2.226841249859208,-1.455179875445853,-2.1309235894087344,-6.576215778551143
2.029956860814563,8.39518008517774,3.666681714602244,2.9422140342045524,2.660743842382585,5.550921851649884,1.282797912921426,-1.3049154284193285,-0.1589104879676216,-0.7844558703682994,-0.7158846703603212,0.0530997582239935,1.0972602600897443,-4.405178217117478
5.258827126132532,7.050163965089891,5.390124885035725,6.720479865908375,3.10874649175714,6.054122315712948,2.939657403098446,0.7494153735566927,1.100742542687254,0.7610736639159045,1.2674232807340733,1.1346857743193115,3.915452930116305,-2.100341498462011
7.295894836087608,5.194472244112299,6.564603947079064,8.792304890475524,1.4918978599930504,7.776221364656779,2.4577386783550086,4.824351673802903,2.545526628251792,2.43332887153524,3.449247925128382,3.0552629938056475,6.8116464138354615,1.3635221921166285
4.707292731519024,3.3516338339418184,6.723789388053152,8.282612787792669,1.0166256089873609,7.792455032259621,-0.8017470911096028,6.701576323732101,2.6963984156004703,2.781866922423712,3.344928320700656,3.598415055838508,6.793005647194653,4.837404977725363
-0.5881994886320595,1.4700033413458256,5.475266583299788,5.991260927195468,1.6432010926449243,6.607792027608504,-3.847053371886141,3.187615337628796,0.367120023138673,0.9324842105852362,1.1355903859784178,2.0804509049740485,3.1495977555347108,4.793251132490523
-6.085452211948916,-1.648432848193727,2.9881766312646025,3.576702049379634,0.3772160196946148,4.083651601632838,-5.293012832443594,-0.2456129613981781,-1.9473986487507733,-0.52650573335777,0.0157440704385862,1.7347753036103732,0.773854111532407,5.169782123930368
-9.649091304559608,-5.012077445690348,0.1624572778967106,2.141259220667858,0.2072604387065505,-0.3464814112363138,-6.108225830954926,-5.322074111588563,-5.0337141768973295,-2.214732175361368,-1.075526419899132,0.5948454713462903,-1.053285376036239,6.542547615165889
-8.955816209933147,-7.873712958969029,-1.885628786828164,1.465838237600103,-0.0763777730762098,-0.99586314401334,-4.30292249496815,-7.859792716427794,-6.262198722070234,-2.9069829594588272,-1.195880102236,-0.3260973604531481,-1.706609310862878,5.562903432951144
-6.212850616592289,-8.670039135865764,-2.654945529212366,0.5088264229801425,-0.837206305772708,2.382073200671857,-0.8359947244110908,-4.069013866063616,-3.538511092461273,-1.2917644947578075,0.2459997309978332,0.8051659245576099,-0.191045538815065,2.8321916771540785
-6.517558361175059,-8.115354718713593,-2.632830762768187,-1.385045942835096,-0.4783814298639411,5.510586259721293,0.8687217250124649,-1.2630354056768938,-0.3727421626401128,-0.2640378398477348,-0.7117311787598857,-0.715437388412097,-0.3836009480439063,-0.1332038074145165
-9.274199199263863,-7.62960622467335,-2.812160540441248,-3.7430783114323294,-0.9099113947409144,9.660500660326084,5.340925296790212,2.5637355659495835,4.694338190471237,1.2981477521352325,-1.8179599471222163,-2.430601177238544,-1.9733769920405493,-4.893521900445104
-11.680139930826556,-7.326596336540016,-3.76113233297214,-5.391834019331808,-0.92323930211702,10.995405804251002,8.36485535213064,5.393944875948865,7.912961412832872,2.568480651870773,-1.2422119683166917,-2.092160436553887,-0.9157675386359913,-7.069558181424973
-10.171352015582531,-7.905135918747647,-5.082567929337523,-5.598698893195586,-1.1784927809115369,8.65591666389794,5.755522418773876,3.924078722751808,5.968183690650296,1.793217328836279,-0.2836333206708636,-1.881717056735132,2.340220601341615,-5.402312818476389
-4.479317768067992,-8.77830037892764,-5.7548866796292,-4.780315015969688,-2.231948316472113,8.09577986346467,4.089430954987731,4.449746342489114,3.835624046237691,1.483553265324663,2.372132511176556,-0.2063189432790358,5.436207103619242,-7.053241053898842
2.7931554054839327,-9.009764636852296,-5.044438204675185,-4.057889401097888,-2.004583062909859,8.367663660986649,-1.778569357500575,4.604423872463794,-0.242259717174694,0.4444222914173499,4.76585464611001,0.7750962870255098,9.023122636216184,-9.938091110695344
7.027240536187097,-7.501920935786983,-3.1728916839647017,-4.101462884002178,-2.0659109591623706,7.982302625457947,-7.445182920442098,2.571798918694597,-4.058667155197031,-1.0954188756447223,3.991516246588076,-0.4298303349427068,9.415222237894008,-10.182963082386228
4.694598684661237,-4.532025208341021,-1.1589568174819225,-4.43684612116465,-0.5863731939715752,7.737638090653675,-4.779193007457443,1.4258517631333725,-3.1218884212044,-1.028119680515149,1.246186144169196,-1.335243139214218,5.921638631133915,-6.959101290779723
1.6199689652517273,-0.9277121423492044,0.0009244237703813,-3.916322081219288,2.747097093434179,6.517918438207368,-3.0746734092761008,-1.678160805696567,-1.9127119268050965,-0.9439283015688328,-1.2764851538981252,-1.0742917884430896,5.1679930325343735,2.046309678404385
0.4496114084497559,4.309711353888089,0.1036392576418969,-1.869785832396836,4.973268100421473,4.201723012102522,0.8228539242462602,-5.620586656081939,-0.093036839033434,-0.4726404770047622,-3.388242461156055,1.1491984315790431,6.437469724777637,14.827624330152014
1.4020209518976623,7.336162050271348,-0.1690853638420253,1.218516513586791,6.695972569095584,2.05428949328517,5.646628059525722,-5.847576643138557,2.0581787897863904,0.4287167916195878,-3.519103627110049,3.3212329822666384,6.7643316472736,19.866043153999307
5.663807962401774,7.245624413591041,0.140267186929353,4.129259754593943,5.830340772874646,-0.1399251717275446,3.37516637196785,-4.066470530375549,0.7093300057051816,0.131225367719742,-1.808426192339294,2.987688626891368,7.262754168932032,13.073668572065577
9.548976631177966,7.831541599057118,1.499586280506369,5.920794438687217,2.64006604213262,-4.587071049782762,1.1816349502374823,-2.72135700884719,-2.1432400208956786,-0.6951873203978669,-1.6295329008638488,1.1272767038906295,5.3278340436428655,3.67322531710872
11.20857539185046,6.343742506495757,3.56369468524783,6.523431813144764,0.0306062564085533,-11.287550059985088,-1.2357970181550355,-0.7745652027595952,-4.742925649222845,-1.4787430338981895,-1.6824143199414976,-1.8201079767386767,0.4613345695242615,-7.354405622543918
11.186041955672913,4.850858894320911,5.47846377353005,6.473479695223126,-1.777225377440803,-14.503639832881,-3.941545448030264,0.1338281502419004,-5.610760570104624,-1.825945102645908,-1.1318016212763946,-3.382043589806165,-1.0854010307502744,-12.288384810936234
10.328065289996893,5.733035221848114,6.493880218338881,6.247026874693947,-1.8255936031346112,-14.274236820800136,-2.2682526697763405,-0.1895100984228316,-2.8073388758609585,-1.085188569400303,-0.6066602967394165,-2.028358134969072,0.366889981755693,-6.661860737728867
9.5229125737436,4.73046087578756,6.409135045160169,5.91908385634858,-0.6880709060673619,-12.67654522633306,-0.0153093452490915,1.3676804701596292,1.1474750105997744,0.0925677746148304,0.9807853039346937,-0.371409248212492,1.5859272726167437,-2.297298921158307
9.28630644445676,3.3877033661526124,5.581177983152577,5.342858887885572,0.0603776936482217,-8.335795162278783,1.8684389833158936,3.447789131498996,4.672340699126909,1.2200777646506542,2.736236514285966,1.0697462109282372,3.788135047720294,0.8067052395175158
9.501580089897583,3.1325179784301413,4.575010037903483,4.4701593816124685,0.0471194083690302,-6.923807164038529,2.636978931528486,3.7015040286424017,5.894046707742255,1.881020287523676,3.1059485776862137,1.8185011303378107,4.262613405494318,2.888395388656557
8.927566048571219,2.011929394064896,3.762636302950984,3.4360641133486878,-0.2889915443080046,-8.825247624063541,0.5549733721727514,2.647889744025317,3.780045596386754,1.7950811096237704,2.23374492399531,1.2218206534806166,2.50192263822565,1.1118407727619033
6.376616390691523,0.952010034189892,3.142628990891116,2.4225925813910703,-0.4956774380523177,-8.879668339862521,-1.5411685350114963,1.042827780751216,2.007129681103493,1.6827040158411115,1.2325009548613552,0.9130424806801336,1.961667370315782,0.9106224152272316
2.7503289644357496,0.62493296115446,2.467671820203238,1.5274717975404828,-0.8372767160413727,-8.304326129898751,-3.112165905074619,-0.7260260045870889,0.9845587036279764,1.8402211634312404,0.1649978691683084,1.248726235539881,2.00303847369588,3.157612139700887
0.3814954001626034,0.0277297213116491,1.545336192794853,0.7327355164014033,-0.7370269887085479,-6.516787014040143,-2.97193527998046,-0.922340163770112,0.3098484940828441,1.6235232047878247,-0.4433432616438431,1.2606521699066002,1.7610763509337009,4.093863549966589
-1.0921696333602464,-0.8059599949838683,0.4743873879703368,-0.0927741660232417,-0.2397812405428896,-2.720315890565496,-0.8690089453156022,-0.1543102655025815,0.1648699795621251,0.8745643544614187,-0.4469253002534161,0.8922686209022901,1.729183926768226,3.721789324787807
-1.0788854260092722,-0.8752721787091278,-0.3663397386095148,-1.1439113717702467,-0.3154970840251849,0.0496291017011942,0.6634296779035412,-0.2809030859245374,-0.5986230464416453,-0.0939806574484272,-0.4229042306019476,0.4511578406618353,0.2730171570708467,1.958151285116352
-1.4309229191409163,-0.8316726714203154,-0.5789051180041769,-2.494874583916096,-0.0361206817785405,2.0425239764461423,1.6058802499429667,-1.039936479666211,-2.647015638433498,-2.1789497739914028,-0.8438563871556273,-0.922899136930688,-2.7664555565147078,-3.629763137306544
-4.709520637237454,-2.2958223577872623,-0.0767716619503677,-3.874850889288577,0.5888422309572943,3.0562388665537266,0.9383812275959292,-2.0420636262290053,-4.142562557565607,-3.799502574759824,-1.6024266786398176,-2.379079717994941,-4.917429447977976,-8.224462959697105
-7.289773200174455,-3.689664024560481,0.7779690271241249,-4.718789122063309,-0.0695137784489306,2.396741854536146,-0.3516625896836857,-2.2075703605669004,-3.448684281793482,-3.4454429477114044,-1.842987263290796,-2.7303040709700386,-6.452300658408161,-7.54273301243601
-10.029249846320502,-5.093607466129449,1.361138310791571,-4.640623008347398,-0.7805960670109221,3.138364258790688,1.1399518379302178,-1.13714256357721,-2.1898894270524862,-2.71055997810754,-1.625683271610496,-2.99373351878359,-6.554905910865155,-4.191143462235246
-11.66186668514467,-8.12341828150932,1.1911449816433684,-3.938798479559821,-1.027957869829876,5.156453184362485,3.9944998025754495,0.0284817798552794,0.2936528319602176,-0.6375872358275558,-0.4429728243868539,-2.7774774397956965,-4.609985076229721,2.544180212359357
-9.816386204511335,-8.63297287620953,0.2505428961310638,-3.5181386490528395,-1.9484727274074185,6.391109069867333,5.70239932260819,0.4548375093650947,2.358437956999124,1.6581901036831097,1.144014283700593,-1.6593661654998346,-4.041574256895484,7.702865721653214
-9.820617108903216,-7.744080974980616,-1.0191331602219016,-4.110274575387765,-1.8818272844135309,7.390357959169146,4.881084231959158,0.2535847919355932,1.7385641038899378,1.807342661166245,1.7098326950229,-0.470499311074414,-4.634615727387716,5.681900163172752
-11.79292820656121,-8.12853935300142,-2.031972323994067,-5.487044164807211,-0.8254758378224363,6.273412601127579,-0.3583693636785193,-0.5665728024791338,0.8525969225292112,1.269636878739376,0.9246586034013188,0.450378391213979,-5.661055494460744,1.1888284366390185
-14.335289951429084,-5.681212363132466,-2.415522667282244,-6.524196495563631,-0.7197888889779982,2.5752172368805053,-6.90092841060414,-0.7273990853376027,-0.0215637856226623,0.2839346654799749,-0.4965855196030848,2.2523730464395557,-7.856245625844944,-2.734237371077025
-17.02630899868207,-4.31714414724035,-2.149854519230606,-6.172173833991299,-0.8448239312238839,1.35250900248845,-8.790385457970222,0.3572790956471158,-0.4939735159167975,-0.7943872154392129,-1.2621027384033994,3.622411064807181,-8.114280409492782,-3.984299021449688
-15.607991544508677,-5.065135775166282,-1.4667500347527176,-4.4486371442215695,-0.8828709879502126,2.357754342660176,-5.588829478261528,1.3666673326251544,0.4299358586533808,-0.2366464442112872,-0.7635915479867824,3.270487801405492,-6.320576653689881,-1.0842851693149442
-9.59184802801684,-3.3419520455602343,-0.7029121017430768,-2.493663504909766,-1.7742512462659976,2.937765401466802,-0.5265814061434857,2.5516879946189803,1.267672570990972,1.6962817507371453,0.9857997036609226,3.1875376968233096,-4.739414408969665,1.6300905619024522
-2.121386753246115,-3.060365253309155,-0.2424998068256494,-1.6419529671177375,-2.6526849537265957,4.076481781432528,3.845117913783773,4.058703341166914,1.560719635046259,3.587519757045353,2.643195295923942,2.281372309580109,-2.7003972692048457,0.9093645806505934
2.1520858093568527,-3.611281781328106,-0.4771609611014769,-2.386261673698924,-2.448513359957101,2.994941382288036,4.301590448299801,4.104503192478734,1.4111833932998783,4.052017321724469,2.707703863549148,0.7562819979082438,-2.6097229439448784,-1.174180113496201
0.2214692019823564,-2.839122014593042,-1.6507831428144737,-4.1232156437846985,-2.37046280005614,-0.7879557227169722,1.3889013831861057,2.2148692956759226,0.7327727388694844,2.3936009917788303,1.2497797205034455,0.1838177067526964,-4.963108581858022,-2.289716760263572
-3.669691816108129,-3.6564962282168794,-3.633788623695704,-5.759023726610264,-2.538204005695759,-2.941374198386133,-0.4856490368103775,-0.2235571933902841,-0.3160727205809358,-0.8667375335855941,-0.8258339914911136,-1.009644469782273,-7.23534231724381,-1.8398567226840856
-6.774215279337491,-4.680079514165172,-5.86551969563509,-6.520769601181307,-1.7581354966333207,-4.028813715318046,-0.5685172481996656,-4.2420228811809535,-1.6982710877055065,-4.259605359781203,-2.6979477735705646,-3.0143977821022765,-10.093890852799657,0.7689007137389174
-6.928634421608507,-4.380245850121011,-7.610058086211181,-6.315315701336569,-1.3836781340132749,-3.919526828957224,0.2334803203375866,-6.643444337957873,-2.326608178099836,-5.177989330273007,-3.04936941145924,-3.836864763069749,-10.620472478423991,2.7887942421097183
-1.6230225128860485,-3.7644401954494,-8.361665314449551,-5.522301884391238,-1.4393571599624209,-1.7277496302014894,1.2999782502350143,-4.541265265309707,-1.7862425632048984,-3.372806098701278,-1.7575287241567532,-3.089234154187464,-8.20926896275011,2.2517143384127984
2.374320073869481,-2.7283222469984563,-8.073630176504398,-4.566758040835543,-0.6280628591645327,-0.6540085634730096,1.3237816203605497,-2.0815097405041483,-0.9049981222948156,-1.3271890205577133,-0.4888594028466475,-1.88182828345751,-5.756444290525498,1.4076018306284583
3.661753429043191,-1.1278321028224385,-7.069260015372418,-3.645292362863705,-0.1785948667526076,-0.5117738028587999,0.3746644953819985,1.2025877256995765,0.3680014077372694,0.4277408278814085,0.5751085702716657,0.2574304645583218,-2.426025239298629,0.5325335749061009
4.820314130833024,0.105723216028396,-5.784903847046851,-2.732351737834568,-0.1393397424399147,-0.5913744364751398,-0.0944287339072421,3.445659872496872,1.0510055235376132,1.024120837388717,0.9932760327872302,1.7029376630200994,-0.2871895600766733,-0.2969995367246901
3.693115431039816,0.8411164629451984,-4.575507316963959,-1.752855309671474,0.3948296313213757,-1.57113484923478,0.0810693511233713,2.171230366262504,0.5681146469329865,0.1759396894497614,0.3866339766281377,1.271150343098961,0.1386741265552294,-0.3628890365758183
2.7743696990182887,1.806444670394776,-3.6230566597442855,-0.7334093588006989,0.7418068146439475,-2.0130482856764638,0.3344430505617041,1.2470964345767763,0.405641035772148,0.2683867029242335,0.3150214758071704,1.2202320975288212,1.4429509801412217,-0.6723818810680515
2.4873349956981845,2.822863171415682,-2.8775063731807045,0.2047700749651906,0.7998720957510599,-1.9481591724485536,0.593988864405478,0.9287404367796416,0.6179865212977785,1.1665726070336602,0.6851658444775193,1.4189498326707588,3.05257432279106,-1.3471270145551963
0.922070063030239,3.610072624045512,-2.070969421855402,0.9991664099670534,1.007890916052901,-2.2108524833222054,-0.0686932417591573,0.5990161208866867,0.7198215146425645,1.5335679213866886,0.8812615671750124,1.000203100131004,4.292474466265475,-1.0150078900867514
-0.3398206089588546,4.268386396452833,-0.9399715920847996,1.7620792676200672,1.117293193349659,-2.5322218905281684,-1.4973659842174605,0.7325430450870677,0.8570401493269507,1.7491363246980172,1.262594972362225,0.4939073601380556,5.469836389105134,0.0317802427337305
1.7551261557422353,4.512062877131783,0.4087252887151076,2.675501094950544,0.934846107182756,-2.624641585391121,-2.355048115720752,0.0143034052365381,0.6300801574713663,1.8939729584140776,1.484918662293093,-0.1036178483819078,6.459672468765107,0.5648581209761427
4.972262883356636,4.477176718844865,1.37624555645377,3.7107901028941774,0.7168813963278237,-2.540809150109861,-3.0187331271464912,-2.037228107834669,-0.0281884179437515,1.7136291665323111,1.4658648686834463,-1.0096547335711965,7.20843815706155,1.7410087568975523
6.176998143538268,4.326481394823965,1.3094448261152252,4.484361597640125,0.6076980350083636,-2.2361364722207195,-2.175202720799733,-3.2046112263211466,-0.3712042607440783,1.3848765374583945,1.2838285862388197,-0.8096994224846601,7.555606146478468,2.4213182883310727
6.066515978545727,3.2459944248266988,0.2310161718030436,4.511336053481303,0.1811837078518169,-1.642972724501326,0.1901034858757871,-2.471111344831922,-0.3375550105042296,0.676027017134833,0.7113143333160121,0.2844831780715491,7.433156984727787,1.5884065270185967
1.3600405075589554,1.874230539563448,-0.8912653124684289,3.699529381845821,-0.6229625102740309,-1.4674975328262263,1.3614853406672132,-0.5443953434048473,-0.154016053169412,-0.6216583718804558,0.3436257607465384,0.4899071060626343,6.737417873774833,1.2340580817531386
-3.655007129786201,0.3499018926498937,-0.8062503802827805,2.567394270203313,-1.262103701936218,-1.733722148210994,3.033003360578409,2.9490720807940325,0.3713860078772569,-1.994690769053837,0.4931010205960425,0.9700165678439732,5.371395122937658,-0.0766216544185012
-3.425696484596198,-0.3247111169366047,0.899150508090391,1.8690187274083585,-1.5656024831854145,-1.6737051988524942,3.366309926321845,4.709351322143224,0.4950368482194485,-2.307833486856696,0.2937146870995806,0.8708671047537923,4.953176174152872,-1.7699817009062615
-1.715910239557262,2.158015408746848,3.29358655276389,1.942455362056921,-1.7543497222800313,-1.417233450662408,1.1307037648022815,2.725407036165234,-0.2672687929295152,-1.7088593171214113,-1.045805494668465,-0.4388473725047111,5.561760941670093,-2.0747798571670493
1.4248519979261751,5.792566932122787,4.7986331345000615,2.465061060710327,-1.328821400069721,-1.150749131658749,0.6429457077277548,-0.2430397483366171,-1.6915169239736707,-1.7640302302902169,-4.207661056676696,-1.0241004381358376,5.101476080284532,-3.220659252533217
3.506703317645556,9.919328224438418,4.514935776804541,2.905328896927711,-0.5904119716085823,-0.7529808500270753,-1.471564208336338,-4.176566978558633,-4.182725636636246,-2.415234866515003,-9.619488550529825,-3.023039516589229,3.851459847400685,-5.248555534972547
2.044579953598724,12.53249108183548,2.9589129229053013,3.1790310062172837,-0.4298006854527004,-0.7767509552600158,-3.598307976731115,-5.7775847207942,-5.4288804449178345,-2.778681953733581,-11.742919884981792,-4.547871783644911,3.2744810511873346,-5.8311795821580885
0.8718664331693486,11.168582897285518,1.5567478429714954,3.736259215683809,0.8555169200150137,-1.2681083443350536,-2.0248814139061104,-2.838196252785748,-3.628229286143776,-2.0902434370010865,-7.123969445278071,-2.9179151130373877,3.0956106344776133,-4.337848440526375
-0.1558170801743933,8.953147208569034,1.4166250201829156,4.916808271551076,2.784934763208029,-1.321247249323916,-1.835266669384384,-0.0033292243462255,-0.6427371571865024,0.2664359718355846,0.2460534450108489,-0.8774139759946463,4.888568532675824,-0.3670616475972859
-0.8114076167751079,5.916745938117,2.500877748945024,6.276951411941577,4.060249232723783,-1.0188132714098546,0.600968654152856,2.5240709324399884,3.525810970167692,3.7657316872669,11.0303043291053,3.439890999426466,9.08203040307359,6.597255961671863
0.160195115489085,3.51483289711696,3.811277378954697,6.715983755221195,5.410770640661883,-0.3427006945374467,4.191229977940168,3.4207622377250404,6.0964953410795815,5.478101088855063,16.664610446670988,6.668815282368882,9.182193457310246,10.569147628279108
1.3190909427754245,3.021593421382061,4.259412311757732,5.406429815134341,4.751042436215169,0.9139921458814988,3.2797404672650536,1.4975771804320714,5.019665382327578,4.147146961392449,11.2038942281505,4.754713990333272,5.194280985854539,8.055747788658673
3.8567124591892328,1.5312720265471398,3.416857513374717,2.631890829562088,2.3846097114071694,2.382273867121881,2.1201127300443465,1.3997415898601804,4.404920586711193,2.1166018260152963,5.092677639737001,2.499871305962586,-0.5204014223642032,3.696165508327665
7.292849502899029,0.1066780850538784,1.6528635540186714,-0.3353639504234937,0.5577403308735129,4.1434476905126205,-0.8979491805986284,2.679120645105048,5.040646870875598,-0.0508869677989066,-2.3538138881618056,-0.98877223930614,-9.519143527646929,-1.8413973156751853
8.380407210251532,-1.0613195673635365,-0.2461033648643553,-2.235376845333435,-1.0132107260733267,4.730899996091245,-4.308668004996478,3.0684669998629763,5.051144593499711,-1.0771742556755215,-6.89497317492928,-3.5581688623946794,-13.316887391016582,-4.649755895517576
7.231893615261683,-2.6249333147836094,-1.5782325426812946,-2.74521072418545,-1.854479354450504,3.945968511096883,-3.2798467412401435,2.494892623566907,3.868016711918284,-0.1785168546643402,-2.963987808890275,-1.4801859073479122,-11.265284657213495,-1.7718134641693082
5.298765289574832,-3.2122540287656776,-2.048981849342955,-2.4970762283727312,-1.9220875099356516,2.210458921002036,-1.095866782628677,-0.560803661752949,-0.0294926037706017,-0.2794708529309959,-1.500636220826876,-0.704996588440671,-9.90978684681924,-0.2376109741277549
3.0499018731062644,-3.631166213281413,-1.810095824077192,-2.297115642126248,-2.4493202322270182,-0.9535057988437884,1.6174773028234726,-5.074183557752008,-7.420515817236606,-1.8071072077325627,-2.1364646079044443,-0.7820727612388074,-7.243931560889295,-1.0655034184584815
1.8611203395237408,-4.337828688268165,-1.2665409645337684,-2.402791484769492,-3.0943052803051923,-2.382400064297079,3.247804408823474,-6.498758685175797,-11.54977501274446,-2.8880098861355616,-1.8211997311082384,-0.1779543866787721,-6.115747946178253,-1.9634192291606916
2.012656798452699,-4.393246076220573,-0.7822884550623241,-2.508909713930466,-2.801808879696565,-1.9138691908655343,1.637102135811411,-4.015576920804721,-9.05414224151913,-3.141687278796294,-3.278797975763349,-1.1518665820295804,-7.481752335214736,-3.3609239076989947
1.0235292359544204,-4.215373342316492,-0.4842829501741934,-2.283913126057358,-2.177752137687152,-1.3992799547276498,-0.1030948315462769,-0.6592682338817594,-5.311242883970603,-2.530564789916015,-2.7135806675236958,-0.8751452382333325,-6.508019079762457,-2.9022869346945552
-1.120227819534369,-3.9549695142060255,-0.2909909400794062,-1.7735904395836284,-1.308407854959917,-0.0704686980715054,-1.1159001645212554,3.009313168101538,-0.0750870976249217,-0.9245189548577584,-0.0894240757719563,0.4475881026239545,-3.949763090371598,-0.3049047544112554
-2.1857775376559414,-3.723321181955106,-0.0945067572838802,-1.275945891406104,-0.1333099770989711,0.1725268397084742,-1.2080628303596646,3.98857630327648,3.2455362044918283,0.0632948655129268,0.839806285231436,0.5149546284599019,-2.537698008558017,1.1331989925827923
-2.88488605540115,-4.192770226378128,0.1208103493529897,-0.9388166158799244,0.538568991285249,-0.9400339211596508,-0.0630947423191597,1.3280795217420025,1.6247399743589512,-0.3175766837773153,0.4441726454310626,-0.081788786585563,-1.6705698097338575,0.6550476603241879
-2.6862789063280337,-5.160547696739861,0.3301089224377198,-0.6120912927576132,1.3039613134997368,-1.1712922784065871,0.3282225545831346,-0.3680476757183842,1.4434193851460857,-0.1663132893806442,0.5634773086221214,-0.330132000554231,-0.7429506430085232,0.3116500273656063
-0.5311489623487198,-6.079366094918946,0.567016612056632,-0.1049264328728476,2.5086607884869445,-0.9429193197104484,-0.000862610722716,-1.1323579310613945,2.8618282535804807,0.6529556938050657,0.9660528758108156,-0.2319552049276032,-0.1509559806304811,0.3900934397971667
2.101351649600338,-5.102073435763479,0.8915445912349274,0.5207949497947295,2.9214734811791594,-0.2472454220229829,-0.2019418558154796,-0.5774210945170953,3.295353168576561,1.7248872678284757,1.3136294533632638,0.2667673038030238,1.8898129209342327,0.9301018804865456
4.981507700027557,-2.60878333806741,1.26294043640522,1.0244898942945897,2.690043694155009,1.2915833554425498,-0.3116781082592441,1.6144130180935463,3.7097180815239095,3.280279098631277,1.8315091423475045,1.2369834040485466,5.534731957783595,2.130427554192864
6.065956314177167,0.7239935362818597,1.5386470301652344,1.3562693724518278,2.2515466199854286,2.1770964913194586,0.0566053816679212,1.7142416712474955,3.534058295354906,4.364390650362016,1.7771023510196535,1.4044122572779705,8.284213783017318,2.461515856853222
4.82174522056317,5.9312697622820405,1.695640609302506,1.8458500986120896,0.9171286102244748,2.452378171969001,0.5001100585266249,0.3240525591509373,2.074613029168615,5.12375076057135,1.2649604679898991,0.8401277025954828,10.452310772323209,1.616011710913991
2.639001436920662,8.304976689572158,2.0177690475304533,2.8987100472954914,0.5393821120235789,2.527823652985616,0.4503017563147919,-1.421365088468209,0.9246275573852336,4.360666426694673,0.9500456602845452,0.045655634246435,10.90150162481972,0.2279297584521166
1.3593663242053329,8.931261795459308,2.9091235435419427,4.4640088211294895,1.1395778231356133,2.0674248660096723,0.2477198585062592,-3.2163166807644403,0.045520524872827,1.4529775205600268,0.2926968989952284,-1.0025321534983282,8.999238558990733,-1.2712556494100478
5.400369622380301,10.745991067802594,4.387475690684029,5.872472184987718,1.1106958698045897,2.074305293158592,0.0182887494723542,-1.2795346696229473,-1.5954457967397868,-1.0857906299368414,-0.6534253202315266,-0.7795921237931861,7.976396387864297,-1.4029330843108658
11.224600479726012,9.581607638650102,5.782207247271233,6.315856016510139,2.002590000837261,2.577275813152065,-0.033942077811007,2.1481807898373675,-3.27296023673005,-4.725121104486092,-1.9600010827161565,-0.0510096669819614,7.499874893464502,-0.999751402233853
12.93519409484753,8.981604222005036,6.100219268365741,5.560381434301858,2.153105348932187,2.0157860054361447,0.1193452904589783,3.76597358671292,-3.532855633714825,-6.642261564628894,-2.518753089583173,0.5744606120464087,6.006604563057864,-0.3070372704269566
9.793818840381707,8.045818710067476,4.868745274415813,4.17878232164859,0.903931858207518,0.5117938000934281,-0.0004130508186873,3.5050501850773563,-2.3570878613664554,-4.700658352638609,-1.376375506644832,1.2946710706835918,4.023642096767918,0.7031658505413737
1.5352210045270729,3.2835244399716936,2.6805766061416625,3.026914692004261,0.5100629607457772,-1.7297089940770471,-0.3691521878849736,-0.4597126211132464,-1.6213460738616967,-4.385666621551253,-0.3053838699597898,0.3674033340840216,0.0882815431735703,-0.0665223776598449
-6.101080390267357,-0.4827324838740345,0.8433661174286345,2.4542811298724825,-0.7644637606573845,-5.0548421437381394,-0.8793931563538043,-4.584185014411198,-1.12273671949427,-3.080018995922103,0.8022264571098557,-0.7383887674215752,-6.103569429708842,-0.3213116565699292
-6.835465408615391,-3.736755991196555,0.3645439995489421,2.0285001390317965,-1.7806498497674792,-5.57893034198518,-0.8961227232084443,-5.043639372445163,-0.9442433358105272,-0.6294889269815829,1.12155722654266,-1.0426519519068016,-7.440273926180978,0.3254631121457139
-3.5407534617851435,-6.338027109914284,1.1637615180822112,1.0489829321288415,-0.9977666882463644,-3.036363161615669,-0.1048372501432469,-2.153248940562372,-0.774104878459635,0.3631290110396973,0.2848875913787078,-0.6268755766024987,-3.7496432195454377,0.6916208580370751
0.028664487429073,-6.982040244727996,2.192446105311109,-0.670856339865891,-0.7787011294032959,0.0430469894897646,0.7269778983609416,1.9742928697249116,0.9158380176271596,2.766750589410749,0.3948921465516092,1.0550061688376184,-0.3766380342748517,2.0520495747698595
0.8648517413846653,-8.570526355305567,2.30633376928736,-2.5359730546606203,-0.0991523489076901,4.625033639377509,1.5357180672048314,4.580813554650509,3.263769120653441,4.938472916160901,1.0976251239908574,2.571390814479263,4.209282033026483,2.2624540680957064
-2.3654957971859965,-9.289383434969965,1.1020293953587763,-3.6663000417259344,0.8099987213646251,6.350158221632418,1.2964600897723102,4.2089434220134,4.161305177808794,4.443215070904069,1.6225834068911908,2.6151991946808173,5.096210356981978,0.676539959847342
-5.286964589637369,-8.498086032013942,-0.931016492062512,-3.650625180680003,0.3917501387255036,4.622497027732989,-0.1185965266968657,1.0213158389228971,2.894764318545589,2.6911295936815063,1.2986113584870824,0.5458635817893702,1.158875545476598,-1.3344891783766883
-6.971022143442577,-7.940509352869163,-2.917544063523314,-2.844395241383848,0.3710761208190897,3.007504734409163,-0.8394780886191369,-2.32452666224356,0.793334605573248,1.3708074525031912,-0.762879599859061,-3.2339057308013244,0.1544886693585229,-4.069929437038661
-7.880546100350362,-5.119590457038829,-4.223628045240022,-1.9965514667627324,0.4895160023776638,0.3528788745339614,-1.5612266111727755,-4.504923550877487,-1.4249735330542015,0.0914219670406983,-3.6604163630653215,-7.409673856396326,0.9311903425789588,-6.867474761062624
-7.652087633115532,-2.7266676831874914,-4.715210373752438,-1.6303782763749295,0.2403756676374562,-0.2357813398017593,-1.5097984146951064,-4.459325436928198,-2.0316786755098875,-0.2877782797275722,-4.672065163382095,-8.125604489480324,1.3960572603636576,-6.609054077005622
-7.742420152353882,-2.0642982912830243,-4.5732346298325535,-1.7310038961214649,0.6254381763114869,1.87752888000286,-0.1590433694434359,-1.985971929453442,-0.5945522267476415,0.0282388572162195,-2.6153512746732783,-3.8874906802229816,2.8026798034080644,-2.85630878642074
-8.32316966175074,0.4865401195493918,-3.9579175950946017,-1.8915623186431456,0.8911644261900182,4.13605101722562,0.1164039889248915,0.8953700080406356,0.4829075835219019,-0.7266126750000899,0.7449246000532908,1.5188173309787834,2.389245592232582,1.3312217026744972
-7.677917762571936,2.352708532429334,-2.8657340932062665,-1.6577750246036522,0.8627698153209024,7.458194361749289,1.142494584048017,3.684562410740819,0.6842478815657829,-1.5212566089519022,4.469614321249964,7.454255433758719,-0.0541022830448888,6.837426201592889
-6.104593729108917,2.5617644895335427,-1.3082822790648754,-0.7953042838995484,1.0716713926346664,8.271813031909302,2.229436865940801,4.189175009779126,-0.5012049274616941,-1.9381386398883809,5.3326998969346615,9.082906731964824,-2.237466583396836,8.978948094903078
-6.537017578179944,2.85678753725133,0.3636901475036524,0.5669872159773341,0.7980928304079332,6.044503400263843,1.4266322604997643,2.0386038229683905,-2.503786645587413,-2.16292066874217,2.132387518792888,4.509247819874273,-4.762506436698643,5.142358220403136
-5.576586249333159,1.5940750525634564,1.3671883920171723,1.8797280602515656,0.2533640768639437,3.095797157983264,0.8149964289534746,0.5448086745842842,-2.9155000883729896,-1.9550100171032765,-0.8821747932770029,1.450351813713499,-7.509928796753177,2.496428816155845
-4.3998175858737305,-1.071384832148672,0.8945291844238663,2.298327309252815,-0.0499822225062849,-1.5997812297940737,-1.7824220740768095,-0.5552019901456153,-2.0151551298318857,-1.89139929310686,-3.5448218499512247,-1.0889815504661984,-10.177398820952153,-0.9211635494504032
-5.733625163759887,-1.953230568598843,-1.154233745256893,1.12748910771902,-0.4159178097154336,-3.778164102551919,-4.658160251888672,-0.5161882424703084,-0.0195984237829927,-1.424293224799519,-3.940874863017644,-2.031149495896493,-10.858697913667555,-3.227058841502134
-4.336414683915249,-2.1623676606647497,-3.760201587707357,-1.580534243436197,-0.4059196015515653,-2.958623020224237,-4.052019007489587,0.9053134066346112,2.116042852024264,-0.1090271920212157,-1.0696864719715349,0.2342426296475203,-9.179371224368031,-1.29976833156691
-2.7303380549124543,-3.356857611643533,-5.298201950261615,-4.776339023446191,0.1640194863964894,-2.0789153283495243,-1.9212247903134003,0.4471504255586167,1.20646264756675,0.7545997181279946,0.2966592213286108,-0.5965907259525853,-8.126074976280883,-1.3312378636396165
-1.1048765611214435,-3.3664476043025457,-4.823742115714966,-6.910026664306033,0.5067852105512302,-0.0173505325761366,2.664299706600614,-0.8281640130986981,-0.3953122623994368,1.983005241389183,1.2253376693058349,-2.311352599741669,-7.243615632577031,-1.3582729658824604
2.931395437536957,-2.7267095643069044,-3.0862140858649845,-6.9496776904183015,0.1219060787410659,0.655296910143485,6.54863367825653,-1.7370909078294776,-1.1090489340304948,2.6380037464399573,1.6835554177967746,-2.6722960273866083,-6.272836188134241,-0.668369698480302
4.387281282952972,-1.632202767073137,-2.150476054833596,-5.1252763875299125,-0.4363533079344536,-0.4884686060538987,5.349836240935883,-2.501408919590231,-1.0302636120336657,1.753861232261109,0.5818357633083426,-2.983799823686505,-5.748684635357436,-1.6446048688371548
2.60632823214127,1.1587403263306888,-3.637634292355398,-2.746397514160047,-1.5724900311007313,-1.1935945469373523,2.0608079809912128,-1.6709661136183205,2.4132718018305006,2.1107658912365577,1.3318048546013084,-1.185743155081027,-2.519196876267117,-1.353462401418189
-0.6224618270405806,4.647765044262073,-6.988453290859687,-1.1939598308458048,-3.340987647700529,-2.141889474945857,-2.22339321948046,-0.8074483550454815,5.512272930491047,2.2892208833925,2.11145205903845,0.6970368000849052,3.528658459524478,-0.9537704199288788
-4.062394999973975,5.307594477413589,-9.4603745928758,-0.9346910458537934,-3.616271591253175,-2.7015259012135933,-4.803915155713717,-0.446774622120236,5.167700738800425,1.5619438113692603,1.4785922645388965,1.0330517548343616,5.274760892386759,-0.8472142096010278
-3.7474874974866097,2.8869963565989343,-8.187771561131214,-1.356276861647816,-4.006514234686762,-2.582918461670223,-2.793787575655469,0.1381163070980081,2.409893523898498,0.8751774741566545,0.7137350824275752,0.8080552879869176,2.910951731464167,0.4293009015332056
1.2382140080111907,0.0836871972418172,-2.7011052439016856,-1.4622834251610295,-5.001970687507213,-3.067467060882606,0.0836852541731745,0.0006956825298596,-2.140401616011669,-1.1473754802873124,-0.9872281848822544,0.0009810043616585,-1.2833641084075595,0.5572007540355177
7.395052301999063,-5.001582060792089,4.326291257251784,-0.7456383180632526,-4.370754609160412,-3.975894903811494,1.6263518230502705,1.0052149676886637,-5.80345590154809,-3.366733286425041,-2.472852638756264,-0.0209232997138009,-8.957821376765002,0.6805433379199105
10.32647508391737,-7.46072368570201,8.900281489098145,0.4771594180899932,-4.2689119450788375,-4.6097017908004725,1.5093683806641385,2.0433706363609865,-5.76298112504764,-3.85276550366851,-2.407033760329516,0.3824037028332371,-10.37010073374596,0.9492435700586532
6.347633349926571,-4.509023007803046,8.634648356600461,1.4184002486881249,-3.2865256654546773,-5.141156002868934,-0.4867195835733725,1.4553025450360142,-2.69457242160638,-2.818046314884411,-1.564847388468304,0.6293379870637363,-4.809517407432455,0.3715066071946161
-1.5783556726389172,-2.362060909411232,4.351042780092131,1.4503231728128767,-0.1034415305655019,-5.088424146982787,-1.9447320044506629,1.444300183461185,0.3553628884063382,-1.3770821080747528,-0.7485339183083182,1.7899684452444204,0.2575710515320054,1.50495651890982
-9.439532901305824,1.77563657998708,-0.8599477394572479,0.5181099953884227,2.1591578202550004,-4.295820165873558,-1.328663875828838,-0.0638444339821203,2.528554561611522,-0.1535773848616027,-0.2191970214518799,2.1483399789660016,7.127099285526099,2.298721930764151
-12.600807352628529,5.443620546286452,-4.092680241451341,-0.8591608789418808,3.4682853602778665,-3.6700896154559857,0.0425752110277571,-1.8904072382135129,2.778909524991879,0.0892674211398324,-0.2197053733305171,1.562688242087425,9.038571932270916,1.577574653304407
-6.899381676343166,4.586447404227647,-4.446779512857961,-1.901717053702625,3.392266560644084,-3.088428918263865,0.8376818189265367,-1.231604462778667,1.2393922860260291,-0.4046591441419714,-0.3601932115393731,1.3141024061032254,4.54218878521478,0.7538138559031606
-0.6826323857440648,5.056640228343908,-2.9586246070659863,-1.9998025933527053,1.6020989176871074,-2.243522761341284,0.6702920116475923,-1.5089226605214654,0.406346031437142,-0.4253435777737018,-0.3459316019928269,-0.887060044245826,2.2655291803186977,-1.6062955993030514
3.2234684665411857,5.412159403986581,-1.2009088553812446,-1.0662121605311896,-0.3228410446543702,-1.2810938328892945,-0.1688489992353352,-1.0643803821840805,0.1702314732404116,0.412180547966903,0.1894882001917485,-3.0766017182105,0.4774763807285572,-3.5955921910266286
5.380717402723812,4.551885773239694,-0.0400990279611734,0.4111652731911071,-1.5081283912939127,-0.4803331340883061,-0.1939439370764555,0.7521404073404145,-0.0749460003719924,1.6212472875480004,1.191626368520756,-2.9283394396479223,0.7081122237022822,-3.034468110178972
2.086454805646718,5.006204361457052,0.567809203083687,1.7472307434406391,-2.134154087322892,0.138834612449447,1.023627173425332,1.0621306274827371,-0.3339492705502849,2.441277822777576,1.7955720024152566,-2.3409889597579863,4.482993685386135,-1.3145210302432062
0.870000727818229,4.319322855019537,1.045607733867751,2.651754562469682,-2.7291842338496526,0.65098932084915,1.976263902157652,1.9647287256567685,-0.921456631533188,3.047847434473021,2.124835360590442,-0.8581553566477741,7.405514990232404,0.8026053586312476
4.120955695255625,2.580482703126981,1.6980436968568675,3.483290435522943,-3.454117392845826,0.9673618194847567,1.810957005704384,3.498035022518698,-1.5251645824974192,3.915884106052879,2.3722641277064804,1.032825021394813,10.243119084840345,2.894281398441735
6.369750694700978,2.0341529039208,2.574551680019544,4.776117714597594,-3.921150953380409,1.311130509125617,0.1990618933924837,3.560997510177969,-0.8573412863232307,3.8489946043038095,1.9067345819945447,1.6367064287285409,11.090314829601848,2.888132681890067
7.470939527591736,1.4723043859482476,3.501218932312184,6.389442745228368,-3.359506997491077,1.6746601742436027,-1.6942444667891554,2.359809661533202,0.5301551797313412,1.9517983203144096,0.5797785167982039,0.9873922513129576,9.024557917582325,0.6859466889151417
8.300278619552115,0.9504146748880756,4.130285217229734,7.213466665445758,-2.2665841640376465,0.9735946759126474,-1.2313808294986597,0.8082426178274977,1.1447047281107343,-0.4038523013471664,-0.2783756791166169,0.4196306782750494,4.029207959560318,-0.5938302949167663
5.622222443480146,1.2000467194316191,4.131092547119376,5.987060703872308,-0.7189404976103962,-0.8494642933587647,0.2926679338432131,-2.5745423598229245,1.2710235308064926,-4.73496010055209,-2.635430818027974,-0.4499609502051495,-4.923241749922056,-1.4811866352947525
1.1355785835190997,-0.4845302481991222,3.533519395934687,2.598705316570876,0.6835145042149874,-1.442543926733739,1.1055482800888778,-5.947805421867605,-0.2273721882592393,-7.7192172318292736,-5.192826307988876,-1.693288389430134,-9.554459507516352,-1.308133264856694
0.9729979229573108,-2.717928889803097,2.8472710325809416,-1.4918260892172055,0.8145376834631622,-0.901056735650135,0.6308381216713312,-6.0032000653413125,-2.241609206827782,-5.54415616599809,-4.407495022497511,-1.1526770304916143,-9.645473962731842,0.913113999011215
-1.0606316512569025,-4.32122373170618,2.6152315431770763,-4.34680485521374,0.8660360491025684,1.6166599195996814,-2.180333445640931,-4.520272445879402,-1.6324847701186262,-2.5402853505817617,-2.125583684033115,0.9517240416319184,-7.243905444886783,1.4735994411524658
-3.583824282552944,-7.978967826858705,2.741422279064708,-5.177046773857542,1.1124494212281366,6.800464518981859,-4.271155984804478,-1.6101677561387775,-0.5980683674345441,2.2187281330847117,3.0921453684018845,3.42163291871093,-0.1588762814332299,1.150181901049276
-1.805668150320796,-8.239131800520536,2.427176849901281,-4.805324175340871,1.1125778897754572,8.818344074631055,-3.31079673187278,1.751267827111499,0.6672403856745048,5.731101742114894,7.863447812314387,4.699927509764652,1.3041091179136712,0.5226564248311325
-3.445815166024314,-4.970721571795864,1.0301381393499016,-4.443115624483875,1.358752392848261,7.695345411804652,-0.7110276668071547,2.4168009912801125,2.2405861603699018,4.236362819577104,7.110082970383114,3.084702200830625,-3.2309472376885005,-0.5709009833405428
-5.284988895343676,-3.0009002287727413,-0.9836822098659884,-4.166197347418107,1.4896336110358834,5.837209483874768,2.0561374131289294,1.010081027412673,-0.2922974854192567,1.5729836482631558,2.1643038591651544,-0.9071513143020782,-7.707041831225332,0.1598476640247711
-4.165329889269978,2.8751519630669984,-2.189005877154017,-2.9089099446906808,1.1807854115158891,1.9003286309340413,3.590184730142841,0.8403693887031597,-2.567089999089632,-1.611839092438165,-5.059514179608007,-4.929672441519729,-14.507502083873812,1.1847547066613373
-3.5212951413133187,6.351869196398773,-1.5535400250697615,-0.0891054817090076,0.8913948177442967,0.0798515797719291,2.96680414778384,1.5909301929146964,-1.7818755730986378,-3.215987012960967,-8.65808569916457,-5.638385192449074,-15.200926441454476,1.203483731492525
-1.3483855150734012,3.4853905022291656,0.3479486342956279,3.0282699895010703,0.5125498270362566,0.7178163707614812,1.5083627308975829,2.3796484867300007,-0.2130829968637466,-1.8270262831085933,-5.856900700835008,-2.927782539262229,-8.59562882577748,-0.2128136671063173
2.5804990596653514,2.9699027607453683,1.6558721979377635,4.0269857863892575,-0.107479249233165,-0.9368129233601512,1.0995641620652985,4.160813235882432,4.206390558620735,-0.1731630799881994,-0.7088932029474906,0.0673561277545025,-2.7940531436310923,-3.8937929356874417
4.652048755599834,-0.0701096307055753,0.9134812815131816,1.62927235654833,-0.7232099549997084,-4.062071071188077,0.7704734208350545,3.170034849350776,7.3851471564601825,0.9492948095449272,3.660887513300412,2.0629488246108565,4.306821823228023,-7.636967648252495
3.7515370625079054,-3.800485783822451,-1.576084606767873,-2.8234616394711995,-0.5864913277484342,-6.209942113876033,0.2990738893880398,0.1878106189349366,5.526085412013675,1.0371676606746392,4.179733868704679,1.6271603746784398,7.185424007241578,-7.797621770197777
3.850660039070093,-2.440049523845914,-4.09892626510802,-6.386900156357449,0.7345543382315227,-7.977704638125278,0.3376313170940282,-1.0841902561213737,1.3216031708828706,-0.4772081329866916,0.5095605873702156,-0.4724925052061972,4.253006653187085,-3.948791181285777
3.472265634956891,-3.170969026729487,-5.157765754993542,-7.071005463757136,2.7825836199010605,-7.927406528431,-0.2412160044518315,-2.4300877225556143,-2.6540026546790125,-1.0340011501119333,-1.7363072698467712,-1.0591971787867946,3.389392441304792,1.3484490338288817
1.9507089647060576,-4.534428657563191,-4.672110913077557,-5.334243290232092,5.508367143851312,-5.526629590546694,-0.6831202008707278,-2.5948235800063104,-5.253295945286423,-0.4808714998947538,-1.336997707929079,-0.4053463012490689,3.0461867738125075,6.803844325089291
1.0417739865043556,-3.201947998143778,-3.648612427695325,-3.1085489066754595,6.743226594789104,-4.46538391787839,-0.7909492289266526,-1.2282369950230008,-4.844123997066423,0.0182779041346143,-0.2299153035096476,1.0112143986345248,3.7600804933612175,8.26849869228622
-2.4765615292770065,-2.878093774417406,-2.95102498615256,-1.6419579263652857,6.296043802851167,-4.443622830523085,-1.7482620618235205,-0.9555291380145544,-2.4368253847374537,1.2127387722749203,1.6163356644706972,2.4988324747244106,6.842278477118023,5.179515785410926
-4.906303374914983,-2.044373458812543,-2.618021545767081,-0.5718755960286075,6.030922318827245,-3.8816525575769663,-2.8484375069042955,-1.167023747557907,-2.0877212366954505,1.816745823985209,2.288080272367813,2.431382931327392,8.379725895177447,3.7085073020988792
-4.30904205922117,1.0763346699152538,-2.2952088820803502,0.9620400471716242,4.407994673345204,-3.457171678472978,-3.985623571575335,-1.1818609582018484,-2.4805214875586885,1.7077551366493096,1.8386383863664135,2.4392228749877822,8.796911418078505,3.557620932446892
-2.706510882655367,1.0921993890236092,-1.98055708435069,2.7245876532855617,3.870262155189691,-2.569486493040279,-3.889956212893546,-1.1697884415793434,-2.0319944426360546,1.1847288226960713,1.5398786605776715,2.2714691827621216,8.97262281141288,3.49145317027777
-1.6827266444881372,-1.8041910630998848,-2.067773433392358,3.287488891245232,5.185955559237611,-1.0860023499735856,-1.9640063601646525,-0.4736341936592532,-1.2343473843774655,-0.0606996945537315,0.8606642106748463,1.006861578052623,8.201197270631216,2.97861947227375
-3.025968556459736,-3.9606836344675895,-2.7128450372246284,1.5295625842230756,4.66564297114227,0.519037239619604,0.5103448057299557,0.9328343961866732,1.3911175830871882,-0.7148786472573533,-0.4401731394141904,0.4384390508780423,7.369559084798355,-0.7247366279378904
-5.520363557507188,-8.859880736952627,-3.427620678291152,-2.0176015362653086,5.184853282246668,2.4099025989518443,4.456531710912991,2.462573710099669,4.627893291106252,-1.1949728560327495,-2.4199060563964405,-1.8234174052773544,6.432771312426106,-6.767319156418364
-6.040335300638063,-10.833738603929785,-3.4885944425729987,-5.500167578878401,5.025167176442699,2.8551444554852177,6.697888277045231,2.8838315303696285,5.271128153969548,-0.8518861327224846,-3.090974580967909,-4.1956105331019,5.974421131456786,-9.58310933016805
0.3719761843553683,-6.868367178744308,-2.6660292986963574,-7.322946217657577,0.0948874243513099,1.643193350860506,5.307857341614793,1.908937856089351,3.671101241421032,0.415035096499932,-1.5636051528188537,-3.6623225362420224,6.24547954156419,-7.040677416803625
6.4779853924931015,-4.121917751672653,-1.3573391467859088,-7.238713171570064,-4.350367699217495,-0.539102330689309,3.4660325396705924,0.7581992637153306,2.053770011779895,0.1765761648280059,0.3081626136223674,-3.4158575509826155,6.072367153469074,-3.310986545057605
10.539246728664136,1.4551319684661104,0.0425237756660985,-5.931384977862068,-9.51452544717759,-4.220232027578817,-0.7920167788106073,-0.8420267073654218,0.0619646984538352,-0.0444154887083597,2.793346561457964,-1.9776788503253635,5.639189234138844,0.6428773177040426
13.277203595959902,6.746297702085378,1.7279286502032152,-3.8441768225239255,-14.29660977595404,-5.100186695410327,-4.640215525393235,-1.8221843036476064,-1.0048774195281471,-0.128419113299653,3.5143408925937734,-0.0206855723944385,4.705476801598256,2.0534703086349126
8.494399460171326,6.721929663138146,4.2317842470162566,-0.7329579144591878,-11.63999989017029,-2.854684499935574,-3.723749372783816,-1.4126104277726377,-0.3547767652432775,-0.5380812117295588,1.2917436325425844,-0.5044302864848867,3.033558693976935,-0.1449705426091479
8.125184126261223,8.917393624411915,7.553849816854299,3.6050539599238456,-7.458001677729216,-0.5279199149090336,-2.1914670867293675,-0.7980624601410239,-0.6430491787779643,1.078656286457479,0.3944709261111125,0.8536427472752668,2.7231748218653915,-0.0758269265043696
10.789129239273688,11.002113623744457,10.700352428287866,8.436544388429162,-3.468985874810886,2.9345665929363127,0.494330300813748,0.8325065590253974,-0.8555449008177716,2.8123293038998054,0.1746278134657182,3.949198703005195,3.795863527503691,3.147535231919472
8.737867516222519,9.794716852751884,12.292953771013035,12.229631521060266,1.540010572746727,5.0094610532729815,3.3841905027678454,2.415980621823469,-0.4108694794450535,2.59877361258094,0.0093631502775557,5.285482243854554,3.426090378214985,6.194777210489456
8.457220407964986,9.585964107386935,11.724570397559184,13.80273594649432,2.066597007537033,5.198731771335496,2.167636966569932,1.973810249865388,-1.092385115854925,0.6109974153020723,0.2987399387665447,4.98754878118014,1.9138414567218915,6.77092605109181
5.371691263927927,7.919221026748104,9.688642094591804,13.286959896762005,1.6154595930479276,6.466712194423202,-0.6351941972950785,-0.2449386090018189,-2.532219638388545,-3.6627723352699295,-2.5158469295503183,1.9780386942066317,-2.7032669947529917,3.238181828272565
0.7472599478399249,2.986594212289205,7.535176110931717,11.879954602476428,3.5318518977502595,8.174603250754348,-3.086250313854516,-4.47077111503579,-4.862668269289516,-8.789376060151959,-7.793560644568169,-3.973777732442822,-11.248370986100122,-4.123625774357047
0.9038165101420716,1.0072649496187367,6.124916761265084,10.649311477095525,3.5069596519609867,8.602875150588968,-4.299290341665751,-7.387296335836876,-6.03592541191216,-9.687892039760843,-10.099122840684826,-7.466806160003068,-14.281203111927368,-9.186312932389804
0.5926705384462432,0.4349073215962059,5.315758113177651,9.60560269285584,2.3477324174445715,8.019489913399298,-2.68486707025363,-5.555764294904336,-3.69208255925282,-5.004397277610559,-7.00583229136452,-5.306146837611752,-11.83663551252526,-7.424712303564728
-1.387638847664151,-2.1219224878778946,4.443394616173182,7.919769242369847,1.782231256335831,6.91159396587995,0.8797630585835017,-0.7148978008104847,0.5258052008570173,0.996663628417839,-0.138980255418,-1.0959762291247743,-7.398933675976852,-1.8694876681165804
-3.1223839342351942,-2.1914273861205578,3.0878182962630296,4.967713469973447,-1.5132763965056504,4.970039816356128,3.8052211303899695,5.586236361247489,6.035644896255528,7.898470722953284,9.697622565286093,4.518222276634455,1.2657263395218288,5.045090098462737
-5.21372798162996,-2.460456589849433,1.2719055968932278,1.1182920470626525,-4.070635500145426,3.548288208281991,3.992418009217158,8.66129245726708,8.34132521624071,10.35777125159676,14.640624919190229,7.836055281473998,2.856684883358869,8.810094074546507
-5.970363434833362,-3.612287157572745,-0.9152857544574596,-2.453046926861594,-3.5714576825140507,2.7584214038968504,1.956789869208865,5.695020080849348,5.156204881599886,5.85020220898431,9.883308581386514,4.509460718160256,-3.494989206804035,5.884986967549084
-7.747921276180765,-1.9463804809756289,-3.546584261162371,-4.648440202390415,-4.312987372589803,0.8885865028635016,-0.6245137330060135,1.5460375261977686,2.1120072479676644,2.783280849990404,2.979953459125725,-0.9905152735640548,-6.769061716133307,0.4523790545415214
-12.224567355788912,-0.7072871700720782,-6.520292726437972,-5.18891144943407,-4.37501056564071,-1.8077522631029943,-2.5645961103275283,-1.4572944603211162,-0.8493386608123592,0.4082707438916675,-4.540174879666647,-6.548442557517846,-9.396523211130326,-3.414748552342504
-15.8982440064199,-0.8461875958841663,-9.144720271629446,-4.671200624216958,-3.721935581810002,-3.3673508606956584,-2.5171825660809968,-2.038260017848315,-2.263923328851119,-0.9398916321606806,-8.017743886784091,-8.724006547459323,-10.57338194195534,-4.027651230630789
-17.264044977413633,-1.1539993710829184,-10.392819775291477,-4.065473640548769,-4.375314120054417,-3.918992638929385,-0.8430198853463413,0.1963259892510063,-0.5968056806864919,0.5081119093690626,-3.6711526044730007,-4.111745083092484,-8.549556533024504,-0.7710786389417481
-14.814341941366528,-2.425878650151436,-9.778496471442203,-4.115636353326159,-3.996886591798688,-4.479768554145959,-0.0422487963536608,0.5504999244066713,-1.120057269615051,-1.3509230364572584,-0.2611920573317917,1.3642105488193357,-12.20509463957099,2.5390401889323746
-9.918772812232111,-4.053346144179161,-7.92811725510825,-4.971772325073433,-3.044039209025483,-4.6650071216051865,0.1250979903232667,-2.005881344642792,-2.880144997502088,-5.088044081814603,0.725779408574203,5.548804873680699,-21.342020465430924,2.557265070651158
-7.36782922545677,-4.289137754343497,-6.129182277664446,-6.149837422795068,-2.512295185633938,-4.750848672955993,0.5855236627153566,-3.722459827369264,-2.8767138826387444,-5.747974532028411,0.6957854013845075,6.629130515214604,-24.02756585018868,0.2721410043909119
-7.889310561982262,-3.2351145085864585,-5.2646880873504935,-6.825096706618829,-1.565806582542915,-4.837783434901755,0.8075057362437705,-3.433105792717915,-1.8213347425495323,-3.525621950292079,-1.3412794340743937,2.9408357725793306,-21.33300129361417,-2.881511438087357
-8.52671819629091,-2.1128158811538333,-5.228660647848882,-6.375813723484219,-0.54620135429384,-3.887363624878118,1.455445499290532,-1.6487152120549031,0.525254692735019,0.5266096182891853,-1.724316124992599,0.3510181697734467,-16.516520793398122,-5.226939209768427
-7.047686873499176,-0.2980166293693653,-5.32943252311421,-4.848252411429414,0.5098269609206134,-1.909840611861922,2.5220036565666883,1.7614062683332592,3.749207329466485,5.482725514881612,0.2645280018908776,-0.5890326566343751,-7.165418153076009,-5.489013377790711
-4.445133102058287,1.474661107441145,-5.068405010012644,-2.898468063756574,1.7715763086631728,-0.6418053529558243,2.2718871454852123,3.346643221648491,4.426000703589351,6.469123477815032,1.52046101277902,-1.0316255529324434,-3.20333880683868,-3.5780575917646504
-1.7195820461643911,2.263454474913166,-4.41124306914446,-1.1477760149413092,2.8495128205592097,0.0190521066034576,1.1187423805992502,1.817352792359896,2.427816617512218,3.013517694523973,1.5268756627452986,-0.6067520051089846,-5.239661494685127,-1.1324203197864051
0.7009449371185262,3.2917008125736675,-3.493738579687898,0.4346974454390271,3.643631330964777,1.0737173039795609,-0.0316457143458502,0.6732985806322619,0.5084325478553904,0.2418313040615742,1.2428306253519363,-0.4919266330312523,-3.9713148333350734,1.3715718818249318
2.268749695686206,4.641309824256019,-2.4064748649790086,2.3958947199598715,4.540548584988628,2.195579716590863,-2.449274594195876,-0.456099377672007,-2.016412990034812,-2.273958339135759,0.1911277959312771,-0.1175026904937583,-1.4632029110523477,4.414512469664273
4.377592041516068,5.3536905178298895,-1.4018376637433985,4.908005138967996,4.470945916094711,3.6540224993573385,-3.9852955999296102,-1.0718835721591504,-3.216271068393454,-3.124064911662454,-0.8575492714693109,0.7415055105646511,2.169681544688151,4.775344222258276
6.398912004407367,5.273027392277489,-1.030248392247632,7.085356179181203,2.2879077660662834,5.576215293418235,-3.2566032553085127,-0.0540917097879732,-1.9805219616856011,-1.7350737483195229,-0.9418731490000096,1.1256387953225326,8.321489634185012,3.059990280460509
5.935654819023737,5.342628348030024,-1.6503751279360346,7.458822335243547,-0.1623973475440676,7.298801340176566,-2.1840457812511027,0.2082322602745885,-1.500569729436382,-2.5319508352418008,-0.8471850238847529,-0.5319648872919411,12.538382674977198,3.0276202314412712
3.538887427099666,4.728353888125812,-2.694144265218336,5.365499430383201,-3.5984493971745595,8.886630665770385,0.9219798473285916,-0.0109781248291583,-1.125706451482687,-4.06612611758132,-0.3388230532099318,-4.143052610166523,15.029782457244444,2.490957880160154
1.5898298682444283,3.1120511486099662,-2.737050345757698,1.8647183407769263,-5.845521049811742,9.139782067173652,3.599803369614781,-0.2423318404319229,-0.8372278643695127,-3.932761988697983,0.7247675818345862,-6.408501327343598,16.94348873466323,1.7781553399776826
2.280129360770279,2.862037540755914,-0.7124094023183778,-0.9195298139731216,-2.9758476028963003,7.791354044141867,1.9390682855384056,-1.566801701143868,-1.968221194642432,-3.2019274911888767,0.6674304147911208,-5.092223909624716,17.330867113375213,1.3812679403701211
6.784691079893863,2.0937743644669338,2.827883073304896,-1.5439625049579302,0.4534164315698804,6.1284762241612585,0.5590252218770482,-0.8145706074731038,-0.3454685862851827,0.5672985176201533,0.5278850197544346,-0.0286088604980755,18.238578707214582,-2.0456577994140184
11.703573636235792,-0.1423982409761852,5.8761383573647485,-0.4014980932452001,4.483634972092642,3.7975347446752887,-1.0837375613597704,1.582330065820845,3.541422323479994,5.889794469606832,0.7924389434192736,7.067739011468602,19.66811340135176,-6.162864373583249
12.59942510725996,-0.4907872187251729,6.660328104799387,0.8484703654191752,8.209730285852062,1.93112718577772,-2.7342985682566043,2.625618297978513,5.156338978706691,6.864113401464789,-0.1443005033733245,9.797604013840784,18.745131803141412,-6.977404977533094
9.627595376184486,-2.060842207431368,5.2643072499640375,0.9474310025349252,6.405919367698153,0.7932212613385773,-0.5614675930732461,2.5574790813539487,4.355242356157151,4.459043464699607,-0.9952250330434212,5.701706348936934,15.705556654943086,-4.750796090324719
3.8488883836107313,-5.0944609837023735,3.510322717031247,0.1037066372692474,3.932543057670753,-1.0425980112836757,1.2251178545614452,-0.0361158946134437,0.6914431009666008,1.6563253612320086,-1.3493664159336265,-0.7470848692904295,10.986186760454029,-0.6679417251939898
-0.3684852989891575,-5.736441447997946,3.1898554670940342,-0.5169960300100023,2.2093714740915096,-3.2709101447006423,1.7165161908378586,-4.10019737648528,-4.915514892811442,-1.469737112064996,-2.8132286608129635,-7.701550268893296,3.9596765871177024,4.861139157610249
0.9739421924272936,-6.629557779393088,4.427511308456896,-0.180326320400912,-0.5530713472735115,-3.7517465823959024,1.609101950604469,-5.143455530010028,-6.622607311597242,-1.7614252667558248,-2.8675139126066,-9.570275273815156,1.670392037659158,7.619533873907852
3.9800560033439543,-5.632337111360925,5.778942699312449,0.6525452368116436,-0.6698952300353366,-2.4789485044709645,0.3141837400286117,-1.8625566056836875,-2.5200158595479327,1.1394962209185258,-0.4128809710496755,-3.954772152847159,4.619101690452788,5.810213216928997
5.740933697481525,-1.3897108313426187,5.8445189656295184,0.8876631795524128,0.04002231019012,-1.74145995838652,-1.3860837688086387,1.3570816068294915,0.8994663338016384,0.255422731992625,-0.041375608547156,0.6859662434711884,5.65554507687315,1.6157569766188475
4.351728901490704,1.8484091888914305,4.687965833965951,-0.016768748892507,-1.2455434042715028,-1.156558389270843,-3.008018726591016,3.5685916823273267,2.830557399634997,-2.8089173609242746,0.8799608241484291,3.8480915278335215,6.278085309451924,-5.340516566200083
-0.2591057260412115,3.5546939015190144,3.674636811691533,-1.4683473873987962,-0.9862835264555152,-1.3746349703698042,-2.3847289969823726,3.78820021930062,2.8621601065736866,-3.955844646189156,2.488947015365702,4.783857886046954,5.143534406153699,-9.816081011969894
-1.917752681202136,3.0253903811247334,3.992234342156465,-2.2583667849891835,0.7978838232637994,-2.886660548139531,-0.2921478955285757,0.5469606584312688,-0.422008144175037,-4.140323147521024,1.8400296555049365,1.7113214997454718,0.9839058025001338,-7.199480575238702
0.4452355302683315,0.229806380839875,5.373530244495456,-1.6158413833971794,1.5383853097637827,-2.234985001174541,1.613859829416854,-0.9461575207263672,-0.7406718053540112,-1.073506165171051,3.45884442862342,1.6540931742991276,-0.043930934940005,-0.3025198101868174
5.411780565188158,-2.75425653063998,6.235766338504832,0.1290601385465009,4.271357130951889,0.4912932928305901,5.07890678753196,-0.6694002282610739,1.7308381098804788,3.5427194080395323,4.753134904499358,4.112733550289189,1.66242975366942,9.470184861697684
9.56598498367883,-4.544378602873309,5.065172756385723,1.7323274200816026,5.99347515620468,0.8756891368304495,6.058947647591311,-0.3089354923841242,3.1209673496365187,4.644356903996592,2.981002518189497,5.01185483437921,0.3648225767570506,14.756987444667542
