AF3,F7,F3,FC5,T7,P7,O1,O2,P8,T8,FC6,F4,F8,AF4
6.71368665750551,8.502676101355007,9.52991213034312,8.087169052198462,-2.4603793125650424,2.3131525897253384,1.0582598943508712,5.285489474335186,2.1431417617686725,3.429697418821669,2.8233861961823816,6.008114280766867,-4.0286833612887785,9.208942450037606
6.471767565920571,10.666638918841556,9.161891851253516,8.110505206390634,-1.6288352185247623,0.8610629970840928,-0.506709391902037,3.621203618610593,2.086114294888224,3.631732040684701,-0.1091755621524068,3.8487703158235966,-6.426831091185372,6.527399358473908
5.335130626821313,10.90713071220545,7.1875347019491365,5.004622156989791,0.0772164807701333,-1.0129663415836103,-1.4034913116945047,0.596932570529612,0.6744757173745652,2.655976838215743,-3.3679155094167736,-1.8952503811217856,-4.497003305184487,-0.7051955989601649
2.215836344156185,9.143068957911575,6.227864780878628,3.084594796407889,1.53260640024034,-1.7953968183842195,-1.197305340310594,-0.6106225165067816,-1.3015759959582276,1.4964490353070188,-4.139383787622149,-4.319221306566637,0.3122120597210429,-3.335879599061049
-0.571087743115863,6.298768499001167,7.181466799504316,1.7503746531750075,1.9043929613238109,-0.7604613291832083,-0.0056763798210528,0.0424951192173761,-2.444993254824072,1.3487232063716963,-1.1210334797521917,-3.5838204095651416,4.560013336295894,-1.3481931165538883
-2.3466838301559174,3.804258260093848,8.406737802536849,0.6428868390866492,0.9160922452247104,0.4375363204876996,0.7475878880511418,0.3548043715297404,-1.9053061354694656,2.4849879851523795,4.147447758675693,-2.8773763827573746,5.625116532766108,-0.3554183853936582
-5.882496306718444,2.7197788151904803,7.5209149841679075,0.5592968700573773,-0.1638844414589559,0.5176485722920239,0.2297303777693233,1.0042269250140898,-0.1139694395196833,3.869933098771303,8.222483731368769,-0.7254624973249674,3.536605751097323,1.5564872254148676
-7.178941670218217,3.1746172168325018,3.94966317498053,0.1956815573750556,0.2496665184714207,-0.4812001703027436,-0.4518117143103809,0.5124721265378618,1.5302677099094293,3.9218608640768817,8.296949790468352,-0.0533218752243033,0.5368500585380866,1.4361526350640117
-4.377507785600001,4.488251927749678,-0.3163140782293632,-0.2559314041662228,2.051970008254181,-1.7511095660195422,-0.8161877232132658,-1.5019933393777234,1.7462602501114357,1.7980302257012837,4.246975161714224,-1.2236080161573128,-0.919322041224086,-1.5036596608454704
-3.440553207661643,5.767882658856985,-2.4353525683722363,1.3940501506394358,4.447101592939295,-1.9087508546063263,-0.6538324073730932,-3.422110408756312,0.3389600707401099,-1.8529108014617588,-1.4558353270540287,-0.091012310857963,0.0050390092814431,-1.7140132669485106
0.2277778005928832,6.497373696802582,-1.159721467170515,5.151136163070499,6.35315494769587,-0.5568729652871045,0.1176916890611144,-5.682857935885401,-1.6723248627622256,-5.234117322902282,-5.730861886318285,2.8109191200578,2.12846372964567,0.1867562608831801
3.7643059383710735,6.788951746362868,2.28304199128628,7.198268677672718,6.49939810673138,1.024675093946838,0.4258379519404982,-6.622081034440575,-2.7843571327512837,-6.512875335215025,-6.992357406179186,4.863244219431259,3.3440800038154848,2.4253970775068336
2.025645874086287,7.253677295418498,5.477549280367218,7.769224163575058,5.117175695771846,1.4135194455882985,-0.0107441963533825,-5.880359196839956,-2.003401687964934,-4.882920507013159,-5.726807147029928,6.639145387606015,2.330266439025178,5.988298682514907
2.7242386534764056,8.552142609507165,6.815431242770348,6.355019706207447,4.679429509535271,0.3177283673083116,-0.512903753333715,-4.333349740488313,0.5791891490613779,-0.94920802184188,-3.4273443191619344,6.507107969864429,-0.2986533732722103,7.65825777762355
2.0216965053857776,10.72016178448205,6.336736489401618,1.9652653765589143,4.602384706443421,-1.1358424954290522,-1.4990616969030022,-1.4195792908816152,3.911855885080066,3.653296653983377,-1.168836491372681,3.866329536034416,-2.255354781299672,7.140435171531509
-0.5606394600702476,12.59902663593503,4.980569692649592,-0.8117492563805455,3.9329639910926697,-1.3121233755338737,-1.6501265407548265,0.4450299469884127,6.614570470594171,7.093659332169398,0.8700226965358588,2.524656196266006,-1.243473829592335,5.645340118254794
0.1627153391726802,11.995000426357572,3.3859502598350826,-2.200732568211105,4.2403753594555065,0.2940336832319949,0.2426661111681795,1.1027356266167716,7.707726357760862,8.210551414568801,2.816058002092767,2.0997202304303517,3.071156321101265,2.271606646452077
-0.664495114476538,6.9718287389789335,1.536713783659811,-4.53063616741426,2.140228903817947,2.792980484912364,3.072123229708086,1.831689585696313,7.084095200992671,7.03476737544635,4.410590270664407,2.070489840506507,8.37405204580111,-0.7281536811219146
-1.286683934419547,-2.304623298177554,-0.6386408660121452,-6.926803637277971,-1.0202176620353582,4.838113115463894,7.729836991120231,2.021081074118422,5.528205558472608,4.692586682663783,5.101664231118946,3.2066179165623625,11.103796711273867,-3.309884728380052
-0.155763936101042,-12.73426803185234,-2.680396690156216,-9.514534442525026,-1.578623946402598,4.336232353180429,9.759550073633712,1.941060670005348,4.246255643441791,2.6582988178161813,4.742438055759623,2.574352275430368,9.022414657280592,-6.066654817697297
-0.1070656176666601,-19.74139412451486,-3.8394246142113735,-12.47203631012419,-3.049583319459163,1.3390445896493235,5.678269519618011,1.622636217457098,4.088222628381213,1.7471094640306315,3.9220720431581366,0.1468148252752763,2.8707972517301648,-8.443457707172149
0.1417779186250353,-20.45080328413436,-3.896785332604905,-13.89937616650083,-2.392728596260656,-1.2172594334252649,0.2948245281853391,0.8950813068025354,4.906576028692613,1.5624141904990283,3.3495326607396243,-2.185826313905069,-4.309575545762231,-11.354551069992445
0.0313047497804689,-16.094448953050104,-3.5841267775549905,-13.697570541066616,-0.2450066576032123,-3.420790722074462,-7.37494174141363,-0.1937489011007722,5.568314533833513,0.9181066651810106,2.8819346119138203,-5.032546896474785,-9.544970659890762,-14.74197115573542
-0.3347051935633826,-11.282518709584576,-4.0166722391349765,-13.061667291887307,-0.730460544032497,-3.901196752027386,-11.89001439665932,-1.2267478945197077,4.768756121930002,-0.9965703027719206,1.388664094176678,-6.16736229949222,-11.836686091835904,-15.475583537142183
0.0422346705183575,-10.331493845770478,-5.609693058542579,-11.533039956689004,-0.1702835839439797,-2.22578163074347,-8.493511074550376,-2.180191494215918,2.124242990043889,-3.683573568620581,-2.127572986448297,-5.179066786650526,-12.032074702810682,-13.431274378554331
0.2520419675587777,-13.674904853174487,-7.550334997098517,-9.287341751176278,-1.8405022103075688,-2.4883578999238787,-5.792287142907631,-2.6631330883827347,-1.3661227534917053,-5.565018829426645,-7.144536847643892,-4.717876540532774,-11.183943262581115,-11.597129440955662
1.180642119884071,-17.61876047491768,-8.424761251377841,-6.412022164940826,-5.11793966444369,-3.2418521886091627,-2.9371794108067446,-2.5025033570642674,-3.998081042221572,-5.328918473833403,-11.463818074230032,-4.225158228235747,-9.375475433313904,-9.328524611196636
1.6795497435679931,-17.790612761696604,-7.507538651642598,-4.581071979809932,-5.290249430490575,-2.90555237209076,-0.0800536087363255,-1.267221673490546,-4.702857205673581,-3.2363599626423034,-12.698453259360877,-3.734238115161693,-6.279163619940892,-8.32301230928499
0.5835990704334804,-13.18452184314988,-5.555112172895135,-4.044888103049468,-4.6247029043129535,-1.950785772571385,-0.3998220115252429,1.29663475610672,-3.889004171796493,-1.0880531807833007,-10.179297743265217,-3.655033617092268,-2.621537002035868,-9.220826064656997
-0.0562537305830016,-7.094090560098177,-4.331489117395109,-5.636021501252802,-1.9636115596490569,1.0072783477850291,1.3781521745955,2.123838682807578,-2.9757563762999784,-0.6832802191339016,-5.546577828612164,-3.2320174624068407,-0.5406407079884819,-8.600308392514414
-1.8257380763800588,-4.137336907471743,-5.193799561224127,-10.05694872117532,1.6476145145821994,4.642961154549591,5.020691011843331,1.1726830695243735,-2.98637158889473,-2.0633451958376217,-1.4760348778380807,-2.604870202371961,-1.937810817164669,-6.921319653631863
-3.533306283322293,-6.215543796416006,-7.904885193087971,-12.094645123887872,2.6471686348142835,5.691348849209767,6.071768344401243,0.7749862820808882,-3.4952446331444977,-3.2121455766709794,0.3144446103084783,-2.614250091808449,-6.25643627598934,-6.85033575634522
-2.730189252946947,-11.104428127127488,-10.684374404011308,-11.85841672197214,1.8483465215357395,3.8982428833433302,5.133983768995597,0.2981415005736956,-2.969224986676702,-1.6890150797045207,0.0729726685294638,-3.233104717586054,-10.15385811320591,-7.992964837440244
-1.6918813955575298,-14.744252836113729,-11.502220434952244,-8.51295343082821,1.538647511245715,1.666780233878918,4.345755494935871,2.610389108944729,-0.278108668407234,3.0977399947533493,-0.6508125742875221,-2.770963040271184,-9.955459070558977,-8.890982172677308
1.2365123516296732,-14.86508622065585,-9.62113135414868,-0.603449584049615,2.58889017721943,-0.506816887080721,3.14821770260709,8.298870350947801,3.974902201737754,8.968050494861414,-0.5364772471253616,-1.2808213655756815,-4.972350358865945,-9.939083750816089
4.270884030038298,-12.633057095414172,-6.213601114049581,2.2743673189826565,3.678371554868593,-1.3880279500376,2.3789167175233654,9.729404012373903,7.56362680191663,12.316261606409624,0.4882580870037527,-0.6754847829340763,1.4343601483666428,-10.589600828606311
3.3984761138747994,-11.152907846437984,-3.6003551787330776,0.1919914922003285,4.099725263182252,-0.6861460463278505,1.724686464235252,7.227175244652791,8.20369347939668,10.720737518638572,1.4371641593532212,-0.7062471566310579,4.337390858829007,-10.583751761373891
1.0426855978414131,-12.558511213504204,-3.6563678222814655,-4.1603590729387445,3.681842911041361,-0.7032753174828466,-1.6906962329879214,3.02998614595801,5.304064950037269,4.7457684582545525,1.2603249388322313,-2.5234226336008367,1.3025795224054364,-12.836871146401066
-3.691690949091971,-16.343471045623417,-6.480788493765575,-13.09194032314237,1.329289231405601,-1.9037903887994363,-7.277250198396443,-4.562535849394127,0.4637014066281648,-2.448744601912085,-0.2855635673381087,-6.642999463210191,-5.533480061876796,-17.36585302757034
-7.2870726557984895,-20.06190741100928,-10.234567760750789,-16.164883655534172,-1.752283491404483,-2.7750311839597286,-9.601569841669544,-7.264262349993502,-3.670025902492852,-7.311805804061077,-2.5106176484866163,-8.695055221887843,-11.230994143597815,-19.280391220120368
-4.257467430708935,-21.382855785797908,-12.311550298928289,-12.863320287342392,-3.7899773221979487,-2.31645949752157,-6.454009975540685,-4.548879486968352,-5.236171541817651,-8.211868391950478,-4.357024660504778,-8.835565858433073,-12.100753752325213,-18.89328823573593
2.2554662633446263,-19.67127446993181,-11.146647631368648,-9.675241479924866,-7.538841729973046,-0.6814064626189081,-1.1250314862859094,-2.407883732190678,-4.267158038490997,-6.228616167871596,-5.141794076815113,-7.50424950537659,-8.527308119955595,-16.981127442092056
11.739469526090708,-16.09617212130686,-7.439665873291256,-4.150195187948181,-11.942065589341812,2.9165836219289387,6.339875807984709,1.090178040518746,-2.338260586611153,-4.030096096056502,-4.946703411455397,-3.6322686412596457,-4.278859962674709,-12.430140170616731
16.891930047360926,-12.56894033061189,-3.7901612468545145,-1.9127924048260383,-12.532736629594284,5.508369239901033,9.833300899215285,1.8344308255909327,-1.2115794979731889,-3.7760235141476266,-4.440288299806734,-2.1710457616111305,-3.150885978815481,-9.644811241586682
11.656338893410144,-10.462838557594749,-2.7772668022567557,-3.942088163727495,-11.962745799219858,4.570550758481788,6.030465650393415,-1.15450735520767,-1.6058510055697397,-5.546295069881724,-4.313772567337828,-3.151264229020267,-5.930455813024624,-8.67568524264897
1.162149557152163,-9.90621871769576,-4.8342051313155325,-4.96424477293345,-10.815042556798184,1.6481447413075228,1.625879883689315,-3.393161692417621,-2.9496893967416025,-7.355659903859191,-4.760954233913077,-5.1984282758274345,-10.095525420017802,-8.054957610092291
-12.688127831357717,-9.933581209301634,-7.702911709798553,-6.461112269353637,-8.649476175908065,-3.316772937057199,-3.6296684093205527,-6.043836576853535,-4.103874897677151,-6.73792231004744,-5.378969778814867,-9.529431892107027,-12.202882678842096,-8.845633805960416
-19.520291623718983,-9.27608788306916,-8.15506003626608,-4.410908908783044,-7.829601487502024,-6.5596284095392,-6.529934748466437,-6.2339356877569045,-4.324970972001871,-2.801365090915539,-5.542379683556327,-8.758342247480071,-10.781386345204194,-5.21229095728113
-13.81557035161854,-7.198154607617155,-4.694257610623651,2.190701861498946,-4.894335921642139,-5.108248782340861,-4.025034073142129,-3.117060328049674,-3.697612402810787,2.7713167552221742,-4.929703510773304,-2.4344908344788787,-7.347011558761356,3.249192319600887
-5.996734631619093,-3.730226359523104,1.1211153377080492,9.311433813214135,0.9985379378836584,-1.9151335974483288,-1.8647525200163089,0.0548776726489609,-2.8189439823156177,6.679378773075433,-3.752892635962451,4.288230157866183,-4.800348344075915,14.791714565619008
1.7286033062081756,0.875356732717675,6.044626626499503,18.169935414708046,8.750011128471106,1.821898508967258,0.1466099417573745,4.18285676588588,-2.151325147490468,6.38904016159564,-2.473845589001064,13.153869928606598,-4.589489513994112,31.055239442448244
4.975632728220496,6.862104949238519,8.07498868350643,22.481506348191846,14.221583300854777,3.749656325929673,1.950920247485251,5.8162863431473175,-1.657754677622956,2.1853116668744272,-1.2305394809738566,16.622456452613363,-5.068226390019625,39.17766511452971
-0.2763180910385869,14.949251554946969,8.267070160927402,21.20848240595944,12.905049619841217,1.7835848467612134,0.8166503829550098,4.239857228309226,-0.9956019732227266,-2.806576675376113,0.5027801602373954,13.48642857467379,-2.625891132457173,38.298518009034886
-1.056133986476483,25.289295077385432,9.652679742773506,20.920128236746905,10.623826701366513,-0.2591799099195367,0.7959872115872817,4.039837005922896,-0.006944202280108,-4.834183705448713,3.59639731402114,13.834122797601028,5.066959883970105,36.20455540976503
4.086150914809761,36.29741490786404,14.175650595298794,19.992533728416472,7.844587297789473,-0.6434797091602232,2.4785486000719885,4.353074621666089,1.002268250641036,-2.326675740857037,8.382509373570405,15.97872370051881,16.371455003630217,29.671114016517567
7.469501196575678,44.70536638646741,20.46727355247949,19.81483752671062,5.331189423130059,-0.2247140713316681,2.421502577617603,4.279135575305869,1.4530615822074626,2.9130350491879744,13.886309634878188,17.277540956909306,26.13357053721621,27.061117765919857
9.662114651801703,47.27155798757752,24.61070767536699,21.400349003460427,6.864919799488255,1.2865101721861476,1.6403097611833584,4.487676857714661,0.9520779892468684,7.072767415180523,17.976321072526428,19.27311773280938,29.36315232708313,29.542679900282653
7.6128796784007555,43.01286417217696,23.349884431204583,20.694641329386247,6.36563311105148,2.205687727944088,0.0066434616983284,1.8188924629201413,-0.4030086286709096,7.133400937522034,18.63833521481408,15.682419938926548,25.264363929916957,29.574730384432048
0.5646342437269152,34.13549722372655,16.9590666477362,18.173590503932136,2.713018290630512,1.0407237063331,-4.619348908835874,-3.963022580546574,-2.089963166626637,2.9057811831277194,15.578079119386643,5.918998267980386,18.091218664862847,29.246703491378195
-3.741328999454337,24.794469578169085,9.227966027183577,15.758711060837385,0.592413582339307,-0.479368197292138,-7.237335083395318,-6.570042483753081,-3.464767580971568,-3.132985449065961,10.807469445601155,0.049862730156492,13.869736506639187,26.802107940220697
-2.2599424287480203,18.58139879459848,4.513825363728644,12.82758614656933,-0.873144042181388,-0.9120821471968302,-4.599782658109239,-6.345684006478559,-4.042646725582667,-7.808204365408173,7.438527689226366,-2.91615896564419,15.647789281803592,21.18850644115796
-1.554523708123305,16.624840520809116,4.353310413946363,8.088974486889905,-1.6609884430110429,-1.027340305168233,-1.4761459044020746,-4.315735046204442,-3.657402894397646,-9.344198971905282,7.354891077775938,-4.64022849259817,21.252022088066163,15.175931388223573
-2.3530171198724115,17.558877471743205,6.500053675101948,1.616309414727964,-0.3317534181517163,-0.3380389434015564,4.502265230275748,0.9727242301712048,-2.552533910999024,-8.123184893289789,9.5778611708726,-3.059440162525122,25.308229448880272,8.052271465024923
-2.435065977300588,19.053916827517497,7.14924514440825,-2.048927764133364,0.4078603568595235,0.5387727865862848,9.309867130912837,3.0695593150589016,-1.3732251094973278,-5.897646641567453,10.84788406955626,-3.118575773104661,23.622797719354597,4.46111914246601
-3.9596250381892286,19.51218423364616,4.360034743644127,-2.78852260401328,-0.4416095353682988,-0.102211632509665,6.478098980052641,1.8357195500219567,-0.8957935301880455,-4.342813447759809,8.223379408712145,-4.66200689805501,16.27289842301868,5.203539775086261
-4.2789877959355245,18.714429594162,-0.305323245892048,-1.5316562123836517,-1.3131750864176193,-1.185783177125446,2.5005803937125046,0.4764722713369261,-1.4841053082643616,-4.011680343159808,1.7112153856375314,-5.518371304100653,7.206053203187889,4.155869680326861
-1.0229220742679008,17.273538690025305,-3.2579363254043727,2.9717837131134046,-2.169356664143215,-1.95363890317362,-2.8125801802855364,-2.501511669684735,-2.6414488553286497,-4.195170924390191,-5.288271425541796,-6.668689063539354,1.1600961428566343,2.415528834823675
1.490253841605557,15.667758599662958,-2.048332492029463,4.31261661236146,-2.682151498732778,-1.818530540894682,-6.724485580456452,-2.559098829610252,-3.1906819215500883,-3.5772777074124376,-8.307092642253911,-5.7152270023096845,0.473188645318209,-0.2074735899267183
1.8048959534080429,13.75369731853865,2.6115437932418715,2.2887000851086503,-2.2207920625275195,-0.3966143456288814,-4.045615445277114,0.8126714791796734,-2.136823587469433,-1.2385027740013608,-5.206822025683564,-2.353953722648132,3.924122960766917,-4.789079171488369
2.577748049597915,11.054402774779216,7.601371640763033,1.482049513797415,-1.9490427038120524,0.8535439545064438,-0.6299945258814353,3.9249656619163633,0.4557207781706689,2.559808319485655,2.032524318854509,1.232770516189932,7.971550080959474,-5.045708742992151
2.731555104529195,7.406909859841779,9.9746696509999,0.5072312292687726,-2.238663580768284,1.338870002579361,1.7302251899754626,7.89396600262079,3.4066824353344574,6.334763224767478,8.602067920373111,5.621712923483775,9.22958884574704,-0.9470848599562824
1.8527008966590972,3.297265844189435,8.950368117914525,-0.5657389804874973,-2.385415128360639,0.7933533508554673,2.442625883536235,8.655848273123972,5.318994585870112,8.252688025827709,10.257239995304564,5.947294605580658,6.517606240740706,-0.6201843508196055
1.4061875253278082,-0.4509037434859424,5.793893435123796,-1.242777254864459,-2.890995319573492,-0.013444619107763,0.2806815021040559,5.416738486258939,5.644305008479128,7.414050291048909,6.180526963954817,1.4389632604374605,1.284280174714846,-3.169730839242189
-0.0886889602514082,-3.353500796856455,2.213020967991392,-4.909392262365493,-2.10251493811257,0.7752900904843794,-0.8354950407763151,2.660817946580203,4.955013287395771,4.575311343051872,-0.8102806469377324,-1.834064945435892,-3.725260547442087,-7.860691045597298
-3.7522381339988993,-5.663031132232492,-0.9352192377149136,-11.676341292109116,-0.5446512913284349,2.23708953942846,0.2661707172109545,-0.6926374086840861,4.259248103901071,1.6561680727618793,-6.633250427421752,-5.0259570507273486,-6.506013049476307,-16.386938920952716
-5.657830450828087,-8.066288553346075,-3.60091125877898,-14.512454338986396,-0.3640869550474191,2.717356359151283,1.4297623918170472,-2.255133819380072,4.097052175116984,0.3681980762332459,-8.816798120583769,-5.628776941132537,-6.9983553311745545,-18.88374326225014
-3.8888523470855834,-10.925686775987124,-5.740495798188336,-13.684875525148232,-0.1762805739939009,1.571159306606436,1.4131822507943252,-1.1748423091924096,4.252653105408766,1.1043561791558,-7.6782377766017715,-2.3742399515803143,-6.625144955246638,-15.054252108791642
-1.045918889842636,-13.795656402833549,-6.959040835747846,-10.451492349100858,-0.6006449550092418,-1.0665863708274403,0.2462405120074025,-0.8557737500890878,4.193035543586228,2.955863399127667,-5.285988050266793,-1.1709766063059568,-6.772607591496255,-11.03955224383974
3.768665276355692,-15.73769886711078,-6.971537195442936,-3.125338376023824,-1.31506133908998,-3.732941522336252,-1.7550323250943596,-0.5416604464685577,3.6495589131158734,4.643826377443977,-3.5260243902292245,-1.252851701658059,-7.690046133411159,-4.610989093768698
6.571185500058286,-16.177682405305163,-6.157866887963456,0.3040632339066753,-0.8187404618992062,-3.9313722890835,-2.538172514666167,-0.5553575409014577,2.7925659403280045,5.401266353583873,-2.9823622211375094,-1.3485353709703922,-8.691859644318374,-2.6725909404903434
3.9240919218010126,-15.4599249559364,-5.406271137964248,-0.3889506792476955,-0.5101662242255927,-1.5346492312289568,-1.1884181199033703,-1.4152148651810994,1.9880207418762588,5.154450828504373,-3.198883613906641,-2.4906363496726374,-9.150255693730289,-6.374289965223238
1.159410503547091,-14.50896057637252,-5.349638047806682,-0.4983945328472058,-0.5443304906350421,0.8001134089864873,-0.0316699313830927,-2.424244490941618,1.484459025763046,4.215939914124897,-3.564907896933773,-2.880723439190281,-9.09104402733704,-8.35230982891993
-1.523497552276972,-13.928503622619564,-5.842697741966711,-1.83391906829988,-0.512719255749374,2.716509989612204,0.9454669387461486,-3.862184910697006,1.2726610198857564,3.0340430533437885,-3.827431410175445,-2.530462612662057,-8.896536878836605,-10.34021743259097
-2.8953461629626585,-13.494717773172312,-6.250371712567614,-2.3291711908051966,-0.5493434183001116,2.758886315711514,1.6184375622785192,-4.9439555491381375,1.1193949645925978,2.0982296679761925,-3.999892945585149,-2.7070927163727148,-8.728136341527051,-10.911457324302832
-1.146056868349277,-12.620256937211048,-6.196457244255753,-1.4928051882489517,-0.3010687957879389,0.7650743435441119,1.5564210223535715,-5.576465912238448,0.7317619735064299,1.6902866083158614,-4.1286410308530765,-3.0903227432726386,-8.46818821113683,-8.893526395411484
-0.24534903773839,-11.301957906930014,-5.932428146682612,-1.706199740767936,-0.255048486888038,-0.2409346863685299,0.9281981653803546,-6.56125884032105,0.0297677720916871,1.498646591442692,-4.273476192400549,-3.214087382978424,-8.161147307896867,-8.713022693816699
-0.4508641170757408,-10.450007361404635,-5.946740126091197,-2.4373885944447307,-0.664710158387653,-1.016533443599097,-0.9819411693611022,-7.720213806669906,-0.6409580377935726,0.6810656056077915,-4.552232309999088,-3.204036809647926,-8.242517640784053,-9.83612491825804
-0.7475319993423932,-11.057279328096648,-6.292770754941587,-2.9895577973596947,-1.2038131569377255,-1.1233785535646823,-2.7835548792636717,-8.116336384301105,-0.6640045565394157,-1.2670310916208924,-4.9902478297998885,-2.8923303141139347,-9.141024946213603,-9.644485770701955
-1.0925899598419728,-12.911278921977246,-6.413519369029359,-3.633520800897369,-1.6546643168740307,-0.0986678924197344,-2.7936753456641275,-7.772331645551157,0.2682897369618235,-3.542760973316687,-5.313551053586656,-2.1877797726782715,-10.661607450403093,-8.75290668028876
-0.2121656823994591,-14.202699552495142,-5.687849382401973,-4.180715181734983,-0.9459280207044206,-0.5083381330595097,-0.6453190497203941,-4.880861410452531,1.650876441838308,-4.234214300947703,-5.063711357031756,-1.069944850487483,-11.853570917386278,-5.854540665990767
1.7478130393238251,-12.695191950485508,-4.139645968122991,-4.546094899697652,0.4347917810621895,-1.147928192800259,3.0878392103472123,1.0023979790060744,2.3929145138373213,-1.9730721779207616,-4.058868140135743,0.5566249157597493,-11.553284716131245,-0.4058948398718773
2.8399910309421115,-7.6617854908035135,-2.5635713419094994,-4.313152656095755,1.3572015617333464,-1.2417781261601506,4.886095777784315,3.254318285545112,1.7684268140065438,2.3952508334140195,-2.7122875062773124,1.023387101617468,-9.161749668843878,0.9400444630077812
2.181037935982724,-0.9327920955179944,-1.9075804316878644,-3.350033464614359,1.870934442419328,-1.3164662576962292,2.516526864278482,1.952922958555808,0.1974423758477401,5.998470886635101,-1.77727731772603,0.2229676919300631,-5.126373050666166,-1.852955271673836
0.3261177891843959,4.003417420195515,-2.484985370986619,-3.1508005548108806,0.8176925810457928,0.3050889809829464,-0.85312003847419,-1.7084924093335492,-1.052907194710242,6.167100057463413,-1.7236720265860654,-2.039740653206937,-0.9048237289028817,-6.868364321759765
-2.333862908930237,4.319441178461741,-3.740030677025272,-3.6731983417831136,-0.6535240672325245,2.2245578315709365,-3.478621682689454,-9.401508678899717,-1.079664453185325,2.712335326815724,-2.384905875119152,-6.310087826615742,1.5873628589101676,-15.772304360326231
-3.6923396454687136,-0.1542697255095397,-4.743684484536435,-4.1617540209621176,-0.5567269263064534,2.565539896963424,-3.731291697973244,-11.406050009526792,-0.2546904991727317,-1.9770040405158724,-3.2060418309752725,-7.47595164598142,0.9365314988614272,-18.287620110193085
-2.582721933119151,-6.791719471379015,-4.925243200309274,-4.927977058074582,0.6650565880824594,1.8583700889875168,-0.9360287400811512,-7.336382788835468,0.154215474290126,-5.111011832609149,-3.753694172261629,-5.381877566922822,-2.785303017243681,-13.770341723189656
-0.751734547799859,-11.971438715508375,-4.390666362476445,-4.92343198441249,3.3438956974343013,0.2688330024445003,0.7431764942846374,-3.369613563567223,-0.7093953882739665,-5.770229706637343,-3.939778737937802,-2.340766789894054,-7.719713593326859,-8.983265462089257
1.0524142718601632,-13.40033048264619,-3.62414504833101,-4.003834148049996,6.092577839320713,-0.9830514686132424,0.82217659206962,2.7303124063935305,-2.4136237840043666,-5.131594909018439,-3.844336219281717,2.9080389083024354,-11.115234129180614,-1.446698794130321
1.666985061532185,-11.25094154297446,-2.938833556910593,-3.522816842813606,6.529393929265923,-0.8038233245960849,0.3199736541011623,5.029255113377227,-3.679963296100347,-4.749395522986248,-3.4855941519422142,5.274372088267773,-11.029125991356652,2.175282991334533
0.4956569819909509,-7.479855363834368,-2.2115033694501456,-3.257417731957378,5.383605856171916,0.0499109505439239,-0.709485603073935,2.475311516722765,-3.6325607264194577,-4.930926178655779,-2.8263218701359474,4.311126794108257,-7.611467253047777,0.7420532290830693
-0.4983716835232956,-4.158485475521468,-1.1119027473448837,-2.5379993238342395,4.060981211747456,0.7926559366953875,-0.3302135991913162,2.258971174357545,-2.564502399966007,-4.839291536192775,-1.9194824477912,4.4187896760308965,-2.920082676485228,1.6895296402917406
-0.5702823547077331,-2.229870797665142,0.440079582961526,-1.5418477951330771,3.2857074026917297,0.7393016986787777,0.5367413864952089,2.957362191680698,-1.5390696572118792,-3.8583460273976566,-0.9492584009317158,4.4243100925867,0.6061308302670452,3.3757892659253765
0.2342328669978572,-1.4392691552076735,2.071636594711377,-0.1555522060888094,3.5944795641819334,-0.2761705282143581,0.8848410889421554,3.4171814312629127,-1.3586697063198283,-2.430951211627669,-0.1333321694344587,4.461414120546685,1.8027866643843176,4.624749607408552
1.6940445809029467,-1.0621098721588051,3.260093639356425,1.7296961127669606,4.200729985983334,-1.4802258942668447,1.279620058631729,4.678444540619698,-1.9394862513499584,-1.4296573149367786,0.3751641339849758,5.0896425634045706,1.3383562104568911,6.413968641590668
2.663139751694968,-0.569275042954521,3.894517913892644,3.140119222116821,3.7546480128333455,-2.3441495798219325,1.1376907725825325,4.81789626054979,-2.5685401961187893,-0.9812842813050936,0.5457540928580844,5.091204257819961,0.897205598619319,7.148853169584285
3.21938465396926,0.1993559717175994,4.500791697456338,4.06122517292131,2.74260585005573,-2.784848202357562,1.199996741881002,3.84150297870076,-2.6577119170349413,-0.3109678832513554,0.5463560984691558,4.643455927298479,1.7043514058376532,6.817106239819785
2.9509295510201543,1.1363518115622109,5.7380886185143165,3.886275704381236,2.440963664275187,-1.8917604651361613,1.3263998270078865,3.4625783629576583,-2.2927432752255914,1.1092506495511776,0.7467707392884577,4.044818580461614,3.4712777147601925,6.552654345392518
1.7204482161189047,1.929369715733518,7.494739072437124,2.276184339484097,2.4511430627948183,0.1279557986847058,1.089366449312796,3.368794069858819,-2.181004025327063,2.483148515626977,1.4437255605382813,3.11102331504624,4.541319739863102,6.06250980499559
0.5061826089204972,2.147295189496589,8.52367036382789,1.133496701723123,2.0203279345903264,1.2111660156392712,0.8058895451468853,0.5008350450600495,-3.0705281373037607,2.13843320852925,2.404946302811137,-0.5110261955050354,3.265530963596712,3.1911767195797367
-1.7261100201203157,1.566533947849269,7.283781872841146,0.2896528751221814,0.1326917331886936,2.131981964793137,-0.5194308751446555,-5.153067386647695,-5.02953707979813,-0.6995833676957144,2.7853224345880854,-7.076696503831871,-0.2933026253101403,-2.13254614950011
-3.9618091763432433,0.5758567089780424,3.4879314077684604,-0.462747336703323,-3.1937473023292924,1.903349740538054,-2.2251680304218517,-7.7778376646446095,-7.112865690466643,-4.599403543403037,1.8168467361253773,-10.768399769962803,-3.8023950432175866,-5.285120135083115
-4.830178241713385,0.1180285118589949,-1.1287822386470443,-0.722673248833936,-5.000606599801945,0.1671504996817172,-3.370278429070828,-7.654858779968634,-7.813712839478953,-6.634235101938158,-0.2237849299899625,-11.802040921940469,-4.1599485172272,-6.449847500342427
-5.622860857323528,0.9360186886444416,-3.878337492917101,-2.0411107962448307,-3.916112089640862,0.6800618059942015,-3.852475874959809,-3.84930073121347,-6.17769061345046,-4.755247700198694,-1.8947942144074637,-10.366620147258784,-0.2219914367912299,-5.521209608558164
-5.49129701558622,2.720416836561367,-3.336990530848002,-4.414962599821386,-0.3392152328312252,1.575205540256646,-2.338645817035934,5.20653436589479,-2.775625100161225,0.2323232229038847,-1.7776062481880928,-4.98327301444234,5.618486751441152,-1.298172692000184
-3.120404733180526,4.130638009102651,-0.6454395042965881,-3.680707621111232,3.3882454431260647,1.93591119107622,1.001441004879419,9.03586870964692,0.4215432623953994,4.94984897322455,0.0615911368565793,-1.4249853524244356,8.883806555180946,1.5200321210658736
-0.1007016635942772,3.9596637443576,1.535890072059722,0.1750088140777747,2.5221213589052547,2.2436380010385504,3.4973533497099423,7.703918061867162,1.423821931987442,5.917757868593824,1.963438645039577,0.4944752834445845,6.734184395880826,3.1558860505173008
2.167838546581253,2.501099912922573,1.5687438087804413,3.763683253260393,-2.7281688817087053,-0.5105461389013172,3.3201984562734825,5.53555872592304,-0.1602613377720967,2.270077603796558,2.275433202508742,3.0447165216506185,0.7464935637442665,4.518034694505363
4.987883342683362,1.7299673248946252,0.3967144402255247,7.913139007101917,-9.150195810516148,-3.738049706297767,1.570711274034595,0.1440627634954534,-2.675925097744292,-3.4441775685437666,1.1077172546021483,5.012913136773938,-4.0392483528153456,4.562901617455516
5.241139839848209,3.834556703250801,0.5157334180063984,8.129274923903917,-12.857269285205636,-4.554239263218904,-1.5801123902344325,-0.4575977670887816,-3.6175005680197057,-6.989726743752961,0.3434871592335309,6.587686091773087,-3.27061480074509,4.96160658446616
2.830505937885774,9.13761153079762,3.323016067381509,3.470982732203231,-9.559435715415995,-3.3450098017354715,-3.761658555880848,4.411280593807843,-1.5201117568117706,-5.419801496931486,1.7630769853510913,7.742462211488195,3.006891159405062,5.556297562198878
3.414297875408068,15.17342709216194,7.473221375868468,1.7132587110977056,-2.612757693763533,0.2440528742684759,-1.3047221530840367,8.276133196170905,2.971161978170373,0.8178534504956243,5.170014520298839,8.548489525867634,10.443053097345429,6.460968989345734
3.167782166473016,17.90790210670197,9.864184450518543,1.8960761825330408,3.606972713336103,3.7546231583079215,1.036352249902798,12.998486638182166,7.604161290880386,8.086812306304878,8.44265839803407,8.995108653496748,14.126487379668005,8.018464189793207
1.925605776195328,14.448384238063715,8.276285301708816,2.1009312891017244,5.962161039302432,4.33835551037119,2.2814675087590524,14.2545050844469,10.069046074949206,11.95946976300045,9.443276456559772,7.879172100891403,12.523858970197155,7.556050263769071
1.71302883266583,5.382362419241384,3.1944237893855103,3.72224064334105,1.2320752932848298,2.165699060294867,2.687127928412692,10.874492355409457,9.4260437580331,10.245879508246013,7.877606393656607,5.089538190621281,8.231085508243357,5.0188947660536805
-2.486087305129802,-4.999727081472402,-2.677138104108708,1.563370202491296,-4.0912479380885465,-0.8198444126223823,-1.2836611261592974,8.61630080487472,6.555704962141451,4.5901858577587005,5.394711158702833,1.6094095329011744,5.294028350457655,1.9669102387650117
-6.708225408645234,-10.993767224817862,-6.495356279924353,-4.698048867276101,-7.062889764853352,-2.8725670361005986,-3.3616110615298096,6.277254871794453,3.5254222229101178,-0.6165478030957168,4.042567284216103,-2.861655605160897,5.84731854969335,-2.2051719772075784
-6.524651804955799,-8.986278084654789,-7.049019172467249,-6.135146550700329,-8.090716360726892,-2.95072144429583,-2.309281339311081,5.640865172763199,2.3042790907751143,-1.4559274616070512,4.628460640638868,-3.5200247253771964,8.901513268635785,-2.5448131889815784
-3.974912579603648,0.0677646824275082,-5.030187333926627,-3.4076604799287566,-3.786295915725419,-1.1610443133385533,-0.8357311490011416,7.767412655671412,3.553212070898568,2.4739332764565214,6.3282225970419255,0.2283026654722887,11.76800726873073,1.547954531755784
0.5981352643813609,10.925406615157032,-2.0961469631849736,1.0292573235781273,-0.9139810434461676,0.6895285641386799,3.710181215826356,8.554283640473376,6.231704077836103,7.660632879305488,7.595512601065403,2.642810662011453,12.343055218664958,4.877823371942361
5.193604700958615,17.133724630325524,0.2623836034409867,9.037884080232889,-0.7784462583293565,1.500381273787874,5.623073128339939,8.629274640652628,8.37096061785388,9.481801497505929,7.442910865237899,4.806127040748114,10.31487852636874,8.6147247901606
5.662470164285224,15.039738426661144,1.3579521976604232,10.589420226720756,0.140593560291856,1.303049388556371,3.2109210285663554,7.197920761459756,8.548298675986608,6.047737039495126,6.131129676382793,4.746962733334457,6.811380519181484,9.12438644358112
2.6875933385934,6.082976983071311,1.364836010168685,4.994108451522818,-1.9789314440722885,0.3984245140491647,0.6884804256856769,3.4335235704539517,6.915754796247816,-0.1911323929915545,4.857329386505121,1.2956261646275875,3.32328395256361,5.269069323364565
-0.0462050427394211,-4.248991232919831,0.965411058608971,0.5418006937549348,-2.6544372287707843,-0.692492916791346,-3.1517333204404574,0.8463159871027022,4.876620783902528,-4.547359834372867,4.6640422416488585,0.8467770064907779,0.8558339321559467,3.5111671210529587
-1.9701991238702237,-10.14730270320127,0.778043655935281,-5.037382144778695,-0.983336750969469,-1.4395697153098226,-4.702626746001037,-0.8680376278550845,3.696128468127702,-4.091710402231826,5.318278148741349,2.887903680104167,-0.3747594871698014,2.9005214582167342
-1.999679466347953,-9.298366003794026,0.8955332580104889,-6.153683922342043,-0.4922863514756783,-1.3828754136335302,-2.21914888753142,-1.4210671426008112,3.391675626702905,0.0154748044343797,5.142896186358726,4.109095233586407,-0.8337819368693555,2.6040949716528456
-0.2950447736085165,-4.0985390304643445,0.9494833124821564,-1.2308032982761747,1.974196340809424,-0.5293957703404412,0.0431613452777801,-0.0092339701223171,3.0005561779976286,3.852112528410288,2.289142576817273,5.618757037844552,-1.2876721474679131,3.756122070333973
-0.1185892051363485,0.4998335570320638,0.7500018539638074,1.1636855093529654,3.948323966546136,1.0004217249338971,1.27184155407637,-0.2951940961532502,1.898308845515732,4.316940348470686,-3.2988596827626413,5.116856198291704,-2.26217660778396,2.659258570092305
-1.6096460809935536,0.7583023782960545,0.8778437748830505,2.51175398778442,4.740540384152735,3.181148410411643,0.9013390345872416,-2.1306812689877552,0.7049618339233206,1.6068102153290802,-8.991574255290763,2.046022152231401,-3.63130136977343,-0.6977478628227668
-2.73978725836818,-3.322635403514867,2.418416049980181,3.4145121778560585,5.8248301500609845,4.164268751444004,-1.0306552896856551,-2.9838997252038237,0.7355334971854326,-1.4831340898294505,-10.928851896866815,1.6103620095694644,-4.701358842353233,-1.539615395924561
-2.593419866062309,-8.410657653386401,5.8001693333708815,2.44633872603718,5.130448407379304,2.8536103024138395,-1.871675594903196,-3.500961322921068,2.5182925050367846,-2.4191868997921766,-7.0780156297186,3.432941441439915,-4.802363369776664,-0.3670354091400817
-0.1843284468573026,-10.481923781146884,9.803734885343236,3.8526969501616,4.844367721963702,0.1324336918674136,-0.7505330604685927,-3.313138826207291,4.94693092987251,-1.1119104441749703,0.6504450321668447,5.301641840731652,-3.8865430064932553,1.9542716150526311
4.118476900948727,-7.474101294168912,11.98037257032847,7.49442355307567,4.799229820825055,-3.978662335448166,1.045074068240637,-2.033392429479299,6.035305357723917,0.4160786591474963,7.387010711265495,8.209126679470591,-2.542366537564538,6.389708219118285
5.779537510895322,-0.2276744436891817,10.462677314886763,8.343957012260296,3.5301514371093528,-6.172107713997369,2.253954583004053,-3.368146477838251,4.605975545697032,0.1873506048002724,8.898155232879011,7.569241015769593,-1.4386934270677916,8.027510781167251
3.018524864806768,8.348656521121189,5.64654199559379,6.930706828865395,2.2033974586145346,-4.2592505159228935,2.0258194411570245,-7.404373577104966,1.3139722941911458,-1.9349998112565776,4.832358313293982,2.837714710903349,-0.7706737895354792,6.646634805105723
-1.2557246416767591,14.813443115128631,0.0851650133620793,4.643190321587578,0.5060896517881459,-1.0714936836551112,0.6054129782362719,-9.59522472031342,-1.9400308955774044,-4.308645583171234,-1.2097861474303144,-0.7870200812784879,-0.254550658236937,5.492461891514356
-6.571815868118303,16.538842376328503,-3.470432682834076,0.5084531109721155,-1.5499553654954223,3.009959051000034,-0.3814823569198494,-10.545010132952434,-3.6291931370242274,-5.073381752544112,-4.817961949826156,-4.322129837288952,0.3872323574457681,3.438477509431375
-8.278686084786687,12.693807261231957,-4.145538844946593,-0.9432990485318976,-2.164370075702651,5.08225263313446,-0.4518271406188345,-10.865591695845229,-3.7734124594214578,-3.68030333623576,-4.311511014702347,-5.985463597617935,1.0182270777801996,2.317596468171917
-4.184264266493048,4.815099054602694,-3.2519018341913477,0.6134855960269174,-1.025974556470736,2.804915167973579,-0.2164036589376605,-9.692146397916174,-3.6796979652485575,-1.1759917071522563,-1.6366849296515475,-4.739357835573643,1.2010243946423105,2.5769205941288003
-0.3441207922929301,-3.5141387116144145,-2.689066813043848,1.5549375089885795,-2.129259119409658,0.1497921212477896,0.1999233376168775,-11.476825849948922,-4.591898161022343,0.7608498624663014,-0.128178993498615,-5.443543516018074,0.693595644996428,2.0975936291996407
3.6572637996159862,-8.292048697283933,-3.126729983006591,2.920752629180361,-3.8604267851708993,-2.228647603531954,-0.6592640741113618,-16.38422919475802,-6.519435223454089,1.0942785884152286,-1.45426398318752,-7.552903061711111,-0.2064663882142667,1.3792598352452274
5.961853658781994,-7.415875375594759,-3.7124151600647046,3.0855407552566647,-3.989423234572485,-3.122717263258864,-1.6734297121033284,-17.679821931078127,-8.29219987429845,0.0016572050053156,-4.510495273287432,-8.260234893132298,-0.8681827013280063,-0.0768362911009327
4.282758367444124,-2.058314346485396,-3.3671683896424263,1.4725977376293,-4.756758518209027,-0.9301325456214076,-0.924666082774118,-15.97437953876802,-8.736798293030873,-1.556796368762015,-6.921780269631686,-8.282257143256803,-0.9273548215191348,-2.611340114700766
4.166102618091845,4.160052313343279,-2.136082236276053,-0.0203964719934274,-2.217839465274268,1.0832957734032191,0.1542749198952231,-13.109389648787356,-7.823915682401612,-2.738871554944936,-7.36517466757077,-7.418541075394819,-0.7009943307119073,-5.2710520927021225
4.5659147358672,7.712421973443561,-1.1969289168754464,-1.9355027713353936,1.3981363220742176,2.273716280378614,2.016924216947738,-7.739693779472885,-6.657613949803569,-3.360720678533984,-6.463529031646431,-5.244067812659789,-0.950096305945916,-8.269173926212883
3.00816228211684,7.42166710649574,-1.684078055315748,-4.700730797003756,0.9157037459639912,2.2453008605682427,2.471086701468053,-6.490832383281489,-6.312304077688015,-3.700817795095844,-5.710494403217052,-5.6381922573983845,-2.1298846470639106,-10.02188263147879
1.2771970610773558,4.696938244830026,-3.67781546570642,-8.16307385054816,-0.7775119588353441,0.369961556587941,0.1711079187946419,-9.822660516947185,-6.733814149331629,-3.959911334068419,-5.845399536867284,-8.73452154678009,-3.852119917543707,-10.23582174199284
-1.7870576763451456,1.8297279148544088,-6.339453116105428,-11.90036327945906,-1.94929778442292,-0.8754185686592478,-1.248455403578131,-11.041326540429203,-6.926782945260655,-4.067415526300934,-6.376773038113409,-10.660252579504164,-5.2128105446997175,-10.460424197915538
-6.1362773944064894,0.0308189036168258,-8.840244530098929,-15.92697219941666,-1.954142742592155,-1.2759654117363517,-1.7011316628172444,-11.518239461711788,-6.279154110864639,-4.013705418815185,-6.502429726174299,-12.162474033984308,-5.797517458182437,-10.253036622494731
-6.671990362051665,-1.1429827428159918,-10.971804315357732,-16.377320540793104,0.4442747856481834,-0.8547770449254602,-0.2650730680927484,-9.826931649306522,-5.504447854410515,-4.147421706568316,-6.185737089198113,-12.402037422797813,-6.307508245018457,-10.143461360632116
-3.6420373204230816,-2.7661770361742803,-12.850651200916886,-12.73615983942842,3.911981248792368,0.2016674021912627,2.0632832720235674,-4.744686436224384,-5.923778369800143,-4.849174224787529,-6.153192496108481,-10.637570109249998,-7.898289944015804,-10.35525825102182
-1.9554718353000944,-5.1247920753935645,-14.19742365738971,-8.19766216587647,2.4406139074968936,-0.2885488466062371,0.4607054508353897,-0.8770899131180998,-7.660708458301784,-5.819017495057686,-6.912125655107065,-10.271070338101822,-10.644878161961012,-9.953683723380014
0.5122169078661951,-7.282731465364408,-14.102245701171132,-1.7122010464436224,-1.8710130076103175,-1.5324887847559756,-2.554565367129624,2.3365288081925826,-8.824843513418285,-5.930634620504247,-8.002507640459267,-11.02866901230211,-12.780196568007526,-9.098398977904752
1.771129551252553,-7.986865750070223,-11.6427231323538,1.77129930844953,-3.777982481002865,-2.211963869372384,-4.28660221673899,4.957544402444912,-7.01873977552275,-4.186311385007127,-8.386142814824032,-10.17388214963579,-11.930090641514344,-8.077628208912817
0.2492515248868128,-6.998024976894588,-6.853366434138088,1.4690595414694554,-4.598319481343513,-2.075863585011956,-4.145455094189761,6.075337195407845,-1.991292366140636,-1.0179939956420585,-7.552548822023176,-8.18980107502937,-7.529194973278367,-6.759966934282745
2.024399766769168,-5.501940770664506,-1.16576584640044,1.3826588529193324,0.3406115471383296,-0.0067436813256582,0.4570438871985635,6.228516948716144,3.363088412880737,1.534066381602516,-6.077730912187187,-5.774835844458259,-1.9832075035245535,-6.013735530143413
3.7943513763328833,-5.047356890754704,3.200616446665423,0.1359150210378221,6.879357585575686,2.1551474372295067,3.803618056120573,4.996188098268275,5.149313873555127,1.3465982176392668,-4.951317112416195,-2.495571713070877,1.0236690149152547,-5.941626370655204
2.60704000147376,-5.879186980601808,4.6322600262323474,-0.4832962760372217,7.23058048179353,2.363283716201748,2.59455305552987,4.973793167953466,2.065057538622952,-1.7406111740492651,-4.360360113216956,-0.2704354766748066,-0.1592798772487018,-5.303441447272584
1.0132035298224047,-6.320858675077346,3.3450474281235545,0.0115027346777055,5.126992637944692,1.420954896509501,0.6274600977033604,6.297752548997026,-3.020511525987791,-5.330640873468826,-3.283910591188615,0.7320063625234646,-3.420186460824196,-4.267817868428958
-1.9867451401862857,-4.103459974853436,1.401104904195976,0.7347964873893678,0.3151362654275774,0.3722153375407657,-0.7611877737310839,10.204212036412745,-5.272992641030142,-6.137047895742942,-0.4654065711364907,4.158985744733628,-4.702703965760771,-0.5385785069345101
-4.267235772691076,1.311865376905419,1.2574885989880418,2.311507416378484,-3.2474041700354745,0.8638929578569373,2.732548572539672,17.60748646608353,-2.033126880979435,-2.6327251353052423,4.117207483124084,9.771145365621871,-1.8507185703334008,6.367889932425799
-2.6026404579880698,7.598450984285757,3.827134899385789,3.4445715930795022,-0.7006787179443292,2.4390430794025217,7.956239362881933,20.52828315632387,4.876056172734998,3.582991534340664,8.765402023918448,12.528192041640292,3.2358835436277005,10.002321974024143
0.3124457615265181,10.9681396370503,7.682340553801279,4.130676593740601,2.379147912994033,2.9217306259512617,7.542085955021492,19.0200508430908,10.731791784503178,8.891320321182018,11.164023033701069,12.79096073446149,6.335639272233456,10.613566724959751
1.9484028422576585,9.121085680141332,10.24268725519817,4.013854340463522,4.44168143384241,1.0725826270314482,2.2569474087311843,14.45661179697338,11.834027945443983,10.31674992111943,10.18197503385041,10.636497175080878,4.9256807012836,8.521292206603912
2.7732552021288948,3.1385144601757027,9.998887665461492,2.720190004225309,3.6867289198356383,-3.465201168093577,-8.086838941714293,4.811847483360772,8.244374164618394,7.601609390417671,6.816922515063502,4.852528483580153,0.6196755453503968,2.112038046148149
1.1740717484928385,-3.417432953276208,7.71862681372129,1.701082868840889,-0.5985887967917874,-6.579631408978106,-14.709544690356845,0.7642221259353907,3.1906065169930766,3.1637698002104724,3.493645543942156,2.727335985559507,-2.285508106378339,0.103162035814038
-1.3986981355625845,-7.316826081470353,5.461100388626488,0.7925864347538352,-1.822624468044723,-5.216150275983534,-10.338241145675177,2.6454629480658536,0.1090281421826784,0.1765951000813803,2.332444174948055,4.357942018198591,-0.6999056789643348,2.5729343355959693
-1.41518210014388,-7.797945595172379,4.392098747201384,-0.3820546077145414,-0.4792127155411759,-1.2654173188524367,-2.3856071522005413,4.8518146355368605,0.1108770032954389,0.3622576964971813,3.7717421604475945,5.373813513600177,4.5864059840118685,4.922584181862767
-1.9954796417265723,-6.291020466611325,3.671711103412317,-1.5648652377848673,2.4976193007255327,4.5755920881878005,7.3942628565246995,9.900291016129932,1.8024056576307887,3.0890829441432714,6.499143792412301,7.370734249586041,9.763177774702989,9.09644527075511
-2.1653744912294672,-4.46763528065911,1.6071415524554986,-2.0164303337432896,6.191209710932598,7.70554140299818,12.135104742463271,10.71024342255302,3.0628971831729253,6.204595247400697,8.563255263801928,7.685720385407544,11.356857905803846,9.771611036036708
-0.0781975118672567,-2.80646873628989,-2.1381797486812246,-1.6268192600470972,4.607600202455204,4.949060548464163,6.762183309159181,6.430472918890949,2.8888886853740985,7.74416383502335,8.74977887925731,5.732294657291693,8.956520189361388,6.221666915673289
-0.5178279764187403,-0.9253479642829454,-5.674091177349709,-1.1767322209485724,0.5949751502003784,0.825929844951081,0.5696017211795248,2.90710880055362,1.827143164945696,7.1812291954816345,7.292465872519422,4.911881299088154,5.092155495563226,4.445277702722729
0.8959054501142452,1.1534003098895482,-6.404423471472093,-0.4643838756285112,-2.903423171152864,-3.349552062696723,-4.773838249350487,-1.6155711258937142,1.0480875696693062,5.442942038627166,5.547986709762448,4.5659189036776215,2.760377287823083,3.2407077147633374
3.818268849903368,2.5217037342223563,-3.4979945877410543,0.0960318506564137,-5.220048408766549,-5.404267311937852,-6.763697866406633,-3.0679738431341246,1.2039571976820724,3.937841273063661,4.923359320971521,4.8134591986785376,2.988471978248114,2.262816802429948
3.232500640141481,2.266441538232833,1.1550195335652944,0.3628527994662404,-2.735244814837884,-3.257350469444962,-2.700296854053011,-0.4304959065001092,2.071080839830032,3.495574433804393,5.778749274215628,6.219079389406043,4.41616511189298,2.441312355026307
3.461976146643274,0.6085442390114935,4.466624071361387,0.9554326236169092,1.0214351139969535,-1.0764746821507511,0.5997765405500303,1.462052377837126,3.025003288818027,3.960410419621781,7.056561554733428,6.613888820303619,4.884535629500995,-0.2582081639053674
1.347966748902087,-1.1301718577686444,4.694850126710918,1.7497309454296677,2.8650913778869684,-0.5045852518286837,2.0505389082325363,3.75524586743597,3.654472533196696,4.519300429408538,6.971323890945008,6.0997655018719295,3.376168794993617,-5.872942049847198
-2.465965675496343,-1.8136701042350007,2.6492977975889502,1.534316896085381,3.0218843650339453,-0.5065181773476792,2.180413327930299,4.200556705925751,3.898624927214733,4.328084927495496,4.357488158969339,4.414794269382619,0.6593200723780299,-8.593300643362253
-2.3638304608660743,-1.6581269035294426,0.6113073298048448,0.2811098263558294,0.5788287095435856,-1.0179323949411023,0.0661694160757677,1.909498951782332,3.749570379196939,2.993300009123203,-0.3184596811889406,1.0072063262353417,-1.6480781102660274,-8.932342341061492
-1.514959798474446,-1.9626578761327595,0.1859507840184804,-0.285234815018102,-1.9374084518180044,-0.583396484487455,-0.5779526559768811,0.6389201857787782,3.051813257088796,0.7525423865736656,-5.151139805866428,-1.2941006987191277,-2.5243567585847657,-8.061633454478756
0.928780181723287,-3.59774273659459,1.091697684640053,-0.3490084490461291,-2.440457723923676,2.212755937521952,0.5389034444789078,-0.3097594244680013,1.7464276751083077,-1.6312444980070993,-8.150397548013878,-2.581478580031156,-2.214640534016688,-4.765132811737242
3.120913903149507,-5.814766257229572,1.7551199953529704,-0.1497188897421207,-1.579397451812112,4.175482812226288,1.1359672719427627,-0.9427510888973754,0.2815355911348121,-3.2612422768818448,-8.697632311335141,-3.1753656340290464,-1.742134158543493,-3.719997229476902
0.7208302609491605,-6.684986522333432,0.8665087824782347,0.6657536885586736,-0.1633038375858752,3.382550929862976,1.1340681462504347,-0.6453074285091364,-0.4190844046136135,-3.681961140033224,-7.859981880963232,-2.392625909922827,-1.9155578591697235,-5.066605948995556
-3.2500069138013714,-4.8631818055366125,-1.5752305938333393,-0.1341263686960403,1.0290709285894069,1.924118538231529,0.0167587111979856,-0.9147796935575956,0.3783071041477654,-3.260519965069051,-7.269745759430464,-3.7073081093948175,-2.7361937074264944,-5.839008158219802
-8.404011963712438,-0.9753241448663488,-4.4116379969997865,-2.6533742161067333,1.0145483098063484,-1.1435312947445109,-2.0762620979386663,-1.588560217763117,2.471735732942591,-2.907369589183034,-7.549688353451515,-7.181592849963967,-3.546935650591223,-7.069082713296175
-10.410929095995876,2.7735521152304585,-6.196968076835205,-2.9923668882736565,-0.1133013770166225,-3.3963661950848305,-2.7795587694253285,-1.954456529843629,4.7033130338806615,-3.164051010277525,-7.6992585458884975,-7.285108708287075,-3.579169811340087,-6.001472676761569
-5.936248130588544,4.462290888213111,-5.966319927124388,-1.4192612717402258,-0.3804207007095461,-2.293191290436996,-1.5636109162342544,-2.2385022107764203,5.804210683985673,-3.4460866469199303,-6.018372664405575,-4.427934267544317,-2.432870709175141,-2.1148895534182928
0.2029109137763222,4.06115674457827,-3.5264303367068663,1.6793055199295668,-0.7140274949841618,-1.274147881763732,0.1478174443857501,-1.8446403145251729,5.352466531602261,-2.360544980674206,-1.7255562892164988,1.6740641255022957,-0.2910142354087668,3.284633668196053
8.008681277766224,3.298871579711616,0.5688199143787216,7.200575304831771,-1.113587241842941,0.0261559677467024,2.393667534175552,-0.6330145829544044,3.934703312570832,0.9041461689601108,4.160508840313696,12.365962377334563,2.0942249855022084,11.086032908296552
11.585164303541143,3.9729661465902097,5.159968603444256,8.817875711389016,-1.1171618482105226,1.4445290056502618,3.228050040777596,-0.6253739670689369,2.4143669696788805,5.331244163266078,9.401986067799925,15.962296710900436,3.6654990454507015,14.15765110360315
7.63779024292086,6.305535180596692,8.80748609015646,6.270841564949047,-3.086355758223332,1.0360075179720103,1.638764850072677,-1.793118711506175,1.119319380711033,8.34565759204925,12.008893299365823,12.088308853541914,3.6183487925868008,11.929735239405984
4.614574280911875,8.773208770068749,10.379813805130048,3.833094147185263,-4.235110077318408,0.751670232636091,-0.0588338768167363,-4.152194837299403,-0.2321622608017577,7.667598994771666,11.354644861357356,7.805982304143709,2.012433539487361,8.04061611173903
1.5075354051917542,9.387989413805016,9.62903649566941,0.0611808538819979,-3.763360003564872,1.1527761122602518,-2.245809773941501,-8.249075490446872,-1.9188542271690776,3.220743664752632,8.206700892451778,0.4098303114874205,-0.0968526219349712,0.5786258306444271
-0.6859371163962135,7.196825675048345,7.286587038495355,-0.7980090811160374,-3.0674352597821755,1.0978362018417005,-3.2956709832474087,-10.0140765577001,-3.741496812063275,-2.676087985629636,3.94849218669718,-2.392979544760507,-1.3473339801712712,-2.66632613832648
0.6049474273932434,2.848714539060793,4.5271017189257,2.057194473642117,-1.8117148548573272,0.9349416640253324,-1.483389790713475,-9.343132083822734,-5.241446095961543,-7.070757503378253,-0.20685703126491,0.613144770636797,-1.147150591718642,-0.9875003696405252
-1.442086270048759,-1.9174014855496608,2.2345855156428343,2.739911530555466,-2.668308356947466,0.4549607985962285,-0.1126108436606036,-8.558519970338223,-6.278652066088682,-8.529583277341196,-3.5220272153541217,-0.1734087299109183,-0.1837669623763673,-0.1464157945450813
-5.817769733708489,-5.23479349256268,0.689264204134517,2.2272690595422384,-5.706242747776905,-1.3840045045875766,1.3447937228900937,-6.722556739620957,-7.193739740561,-7.817797188177799,-5.673316810996852,-3.008433575308816,0.1892766744054341,1.765929443352387
-6.991780604141522,-5.912229268140308,-0.1728562868820944,2.2805868047376223,-7.72920747614782,-2.78943320735152,2.373797873262016,-5.896438785637673,-8.312915137899907,-6.720773145859056,-6.642933405793826,-5.297780942344751,-0.8206982028699628,2.2090937027852875
-5.273453619948214,-3.862554716117124,-0.3755200414328712,2.022668811447571,-5.822297124790011,-2.421511058810328,1.089322644191167,-6.404694974264234,-9.395268711028244,-6.332556215709268,-6.667298066460184,-8.419248194945958,-2.74816373831451,0.4253997850139357
-1.501507211967885,-0.111177486206742,0.112456716527248,3.9094566215857673,-1.828658948664008,-1.5381642169608367,0.4261934973816036,-5.432791990139292,-9.731808385650766,-6.4159959266385584,-6.139113207532212,-8.289943494164529,-4.339466921462197,-0.0637472173197008
4.178086766585735,3.684819794291656,1.0665607217970603,8.23286297844054,2.591424774923496,0.2800732308427402,0.0005802720801167,-3.41163259874664,-8.846824109146027,-6.166624362490317,-5.444689196023674,-4.466908806435745,-4.684206608949054,0.046610128774285
6.422197403323271,6.092429690847602,1.8767273140472511,8.677137626864726,5.209563025274487,1.6179762503136623,-0.6870144227595154,-2.186522770728057,-7.034948831084396,-5.316313379408271,-4.8576410052676735,-3.08224145146398,-3.910223917629402,0.5210146663270354
3.839343568975409,6.63592835519804,1.9102723463424525,5.4077972053849335,2.426999064918725,0.8344817932068688,-0.5696266089343909,-1.4179497558443244,-5.137220341934288,-4.387037218152113,-4.538214621419847,-3.431660115555134,-2.873445389681663,1.892554731607073
1.4499493455970067,5.85078045067111,1.0527893715768073,2.1117009663663517,-0.0483862519448011,0.0897852851287126,-0.6249586041803502,-1.1369785019817868,-3.798893141793883,-3.9922670760144143,-4.524656684928143,-4.209727057169864,-2.2896904445794317,2.3551486106299557
-0.9022180166546704,4.641308048974373,-0.1853112028918104,-2.496884511019253,-0.2138053820832803,-0.3279297988625336,-0.7763081496232647,-1.6910356076965074,-2.984730604602298,-4.109273287651277,-4.659094042656713,-6.581517705217737,-2.196990826203642,1.928858291969367
-2.263486788876073,3.5669490977948826,-1.1797426418580557,-4.338720491545563,0.3011736726191233,-0.3854890636687109,-0.5159996194278249,-1.113988441490805,-2.1926033303272714,-4.158747743483655,-4.620889198370496,-7.293578727973557,-2.154523261010139,1.4362927838739334
-1.5708113489156368,2.6789884515517697,-1.8062879635520703,-2.684575199756864,3.188675312961203,0.6721795620193269,0.0566168014039845,0.6052876914657813,-1.049560472696391,-3.742232774696113,-4.224795823574685,-6.276628627661853,-1.816505677383681,0.4910574362008686
-2.276485877088979,1.8701855818707316,-2.4822506400454394,-2.9027974484522674,5.013347000940913,1.4207917013919915,0.679447516659464,1.658068167180776,0.3473700557891739,-3.1330154252773674,-3.737731744010436,-6.2864428035004885,-1.2517906609371412,-0.1460549491302955
-4.607795997298943,1.1742285588413353,-3.55535454438969,-4.044011405510748,4.870943689200641,1.6552615155928971,1.4347927983690016,2.400504507106254,1.6085808357938447,-2.8979573883456453,-3.6950940423529097,-6.707397716067905,-0.75510102203922,-0.3852500932004855
-5.326062450273205,0.6703440765569013,-4.68719609132496,-4.379013603825699,4.8502635240136005,1.351163161275274,1.4792574386332284,2.12565489922965,2.4607213301279742,-3.024670946149982,-4.130642949457204,-6.143857215733757,-0.4252599440649902,-0.3637853089470647
-3.8936103221067495,0.2640090216573085,-4.9425235568462895,-4.661895256579451,4.578626526013232,0.2508334425763935,0.4967607294125433,0.4566163616217045,2.957176601502645,-2.5648230470077493,-3.984081522616137,-4.871512861031019,0.0379093906074103,0.1512312541407151
-0.6222443430001257,-0.2261849241503881,-3.605235324919541,-4.155529691357899,4.142014824900527,-0.7186083033901959,-0.4809797531445492,-0.2392108999727666,3.3586652244853354,-0.36687109760949,-1.6539247196149347,-1.0700808201587628,1.0983292783091798,2.420983449904312
5.225709619610986,-0.7527487594174147,-0.9863678937575244,-2.6850063718973645,3.7297258733078777,-1.85735816484516,-1.6806745331216764,-0.1151876809810445,3.870793586706029,3.6601281751282286,3.375704308366096,5.710690711857541,2.881707876482153,6.67371026178843
8.361115537164592,-1.013143426587071,1.5681257051719228,-2.3191777865287757,3.133776938154306,-2.07041810131616,-1.7551836813377688,0.2663236758421665,4.481554581103183,7.996555519088261,9.29592709593119,8.155391261599462,4.843392695337613,7.885121154651459
6.371292543862011,-0.915075803470316,2.5632026455245693,-2.998987436719861,2.276650416306361,-0.8611788252739087,-0.3298591188418129,1.407247227195684,4.999104344149785,10.39191788338546,12.69422203823214,6.266164557321703,5.991691890349344,6.033002710306599
3.6974544826571,-0.9958476136251732,1.421665922086433,-2.617835283050873,1.2912481527776294,-0.2046238428123671,0.3263497251355432,1.1826148824936495,5.233716254563632,9.554787572987394,11.113631241821423,1.7752368643192131,5.639806869957539,1.163481837605479
-0.4862989907733225,-2.106447553657361,-1.1551039661129607,-1.4979582989292397,-0.3716319196911617,0.8596953716361504,1.0255313476331074,-0.5049652919656795,5.170739092902593,6.175552332057649,5.327726118691743,-7.170851914005229,4.109974405706851,-8.131360000916091
-3.4565787338220755,-4.479430971910446,-3.8178648420952186,-1.4401457788194818,-2.1936747302815367,1.4646517245022808,1.0517624743143796,-1.0589906157410356,4.961294105565727,2.3294612955281906,-0.9342010633565964,-10.761568506870647,2.6396353828536405,-12.33892343553312
-1.916247953014264,-7.173730061137277,-5.631160381807717,-2.2194241166966724,-3.1247325933227126,0.5513461430995024,-0.18310284914659,-0.8412103400883904,4.6796390008830855,-0.2120079770542133,-3.897197492653177,-8.557793644517034,2.316677037583233,-11.271117209783643
-1.4304235849110438,-8.696185064113408,-6.642736283746359,-3.956018222080585,-2.8255052416349065,0.5652005951466678,-0.1025902926334789,-0.624828981019939,4.061704062537842,-1.2174967456377883,-2.821387891433119,-6.024183206185803,2.8701368763035475,-9.717747823792166
-2.048605502957184,-8.366225812935227,-7.484258268765245,-7.054361466138195,-0.9023723496320396,-0.0125546152909814,-0.4317099206126543,0.0286991314482958,2.596994314557918,-1.7029253811664375,-0.4357704576198102,-0.8038731010827483,2.5780438266338024,-5.458803141472686
-1.4512671182507086,-7.052063224963803,-8.414057746807316,-8.189277539315627,1.2322735620337295,-1.1451621982015157,-1.115191059248633,0.2539769116092505,0.0893062807919875,-2.533727915120977,-0.2651539387152866,1.304119887762668,-0.2670400423212413,-3.645846646208588
-1.3983026643910252,-6.409145680996517,-8.769108509262935,-7.272565376877064,1.9195147430015085,-0.9592560250045292,-0.6313482073208219,-0.0216616028108699,-2.7594256070404413,-3.389742418387982,-3.285138267797436,-0.4668313917490452,-5.444419250924796,-4.879006517482015
-0.4967033637122646,-7.2731066213943905,-7.473114361569543,-5.6194494737852665,0.1499784772634351,-0.9181403627023011,-0.7410130140989665,2.487358586984611,-4.459376170015872,-3.121303143896114,-6.990691427465606,-0.1640240759058761,-10.309973289450909,-3.652537064982469
2.7665364502778087,-8.79548778005369,-4.251380958912705,-2.4001130023623207,-2.6372592056548507,0.0671288495754478,0.542133110291242,7.855008313797882,-3.754398308213098,-1.082477819884673,-7.706130719483497,0.8684560835531502,-11.539997464853542,-1.086102267437404
4.540880595910289,-9.21847314876112,-0.4016838428009919,-0.92536933834078,-4.136091040980335,1.5921605364017417,2.403430070883561,10.81940902900222,-0.8273496145925776,1.952347718084212,-3.954391605230171,2.499671772016234,-7.835805090748465,1.0806175901867214
3.1905958138273043,-7.548410580297201,1.8150557135675456,-1.427906392002659,-3.684181778041768,1.4642215240067304,1.9946292077370051,11.800170465532936,2.4739226836230728,4.252777904374341,2.217410126099253,5.585438730612112,-1.176340345929276,3.5480253321630517
1.908700202303758,-4.498878025468684,0.9142972155400172,-2.480943372843883,-0.3257906355876239,0.5997542574788945,0.9254426443608504,9.156445877134878,3.854574381003289,4.583536867460452,7.075094635908869,5.843384217656044,4.66436589024346,4.001000513320124
-1.2230531784117924,-1.8236777871379672,-2.3583173824339667,-4.961620201035106,2.9702651071678794,-0.8578933612570482,-1.781589002695824,1.4848646084655053,2.378754388145836,3.3071881306964315,8.383411673875571,3.2222303626638595,7.119011747826761,2.0608126097448967
-4.706920533849164,-0.7398652175194513,-5.268577000666397,-5.3512160561623965,3.097477908694513,-1.85164996925925,-3.852368846167255,-1.1916082990054786,-0.672844207811238,2.125325443558836,7.024687756031113,2.37752163438411,6.664804931340285,1.2730543820765172
-4.626756831652287,-0.9548716989229432,-5.092604493016893,-3.39796132902245,0.9225448391842876,-1.0232713069331472,-2.0627599107555445,0.9169755300299562,-2.7231010337310693,2.6640070267175417,5.776471069308144,2.596368488781436,5.891652257068586,1.1689586932301463
-3.9627005097643058,-1.1272398517082252,-1.3345351278722148,-1.7711412533985365,-2.59616960572767,0.2209329638932632,0.6703876107526129,5.266396915670625,-1.900846952724464,5.103366251350167,6.644397341129945,5.534591442833732,6.829616319296747,2.7121631971271034
-2.5988178990084,-0.1988793351358708,3.749911199443858,0.345564305840971,-5.13453522111317,1.195791374561872,4.1589145277113895,14.224222554103088,1.5228581116935516,8.002643406974357,9.281548826381652,12.26065969002479,9.156971390180304,6.712455099409345
0.1158606334766109,1.6850879767415563,6.90791953905412,2.0097499248612665,-4.5488154928373,1.2409054311553,5.505087269209462,15.9997301604962,5.416543259629464,9.479531077353442,11.71696862244636,14.44017134105756,10.885240535837028,7.859524826601062
1.2689946737640687,3.4263641761985184,6.539902387636744,2.852205164335304,-2.005097723569751,0.1066425584183585,2.32524408247184,10.005669642169254,7.463179688836419,8.781787775345123,12.350559803117648,12.256691755712708,10.5636863902879,6.317586578963446
1.0296498845292397,4.0374787816246,4.00396614849501,5.439631359092317,0.0130620657280864,-0.581811908663225,-0.4816815587572992,3.951490335551537,6.77832545796619,6.924997099880727,11.178962650272696,9.098544018776256,8.610863372095537,3.43329190288957
1.8775476957359147,3.5334178865156503,2.4228812696513278,9.598634205772155,1.0210839458466865,-0.6676089565430605,-2.834160635294115,-4.905356099966712,4.207658390678205,5.78422195957549,9.273431839094656,3.128574334353828,6.505171272852834,-2.0146313935116624
2.247739506443613,2.960563916881995,3.989667142848333,11.383546635843974,1.325756536358583,-0.2786923468343727,-3.4430759095997203,-8.411413983296866,1.2801727857664955,6.326909391712263,7.364953456671174,1.2799399958657105,4.967014834888516,-3.4282674466873457
1.7603386288344576,3.634871101104608,8.078075340223819,10.992923101443456,1.1928662930855694,0.4429862753660207,-1.2024179096983478,-5.154299665292191,-1.073644094998258,7.526981008125091,5.138652772848076,4.178158193109421,3.3036460307716027,-0.4394080922154439
2.7870633626614856,6.185913004274255,11.76070608787238,9.708058641365762,2.225925508335012,0.2895903584120716,-1.510636191338025,-5.572566899317922,-2.889694907315345,7.069481909382745,1.91398646880684,4.519850439272358,0.6525916118941382,1.1623222180503543
1.7853008858113957,10.009085472018086,12.231167330859094,6.658416269908469,3.834924915987716,-0.2435439119362925,-3.5612207148284853,-7.772336076698509,-4.478944178877327,3.4371040005153333,-2.1213937191648,3.77189593299348,-2.4268690083610807,2.787080275477889
-0.4401875973380623,13.420069675853073,9.008943544559967,5.182432768110524,3.838107676777808,-0.6745419327211848,-4.898316200756272,-8.219314598063997,-5.577979500239408,-2.396391948930983,-5.520394556536559,2.224761815470696,-4.081343398425048,2.4311987519688936
-0.8307117855260536,14.473387929945789,4.104275645841497,5.496080896278315,3.134877756662528,-0.9477969056904394,-4.885230828688838,-8.335072687957224,-5.33266659389119,-7.305533550838902,-6.567797583925554,-1.2765874490377502,-3.148580118111568,-0.915719050729116
-2.266193851718956,12.083141534397257,0.1845664109857878,4.579276559161928,2.728527703847821,-0.2819364157056588,-0.8569171334688055,-3.916027930441969,-3.199756218602744,-8.33040718379695,-4.810163668101211,-1.4904223067144398,-0.8734421655479565,-0.9193795101055656
-2.488893351045828,6.847261366347311,-1.5053290264350991,3.1415071368135243,2.7181545947283348,0.5389388303944582,5.704449062913733,5.739052119089839,0.1753654037240224,-5.078349822735049,-1.6940136073480616,1.6130624057965754,-0.1981630420528404,1.998319990529594
-0.6040527167640576,0.9557714705710936,-1.700559486405167,2.2603449358379426,3.2493322667664626,1.0576534708138947,9.76227482003296,9.512057859586006,3.1215399073870973,-0.1087076593216149,0.3854916020767263,2.919215289755354,-2.94026925309527,3.603285691642855
0.3558814138963428,-2.982729497754603,-1.929774967879524,1.6134402512934034,2.212920844785703,1.3010945233062223,8.88202770382442,7.773223932255072,4.165936530367075,3.071103873955754,-0.0769404111400784,3.336984055924094,-7.591371324187573,4.950856408685029
1.4007465185395822,-3.562868452627613,-2.9190083731873,1.3371665722907171,-1.5655382043973076,0.5844827691508216,4.116728668412359,5.84622528558208,3.2348598735614797,2.665075805043262,-2.502624895274881,2.193752046216188,-10.177832496792696,3.919473308174888
2.479905000009325,-1.4962689620358844,-4.070929393490246,1.5968635832669331,-7.077249260581112,-0.0817176559561828,-2.017706599107268,1.4012020751559566,1.6661149602091356,-0.3358164455997467,-4.728988112677804,-1.4958041941611098,-7.7219097998847985,-0.3154117850956047
2.1700814045924366,0.9633554150901632,-4.294391357451048,0.0031296371639189,-10.769519263279104,-0.3992509131270263,-5.818352941933415,-0.276108666029478,0.9603860930919694,-3.378062001069509,-4.8372017540995245,-3.9629348206054096,-1.1878906601088914,-2.984598700436828
1.5477436453694573,1.6933353707844103,-3.2046073532140014,-3.5722244996367887,-10.05906284114184,-0.5117343617678247,-4.823600072963449,1.5411409937442826,1.4260045584607184,-4.553475217380751,-2.798624412459389,-5.528694921395662,4.9027519366419625,-4.614504659486361
0.8742410642848328,0.1193923170369828,-1.5707794428874422,-6.658319867192018,-6.686151029625906,0.2467710632206659,-0.8700100194281337,0.8265700926985726,1.998915010393972,-3.852779129047661,-0.573144113039973,-7.376017082437394,5.976603610070214,-6.485758771422235
-0.5352814207473229,-2.7851175902679017,-0.7493088415466218,-9.737119853588885,-2.386598287038045,0.5576110515503017,1.7717811750577597,-1.248860433719072,1.394496476481322,-2.6885431776659345,-0.5852048118816526,-8.797073941266683,0.9852246945090144,-7.729456976769481
-1.799070111892909,-5.752463923632433,-1.7129423785476376,-10.363853764224451,0.133537383559857,0.2949480844451603,2.326724106869849,-2.4315077719448666,-0.5371885436379671,-2.5089817820784504,-3.8245761785108527,-9.592980901150275,-6.965994011776672,-8.698248927602048
-2.737689958528032,-8.350318233911707,-4.405430417280456,-7.873990755105124,-0.4504521778795323,-0.0161548030071695,0.7450900232617554,-3.47994712517561,-2.56837563461724,-3.802486834940368,-9.047642897333276,-9.686428855337894,-13.226933559094276,-9.31660195953616
-4.107069606429775,-10.79412448000238,-7.705464074963345,-6.583077219574623,-2.6726156704492903,-1.0598545581301615,-3.3189200727293784,-3.845174092301517,-3.189478341817221,-6.007926355771701,-13.58507157878836,-9.571253209377804,-14.979141115401546,-8.894895015284769
-6.157935838436448,-12.72605489243506,-9.896626843230536,-5.892151489649846,-4.129879802593683,-1.3427001484665306,-4.576705802840587,-3.216777561839959,-1.9823520712357665,-7.937563599990312,-15.026636386147288,-9.165799160001177,-12.6040653633043,-7.378097189980612
-6.570003169409468,-12.51983598383083,-9.453740538869113,-4.412393999069786,-3.815898755691969,-0.4915362134456383,-2.722569733356579,-3.06053764992574,0.035454577214125,-8.24942745538334,-12.562200613516382,-7.329441715557857,-8.400386358624814,-5.151134015311364
-4.405031341338834,-8.265621469729581,-5.894351092551688,-2.8402022323495992,-2.094036247799798,0.2606491920999817,-0.6113417865228175,-3.231061129152692,1.4055687473504577,-5.9763430880522606,-7.221564220173263,-4.033285097879735,-4.352485468842644,-2.0251649268853
-0.2485861757349867,0.1843086424713647,-0.2441327972834983,1.3296053696142245,2.067076292167381,1.4056523707476931,3.2324895379497294,-1.9543336674187168,1.6054309648256435,-1.2210219377257658,-1.1141123834083828,0.6786129286005137,-1.0670619440227256,1.314872859096592
7.166036805932252,10.106917003774925,5.349099153473276,8.375155585468088,5.938574095136791,1.7877902184529175,4.816279395360736,0.637951732366552,1.4835234233444226,4.39368387393921,3.6944946644804304,7.142167636842177,1.575347675747821,4.800648926422067
11.8191524944267,17.127126396667222,8.808993836460445,10.474283213444645,7.069256679369032,0.2944327544722143,2.621324200396657,0.5780001988610146,2.3005356507222814,8.232959840363037,6.017695361271308,8.322840254065635,3.3063258838049023,5.585475129567412
10.193660232151194,18.06483639893588,9.359721397274711,7.651724938224429,6.26059364160773,-1.40855129162268,0.2728162948701904,-2.112991353293018,4.213914413499197,8.187241254346532,5.778204161140593,3.67709944225134,3.360630376641893,3.153767071221771
7.234241002215236,13.136389205955538,7.831610863209903,4.294781875364592,3.6913587414444224,-2.250900346035158,-2.1124019333549664,-6.589568989170395,5.63586872456392,4.174500510473081,3.725192684274589,-0.8497016583929068,1.5032089719454689,0.9581495255102987
1.893755421198433,5.716481397929442,5.812055412976747,-1.3140115444105518,1.4745165420982709,-2.4812620104731784,-3.4423589443849627,-13.87257811367125,4.235619551574587,-1.7530912954493942,0.9247754401910696,-6.914985070556404,-1.1095851988314962,-1.7423579510454263
-2.673358718780994,-0.0755770715126118,4.407279708225701,-3.1615892046708325,1.4542676656984024,-1.209857198310058,-2.2901554609178363,-15.393607275510451,-1.045956096970258,-6.926097859422043,-1.6879646497704923,-8.834378988420966,-2.487600790577972,-2.550420814987001
-2.010182622842634,-2.017112146999807,3.6544635213844,-0.3757357215169427,3.233824936444301,0.6360940250133631,-0.4980937873677167,-10.61459500722261,-8.602278782084,-9.887575656889569,-3.5604453674556,-5.323996169194264,-1.5426759023163186,-0.6963262349143243
-1.574809911124666,-0.7824139368467513,2.914824397480288,0.2609782656317091,5.201509036208788,0.3104698869830931,0.3674170589452276,-5.5060397001043295,-14.721508429191204,-10.920208361157393,-4.584614722234164,-4.388416585458067,0.6515874095777008,0.2401060193455948
-2.243260191247492,1.0728816544627762,1.6573335139977416,0.1569430638919286,6.028401092657743,0.0449729621856463,1.1477351282415666,1.982878353219858,-15.95035788212067,-10.984333982423324,-5.003823886556916,-4.599757263305332,1.533638498904338,0.968323987687256
-2.6425948093464937,1.0816309658780483,-0.147738436515624,-0.6516684952034548,5.245757616692712,0.4525420127297684,1.400449641530939,4.602156240051544,-11.572240102164756,-10.36726207138372,-5.184331195646564,-4.646294691275112,-0.6730843887766014,0.3819215636199033
-5.250094971172884,-1.6147413867790874,-2.2084474464406867,-3.2218676204799976,2.439153448187945,0.707772847638333,0.909940218329464,1.12381087604417,-4.240355939303527,-8.50627605337354,-5.344294112254829,-5.766752824391133,-5.117098226692178,-2.1979390822835296
-9.106543256085038,-5.968115009172379,-4.2280170444782925,-4.423426565352151,-1.0029143965914864,2.9316517643654865,1.294652082275134,0.0158700929351945,1.827075364560528,-5.055626734935913,-5.433239506351583,-5.543347998987106,-8.76969878825048,-4.380596698178938
-11.845747874096649,-9.856023459756614,-5.945546979700737,-4.462053598586971,-4.45309550655315,4.302708023665839,1.7251202496488256,-0.491393528951475,3.732528913003932,-0.8764537200499944,-5.282301778067506,-3.9997692359304113,-8.968210256635246,-6.585113296323448
-11.02474329084094,-11.39671188801833,-6.98097702639609,-3.735261048867367,-6.406897076587995,2.9376584424539027,1.4641222272684098,-0.9499061190378906,1.6317459167261177,2.259196795121284,-4.855961905064987,-2.7756182177625783,-5.777801579412312,-6.102289894777462
-5.852871880813246,-9.957450780461272,-6.848444803805478,-1.5711444112441293,-5.222644390546302,0.8510389713827828,1.0565576234082226,-0.1050239730808808,-1.9224502745173595,3.039474201969938,-4.263616593085317,-1.4313960707092095,-1.907592706512105,-2.252352766706933
1.6770420045575474,-6.306546164551037,-5.2607926238315486,0.0605543215013704,-3.757577461476432,-1.9360919017396443,-0.2679222232388765,-1.9909122634054957,-4.247270236480745,1.705551833731306,-3.4430147685218344,1.061373548428558,-0.1591971886998635,0.3348473832376485
10.901125860022669,-1.9117314084877532,-2.435530667350463,1.2192375760178813,-2.008563767315236,-4.39786894699944,-2.3280130820628093,-6.543601786114689,-4.402719439906377,-0.1748652109736213,-1.9148554395194424,4.597829939721436,-0.786783143706657,2.3117417932695874
15.27399408534221,2.0229244809222564,0.9379324612128812,1.982912759082354,-0.1153765975981699,-4.224492837846633,-3.179873561652659,-8.003456755544905,-3.27341658705825,-0.973991594737754,0.9026404478530594,6.461361360549057,-1.326307941920959,3.504066423477336
12.965434223019576,5.034764996691365,4.052393516546658,1.871419737180145,-0.3410260790443614,-2.3051139186509904,-2.408060255768404,-6.815964962593245,-2.218927631888618,-0.14091573573819,4.907371505901551,6.621484163428962,0.8716856350145008,2.997493545041336
11.755448585283885,7.13008449174788,6.314146119887141,3.3526688886636618,-0.1936337677603059,-0.545619602820901,-0.9376570761403248,-5.147654589764572,-1.8322884715929604,1.62831388534687,8.821878400016203,6.129534627738439,5.804885282316832,5.372604655093251
9.85980831591196,8.206676339604314,7.38428793051321,6.431466698894458,0.8442946758128531,2.3076972574633925,1.3539548558647951,-1.8557294975100072,-1.909475941709161,3.0370578324382222,10.682872989483483,4.308869731388601,10.430586921490772,10.560504366674442
5.951508657351693,7.858758895663072,7.026077841448455,6.377750112947949,0.7811936472919696,4.263154275236795,2.7714973494307054,-0.6914811471387186,-2.300928620256059,2.9476883523246897,9.08743333031896,2.5139958246349905,11.162888336570404,10.471420390525385
2.5276349784729257,5.766440712844656,5.072560008079677,3.3781305053199677,1.0842395660826694,3.23579539234283,2.048801427729192,-2.017974945739584,-3.4307282727238544,0.8112681270813482,4.174201526268007,0.79216753349285,6.946065200390308,5.47723953624233
-4.118222181680236,2.19413835259752,1.655417192685718,-1.131935585352959,2.6240903576007204,1.7850825050201924,0.8532147702405021,-2.969189516950181,-5.786353122892137,-3.173459166253906,-2.462832966828273,-1.5971914081531795,0.0959501513904115,-1.0503681768085702
-13.891149177016777,-2.002948038491354,-2.5275977575192883,-8.225939103143075,3.5750014111494792,-1.3343765823422815,-0.6686692676824435,-4.457740925608903,-8.943602230672468,-8.011185124652457,-8.71463086892345,-4.354226451373302,-5.7093018919936185,-10.826507418864924
-16.47277433234855,-5.893449548298918,-6.270663975266757,-10.187907506573625,3.632130146711354,-4.680900098117866,-2.009279885676845,-3.396817927293933,-11.297029063257128,-12.077924458598773,-12.847487439475117,-3.840243326513884,-8.238020622828458,-12.324440927654292
-11.443549297811868,-8.927178266171211,-8.345541433626522,-6.424303896398824,2.831213559350545,-4.427220667957052,-1.867752325810201,0.798707240730661,-10.993335334810126,-13.70235152568705,-13.781544712854725,0.2845788240535687,-7.735089952653141,-4.372231161532197
-8.180900878531451,-10.82816561147581,-8.098927941413592,-3.743298411706198,0.0254551384111371,-2.4318060990466552,-1.036582281942913,6.241425737308185,-7.334644925282078,-12.008989877730926,-11.040294762183464,4.399709982519703,-5.604455652210959,1.2396432684657277
-2.5034402133687137,-11.128143446960904,-5.701775185841257,-0.390386187862771,-2.808723244124475,0.2902253615570792,-0.5035347012939273,13.895378312786915,-1.4080179562792523,-7.45981915759728,-4.930335265706844,9.361598434630224,-2.548678307124817,7.123034193635428
1.3359716268150987,-9.075190294394927,-1.897122342587636,1.538474056991732,-3.1167254780990965,2.7117934892972477,0.0012280546076809,17.210134003172676,4.611842823513712,-1.6027888214017594,3.074765648150162,11.639058378388052,1.7374894252196782,9.771829117928062
-0.6803937204500077,-4.31162512356434,2.4497646404619218,0.9442022670864088,-1.931967869558616,2.383404947998104,0.0749840756144888,15.558324827161476,8.872156672773144,3.8629236631219896,10.414800713343766,10.356301013226195,7.195585422497857,7.058667928466052
3.9122962729208632,2.237227800902531,6.5681085174710745,3.609840658761265,-0.6290406686788049,-0.0266452945032746,-0.365068964573059,13.7738673035142,10.825402565480148,8.013805945440481,14.460697498261936,10.07852607169596,12.242924258294693,8.855845023783003
9.911013249878703,8.330007474062768,9.68670776705602,8.996102259910302,0.0353644525076048,-1.6396586482196216,0.2445154460472841,10.20192283658857,11.161707544782132,10.938805691829174,14.015360585915149,9.824212813226412,14.530940046770098,14.102082110629706
9.811878223699464,11.646595987392004,10.978681506066494,10.573677328536334,-0.7181101935029199,-1.5941595617687505,1.221476516259623,8.307725289563672,10.99847378148482,13.208023902193275,10.16464515058891,7.480954310463008,13.12471573424216,14.56594198962956
7.533176215183906,11.397821242629275,9.877475883477132,8.935868285494584,-1.799815054214917,-0.0084728481260393,1.8072035163364355,8.832340009341467,11.080965022560804,15.127221321631367,5.674155074881583,3.512850725107453,9.791456911042305,11.468512742079604
1.8768962830371403,8.803673967667166,6.5914283247646495,5.508349033953337,-1.7196567228070991,3.1560129203717486,2.938080471536614,6.853407383999237,11.45125236933842,16.42283400255313,3.2303322597685167,-0.5595075172968634,7.740439419586039,6.219028848557888
-4.778530698314545,5.861628318923962,2.235967527307892,-1.0815696606632983,-0.7172975360865247,5.322970045104511,3.447085577582264,3.1836068503549755,11.52558417243361,16.518395528919612,3.743045673565135,-4.953089698275195,8.734906640079203,-2.700703349573387
-5.333723262405387,3.517353341009425,-1.74681705995944,-3.3532469071272275,0.2363754991985119,4.774451988728438,2.804820655239001,-0.5997580342591812,10.369448475066209,15.01829785105565,5.914752434931209,-6.27370644199485,11.331393303800638,-5.731084183853515
-1.2464450420681188,1.0696751968184124,-4.473325467590353,-0.8920499989161323,0.2907946711911551,2.326525802533469,1.9241056566165973,-5.218626907944736,7.157279667626376,11.9348197875138,7.360713816649767,-3.847501252605978,12.085189758560125,-2.3022135302443703
0.0900592936656781,-2.526100373333568,-5.988052597721978,-0.0012099296101098,-0.0563851413784572,-1.2985495557794315,-0.1854916964969518,-9.970586649951224,1.8380032679598937,7.592693468957587,6.431706448864192,-4.8362270095091295,8.708726337756346,-1.4166003781122305
-1.0913133783399211,-6.802190106964877,-6.752367152612621,0.9438882562251584,-0.4774905271565167,-5.150274626219807,-3.1732798979453625,-14.714894473587806,-4.335478951371584,2.5143970245782903,3.381697817996418,-8.649842353703681,2.2355973329492933,-1.0619721469201615
-2.7055919230048264,-9.469680971830408,-6.803763997610332,1.0338778038278424,-0.5601632296610534,-6.419906464020015,-4.88211741649477,-16.128893031338727,-9.055694831873584,-2.504236618229527,0.0446090611241345,-9.5142638982249,-3.81693065198786,-0.9530994333117476
-3.9463677500528447,-8.294687985338342,-5.524182219992731,-0.648739463711103,0.8402776997835439,-4.50387681019699,-5.3038942613532285,-13.626323049357117,-10.229376054243788,-6.335198131143663,-1.6335595006840862,-8.478197005359844,-6.417730630577445,-2.4140656119856114
-0.9825159171840652,-3.4751946360247388,-2.34142778682066,0.6049828462107965,1.800582042665379,-1.962819844362801,-5.162066032334142,-9.085465917179302,-7.511181939491138,-7.848700674913744,-0.970855939546894,-3.227845631540047,-5.316955602951083,-0.3281375416211284
5.203541636328587,1.941520222926286,2.307480246094002,4.575905085510963,2.319177631368511,1.110144270738704,-4.599246379822154,-1.4260310749680003,-2.7638364628358687,-6.610043024069753,1.2170925766749292,7.524973243637583,-2.7135896847544814,5.248828047481961
8.033090542800478,4.334251907965225,6.7619255615312,6.327508038644644,3.023619658362397,2.84956291002198,-3.2795100952701133,3.5918511314443475,1.21153929577423,-3.366317537186717,3.493405480949363,10.612370777928724,-0.9782409257148288,6.136324142175114
5.209652440956634,2.5807436205258085,9.00529727009365,6.506449017328869,2.1784352893322825,1.6439549609084327,-1.5281098071279977,5.491075086219516,2.7856548549640223,0.2713109706495231,4.828876894273037,6.014973867477685,-0.8133421222225365,2.836002436749312
0.5020040670831407,-0.888174816119232,7.958207464065367,4.934520786228017,2.239518436518536,0.5373592315542005,0.4279953057862522,7.396774362435582,2.6449987169212648,2.8613282204145207,4.947527358993597,1.165377001575983,-1.4056757092595262,-1.9059841744721275
-5.207523716135834,-2.116916357668486,4.181825875157244,0.5662538546786069,2.910278393157326,0.1322284014848741,3.787528252890544,7.791135274080317,2.935778221400227,4.069504880905328,4.056965393166877,-6.819857482878407,-1.8796135663747864,-9.81998924920268
-8.121360684695002,0.9850391601781894,-0.5011234919240906,-1.9559378103617413,2.484305805881934,0.1831154554755264,5.816448711808163,8.865009066112876,5.209629938159651,4.71629711887158,2.615800388656396,-8.669300235876667,-2.1715152839074108,-12.866812792953889
-5.171150656125755,6.810132876149339,-4.130789758500185,-2.7707521550600327,2.857793657670227,1.4343609709090628,5.911693872665295,10.833632963053317,9.071790639561158,5.927083242034598,1.4141805120092386,-2.987447314975683,-2.4702016450527537,-10.411827228989033
-1.843843547733714,11.27112988762974,-5.697952399221293,-4.412596748517887,2.062570683093894,2.4996352073935637,7.799647852122372,14.55019360509974,12.682026374255315,8.148278302099044,1.5072378520040957,0.7031644782111127,-2.269593076033857,-8.355642243605704
0.9045161575698296,10.93113909056342,-5.555278835692292,-5.966247505585686,0.4747365269362252,2.3530400213860294,9.227336513406309,20.77049766115189,14.437493375878518,10.809983593557348,3.530609376129007,4.68844859337394,-0.5995423134397981,-4.766375400348623
2.964431652845557,5.445794890554538,-4.980559656602367,-7.487707416947162,0.2513184623142646,1.394075365187426,7.760368421669462,21.90261918475821,14.133355154204908,12.756381063045753,6.793406214609661,5.817800731502349,2.497737285748656,-3.591462238771038
2.5474864193252795,-2.460281043555113,-5.20545042660757,-9.178636623074448,-0.5244813474674782,0.1253317382454121,3.9370349716936377,17.845592085657497,12.623771835823732,12.954259473948696,9.206452728948818,2.461536079721196,4.974001145552904,-5.762719237306516
0.844822798853182,-9.129047847566484,-6.534571109331523,-9.31322843523713,-0.3075945427047809,-0.8386960359619444,-2.514526091736295,11.029064345200329,10.614064243292177,10.95227929428438,8.557770750118067,0.1160507294251975,3.898307102982756,-7.1271510575325445
-0.4400669007532565,-12.339142066120274,-8.163045154263841,-7.802478062260842,0.3214002054623041,-1.1478594073448336,-10.870411542016235,-0.4510165492371301,7.991193974625446,6.950465503176588,4.27627268002712,-2.3617001390072736,-1.815337138890584,-8.808047661309233
-0.8272617423590549,-12.22931300091173,-8.856552143608951,-6.802069298014562,-0.7743488548762649,-0.845644722934466,-13.973639234261396,-5.4633418747382665,4.344731577093199,1.6547966598558617,-1.8886318134862563,-3.5752977445431493,-9.607144655845303,-9.139305653410911
-0.1075534376623119,-10.51526465195508,-7.99255486672277,-6.007908795108001,-1.2687603631265811,-0.8382140846977021,-10.038132864095507,-3.270649573629971,-0.0318315761782912,-3.907116241814407,-7.011619310105488,-2.5648552597993515,-14.533831831433844,-7.467050513296533
2.8282885048698203,-9.011841959739058,-6.104703776076548,-5.700596702164409,-3.007183659053076,-2.321262172298777,-6.296610709114048,-3.185277686816268,-3.869038130433495,-8.58534402730865,-9.06817359009338,-1.933660856606842,-13.005806619833436,-5.851401305702833
5.797181249256011,-8.636310103379685,-4.444496034780315,-6.336663757146875,-5.309054725881983,-4.822476193520057,-0.9481616539336551,-2.707907878891271,-5.780842562905093,-11.368743879658126,-8.228843348914808,-1.0627756739806908,-5.893880710454823,-3.715420121578207
6.064284097183746,-9.297674263949204,-3.9321561885632255,-6.28779494897503,-5.369097550273793,-5.870841611763909,3.287761635496527,-3.4207258614737013,-5.453543758222082,-11.702237424594074,-6.397344412051609,-0.7668094627786335,1.865036445313052,-2.4262167246261064
3.493842303825633,-10.288687034903916,-4.432594938022078,-5.711546011554098,-5.583191428005748,-3.842983124605527,2.838030029406839,-6.641533897097942,-4.001506149690044,-9.769509994560051,-5.534816474661966,-1.4632903382241076,5.0698895296833655,-2.343733182226076
-0.8243657890636595,-10.684655561388752,-4.989230817561634,-5.089311997742724,-4.984972492560873,0.5207841720405739,3.7214457907545935,-6.846707359205761,-3.1159790957926816,-6.575704803428209,-6.2012178148844725,-1.6989512352467584,2.324069603662167,-2.18074378548103
-5.241911678144141,-9.663237581895942,-4.74951441704394,-4.124377571726922,-3.616018782448605,6.782447203226505,4.828797392265684,-4.548484161416349,-3.7571713256623696,-3.6468032993280985,-7.368520973861251,-1.7625538480208538,-3.0875444100774416,-2.3672962726623066
-7.267995626650574,-6.912595646664727,-3.683794502072345,-3.533254991360961,-3.495149708808792,9.9563425240672,3.469340646118351,-4.436107115822418,-5.5199842399652255,-2.313145303959587,-7.448790221863305,-1.270543925456819,-6.220881210987443,-2.557272970301682
-6.251359350058495,-3.039510084167788,-2.4448893574267743,-3.3628616189861225,-3.1819881206687017,7.008373971929132,2.105810913600056,-5.794334962650466,-7.145039047840811,-2.8921949850159194,-5.615040064015915,0.0406452615993806,-4.725792429732522,-2.615505371366125
-5.012072546788741,0.4826573823472984,-1.564399126484716,-2.6397604999174025,-2.9516932841510317,2.4611757696523924,1.755647894223824,-7.504020693973231,-7.626208111635805,-4.372409400461734,-2.4295349080218216,1.4667345564304857,-0.6594000032789893,-1.9958690643060013
-4.683827560001923,2.130545543357883,-0.8050948227499077,-1.4780142913857874,-2.895483942041769,-3.3505364852675386,0.5880028296466374,-10.38204281184391,-6.924943703872373,-5.023535047579216,0.5864454238102326,3.1799464618795312,1.6021690717316943,-0.487674335126479
-3.776021374712628,1.4901621405174978,0.6875972651581606,0.6700073796469794,-2.37050131652317,-6.501652521915899,0.3267852253072539,-11.053109082488207,-5.769419466495606,-3.673133667221677,2.0264082662592102,4.665277214558361,-0.5968825851990402,1.8307116098569527
-2.4171599679083062,-0.2147689806546111,3.5700279972732147,4.066739275972607,-1.9507512789537336,-3.633649567380561,0.9779030304817826,-9.28860301204847,-4.870461922152998,-0.7230453522590494,1.494140273456367,5.782348859948804,-5.760819906998293,5.2309198512414365
-0.023039915303862,-0.8460117376031064,7.589878529257376,7.544433280815058,-0.5894385452333823,-0.4698667420471369,-1.363570649430372,-7.49109825438778,-4.319351827290774,1.9770591323914035,-0.2810570566026484,6.141294643476923,-9.455641085114353,7.11376371754341
4.9427346622084665,1.123062068333482,11.66435032452992,11.28105890570042,0.7199115523818289,2.0720975703262927,-3.4786443912703437,-4.86752009678513,-3.642633137579196,2.4353560204310583,-2.0579009513400166,5.485265267460028,-8.009274466948824,7.354316520373238
7.926716894244627,5.495561208576909,14.696858478848595,12.948770326752314,0.7360722730291311,2.6295848765821805,-3.5992016729631837,-2.9610693430514554,-2.36124807227651,0.064618630381652,-2.8412498245408884,4.924143645122613,-1.5053046692075398,7.757896406794307
7.691556839114079,10.551414303595486,16.371071967049332,12.09370453768928,0.9199922278468068,-0.6151442958929909,-3.0632065505055315,-2.1422444771357423,-0.5357180952738503,-3.726370394548965,-2.245929712746019,4.30977523465472,6.336055427306512,7.721888885661938
8.833238441154052,14.327046796669364,17.14683037573517,11.853969749997392,0.4808281767644787,-3.2432504132371736,-0.3765291714001222,-0.6749574544344323,1.1166805110978544,-6.402811968651058,-0.4418445227714969,5.63050735109352,11.06963134404254,9.660491337100993
9.07135073772015,15.867963345599271,17.43409878895661,11.648400856304155,1.0630912541269684,-4.201920725005856,2.063184781395436,1.0114326996036145,1.6069074555850769,-6.056130928473525,1.97132877872226,9.306274493675174,10.693198625536208,13.9795799148144
6.972947783205655,15.498131566562382,16.778298048558568,9.92580790466185,3.7503504757812944,-3.079526975793093,2.1603354550012965,1.512644255634441,0.345981974726822,-2.7985646011655554,3.986532604449103,9.26179112686614,6.611566075673707,13.779204086169097
4.063956633264728,14.085054152458405,13.993252287388644,7.055167433635942,4.753852313938825,0.1205942649525332,0.8579388079472821,0.9095932745843436,-2.286111103219456,1.221158964862319,4.376044785075834,5.6626060134276175,1.9814610001733417,9.230656686446576
-2.6028716970314045,12.10372137105663,8.31397843129837,1.075626902220002,4.287804700132952,1.574907276429617,-0.5599954841326097,-0.4499198474594416,-4.911196033836216,3.253058522932715,2.329777341187045,-0.9980665857801796,-0.872846047827192,2.75921377874569
-11.783316606887512,9.35071396533969,0.5674409404652073,-8.466415314455878,1.853379460739964,1.7807103086203275,-1.093739763306099,-2.897928608599401,-5.887077821095279,1.8559119746349249,-1.7476258272931666,-12.261272411946928,-1.8114737243238552,-7.206183729047762
-14.64619956492435,5.506374309715531,-6.837868907758049,-12.103778230107173,-2.028255634753853,1.2015447458459452,-1.0614562216884054,-4.296699578720332,-4.484118348768768,-2.109870745710932,-6.099533745614986,-16.93966462480789,-2.1687170199664507,-10.566911864772289
-10.826193993510548,0.969970018165128,-11.316011234396653,-9.654202650116131,-2.131993845515727,0.3345353687293802,-0.3670855074535997,-4.514200288419856,-1.646351519720893,-6.185978737462051,-8.634592655470982,-14.614544213157442,-2.9878259133283382,-6.490790633410478
-7.038998449432505,-2.887287515729053,-11.812361525866224,-6.334674183422904,0.6459763792552236,2.622462745139664,1.0180767470146967,-4.952978488797312,0.4412747331366908,-8.197574796460621,-8.501256160829229,-12.027402010717651,-3.983818295566522,-3.9201511923048136
-1.9149876999895443,-4.460262480728439,-9.380290198064188,0.0586710292352054,4.189788283295156,5.581640066869404,2.399166804679351,-5.097234068470966,-0.1275242539127816,-7.806358668130052,-6.834501379453595,-6.563555337222341,-4.151824766279869,-0.5380484973361926
1.0150865639503837,-3.164097820354897,-6.17091759465778,2.660716522346816,6.956261608359094,5.913785767034889,3.368083755248594,-5.372684459110122,-3.4975548583383684,-6.479715145194767,-5.8006911969785335,-4.783012243365888,-3.2619373608923325,-0.2206869731323878
-0.2620863841633321,-0.1222348231563827,-3.7747370796143898,0.5655530762299373,4.878916675029114,3.501815190680597,3.149679499196416,-5.916642930991468,-7.863188562593585,-5.99583623750776,-6.6173218458135,-7.743079557664619,-2.5383577099179178,-4.517768858872837
2.258734707457465,2.487224198520444,-2.3341780994461487,1.230380212192547,0.1801815357436236,-1.6486479504906957,0.0178971073952126,-6.408135747563668,-10.801599758094646,-6.896075490314367,-8.356567021744155,-8.403145481058562,-3.571526081574966,-4.948485994242484
6.822104728685003,3.0738169070799444,-1.0208312800515813,3.080205108727826,-3.3036772196002246,-7.018665147732173,-4.332281238153985,-6.988226007013831,-11.03775177003213,-8.254417796805612,-8.796169212591934,-8.362877426037333,-6.36576067598736,-2.505350745909757
8.389584812578951,1.913352076516624,0.7957274934227883,5.514751227904132,-4.124444527673463,-7.970340719151816,-5.734835836971021,-5.393951890210365,-9.180858131679765,-8.786505284882068,-6.66580537766643,-6.276566269326031,-8.58372315134757,-0.0670717905852572
7.972667381195193,0.8821513311807081,2.86309760621819,9.625789155007384,-0.6630985631275161,-4.471414197434691,-3.405443280817525,-1.389044031608614,-6.898173964613754,-8.032294216571806,-3.1376738403288087,-0.9901262056746232,-7.170940932414538,3.813555544188104
5.708630540085116,1.7986776632142636,4.379898851885976,11.886530857131076,3.180468008951342,-0.8985984583401733,1.1369989267546567,2.4236712833329945,-5.344382268716032,-6.429436432457464,-0.9228580636005076,3.54565132422718,-1.2196609193200274,5.227582433691636
1.5616865114152465,4.811961127477687,4.837604806028253,12.315662847529367,4.83557708055688,1.919813447644823,5.637476669998401,6.539838156194786,-4.231101011302492,-4.40993548072862,-1.6009310358353446,7.886522066976762,6.585135770659434,3.744232299930054
-1.1812307628047278,8.236422326880174,4.431958988722741,10.400363518571972,4.652197186702192,2.3325844333528902,5.7150554624909855,7.7312005986798304,-2.280024673651156,-1.7356100284933405,-3.722623034426008,8.986922693778256,11.596934739044272,3.361815194302963
-1.7606943638580923,9.895583468095104,3.647296969387739,5.15863207405807,1.5683401260817529,0.2975422952555512,1.3126500280483449,5.228314429373006,1.399308714915449,2.05294034987341,-3.7752727732073614,5.794295556522129,10.772075321188836,3.215388106697074
-2.5271753178325564,8.724152061853474,2.523959272124884,0.4894715421048994,0.4498711758600675,0.0911607638481838,-1.7688449489313054,5.507065204207791,6.2094655867020805,6.567100616817001,0.5519475802325502,4.026342878291477,5.106861667633794,5.066343025461692
-3.652629880458409,5.328105314218192,0.4838199177258531,-3.908962957668341,1.1014357245646489,1.2696514928986382,-2.689327514797683,7.911699863833107,10.186699369737454,10.222254754961028,7.777808146506075,2.841855162585314,-1.1883257391942408,9.705328695253824
-3.703302289084768,1.3019552945586668,-2.966900269610022,-5.738879668908725,0.5975515403860064,1.9939837178387405,-1.46550161136503,8.506826043189767,11.301392551560625,11.2807803954487,13.37566032026956,2.633601281989531,-3.978599755982259,11.267039183460112
-3.2737850457272573,-1.859771520162397,-7.290661175692364,-3.886499358260079,2.081129198973258,2.0096124118750254,1.040919552223852,8.295986445453272,8.957180687921834,9.432889420874588,13.5117774455194,4.518983905771048,-2.053908186148988,10.05338058132849
-4.130772553251299,-3.368489370192549,-10.759651333617398,-3.979566920042402,1.5148616184467405,0.4950943012935952,-0.3435582620655204,4.502646820838615,4.529404778865256,6.3230392420889245,8.495911364760786,3.347456456757306,2.6916502176532617,7.601016125593025
-3.9804152996105375,-3.0913993778683846,-11.473392332095926,-5.3309427850058295,0.1147688916976961,-1.930456742256764,-4.2078262035650456,-3.721600945600827,0.5065332580903998,4.329986683750661,2.7161453226246266,-0.7022744631576782,7.391635604976273,2.630074517221339
-2.827178005956483,-1.2541495064467938,-8.792118849035148,-4.469015476720328,1.6487070512212598,-3.0143376621351976,-6.42934135086518,-6.0768220263562895,-1.121620958250091,4.602576189588191,0.9896160768914228,-1.560290480172111,10.416258272762605,1.8979129698653272
-1.579727954851148,1.7225823620529752,-3.906031030673944,-2.1732220042100745,1.2737031855660546,-2.349247186097041,-5.602586489900697,-2.720012456097277,-0.0288535801044531,6.146996059768625,4.569790859835891,0.1055760573216629,11.875057141586865,5.815407035892304
1.8672304309167869,5.226672458077204,1.0231872340623909,1.801577421578335,1.074471875856144,-1.0164824007008315,-0.8735693175439602,0.8591582762090065,2.5070969801770104,6.831562892334304,10.328980854759834,3.0995582259060828,12.56097420458341,8.728007940129869
5.061860957083566,8.458370369249025,4.386435036119202,8.042289640210365,1.315615414985824,0.585878972492858,5.385690061238523,6.858620208337579,4.66016229805075,5.392380060227588,13.648239908331789,8.629948881408698,12.7894913067461,12.126175905511106
5.58748688267933,10.53121130968023,5.94790234167062,9.742832674900235,-0.0859566484572137,1.7527860507860895,8.65845809750444,8.619634222684274,5.201081642693467,2.592020945219048,12.226453188602228,9.833077073292587,12.204920159024574,12.01404362368308
4.882658837083613,10.683096660651984,6.36013023421264,6.570343968239492,0.4063606258635178,2.130527149234193,7.236516581351536,5.16199176974672,4.005221422998972,0.4910483924966939,7.493382419124302,6.3251697052544005,10.372382412855409,7.2618372211186974
3.907466426850904,8.600668794106042,6.115672213756611,4.078383676945636,1.6843475821429972,2.118615051349176,3.0647879893464323,3.547118624150424,1.8820595851551047,0.5627653051033832,2.827541402703865,3.0586695068991863,7.31049346344917,3.7631192434750655
3.1159591102279496,4.773962617814419,5.1536665763942295,0.7650348528206938,1.9789586085816036,2.2902011956305337,-1.3348094300246989,2.174573506114501,0.1099743022628132,2.437627945205968,0.6619903593475414,-1.5468337879125065,3.5109328923263305,0.4269552887857516
2.059345721817172,0.5935886995486968,3.444372623414523,-1.234038281831053,1.540009893773738,1.552382907869662,-4.190567235170601,1.8309824669358443,-0.0784160685690409,4.407484766576658,1.0840591258892616,-3.683965760817585,-0.3294519826262743,-2.11436886387333
0.25646774609254,-2.155600432077449,1.647389144045377,-1.0118319482879192,-0.1265504281081569,0.0271202771089608,-4.156740192139744,3.6218324474597816,1.919139441801846,5.09652883780182,2.607355566176004,-2.489515202098944,-3.505943938156172,-2.815404791342432
-1.924776208210877,-2.373387571771289,0.8158784019915828,-1.1360477249173888,-0.8729318515872745,-0.6758425496636958,-1.7360725041136988,4.882661367473518,5.513715002418252,4.595648262411586,3.714480181632851,-1.14646731107169,-5.4429023153137095,-3.7316300754563336
-4.5709062251724495,-0.6355384165107196,1.2864855982516517,-0.8232204741017533,0.2950834862402193,-2.177101153429918,-0.6294045690672437,6.116921200194954,8.847533145298698,3.959806438317777,3.583520085060357,1.506032245274037,-5.959831676265033,-4.351042428730007
-4.582293155783759,0.8222073191636525,2.0177108519390146,0.1548384225570298,1.8948068085179008,-2.5208081805543685,0.3827673733494852,5.833388635589175,9.63706955162636,3.699074002804856,1.8707139198429843,3.3722120963409656,-5.547054569034245,-4.033403258401506
-2.339450052825747,-0.521659205296551,1.362288786604104,1.5893301890279192,2.338298196530089,-0.8363579626497168,1.9877201785173435,3.4685486742713296,6.687362917894873,2.997971655297775,-1.4341452266960315,4.044555933239274,-5.206277035654836,-2.949754742941506
-3.059561733751498,-5.514644765250271,-1.2436238272599915,0.6514320648362624,-0.6165850892916733,-0.9344355067122304,0.8160139705146022,0.0428040134496859,1.0355294441874785,0.6760779627876694,-5.521641929637774,3.371785640719438,-5.681770896451518,-3.871886088858486
-4.285305096264019,-12.29670624322003,-4.3339148995735215,-2.969015602390263,-5.900616816418915,0.0450444236233617,2.4333304702385163,-5.055685361695101,-4.333453291286201,-3.011311803281874,-8.396048804055365,0.5709520604129062,-6.640473732013952,-6.979362853612214
-4.862207588037365,-17.246109852967827,-5.350876074412302,-4.548337917007048,-9.223716564338517,1.3335383872472824,4.290368434748856,-6.8671190623403415,-6.270296049264353,-5.765792714174651,-7.729967706432685,-0.1179641819655664,-6.701126778277896,-7.493813952931287
-4.713362645614759,-17.45256049162692,-2.840272163827855,-4.580969850231129,-8.18814385823523,0.6863710720710918,2.4547053006085555,-4.969388545019155,-3.5928753339404054,-4.887891445311521,-2.784322538805423,1.2337077775222458,-4.569936776625234,-5.811814132184351
1.062116799726244,-12.892648916446776,2.029208614741893,-2.1628230405018782,-4.152194138962564,2.0425379543508035,2.9986590017626,-2.704968855194552,1.99041309089837,0.0766279986152831,4.30771110387624,4.0752107657085626,-0.3996431770345126,-0.650214422525584
8.006250488111798,-6.524490445983673,6.083836042313047,3.829004682937749,0.754631869858166,2.491657244409641,-0.2120072231973648,1.18708355561777,6.918777635864458,6.251305201679823,9.52504361760594,9.463470263565382,3.949287034753647,9.230080031857744
9.79461092554,-2.1330390480789703,6.511708792424058,3.664291601414426,3.282481591180496,0.6978006416428626,-5.14839092030568,2.701298025333008,8.12045906203469,9.295541886859628,9.867584324259262,9.227482333594184,6.176918942663937,10.556029718759545
7.337961353750297,-1.6455090886041672,3.03566969531718,-2.7870147389785416,0.5640571268684029,-0.7182797236193774,-5.438288229385999,1.225609021847049,5.040473791834161,6.8757233173468375,5.802461436062895,2.971094649692525,5.309780921824212,3.010100531274033
2.291874693347157,-4.0956418027008,-1.9232431451534788,-9.030384592225047,-2.4541260791841504,-3.2835615373472384,-7.453804660096824,0.2163811043728176,-0.0658944087851614,0.7172985417198507,0.936651267846666,-2.5391012307255405,2.3721494701001404,-5.577703860021108
-1.604184925141103,-6.966796232377422,-5.22475675252023,-17.151464041452343,-3.710333335811324,-5.443396619387823,-6.757951381516443,-1.3861721910438434,-3.771593752458638,-4.669279453467797,-0.9979701607138024,-9.077820439014925,-0.6307982024720802,-18.25174383296514
-1.328743111216876,-8.576061784893147,-5.488720279710069,-19.29526155326722,-4.276320682550412,-4.296529370260055,-2.1085574680542267,-1.8309873764282236,-3.853827102780495,-5.546614682798367,0.7649450204552131,-11.03633839228204,-2.408855776881127,-23.64981661843064
1.200940149364421,-9.368418040813546,-4.05149158765505,-14.025501668485273,-1.1340359198536902,-1.440731247232672,0.309960160608714,-0.6000870981583475,-0.6765508642022819,-1.7413586679744224,3.619369960023411,-6.968120278418707,-3.1713755065800644,-20.155139983536127
1.6297901491618472,-11.130894393412165,-3.6731441107253904,-12.015872130176923,1.0314316602515152,1.6091842598612502,3.8634177019370783,1.2822218945814043,3.3780889711614286,3.5828145342114848,4.133012312044466,-6.905635913581981,-3.937447425285215,-20.039253107359173
-1.646695467346313,-15.056756150325006,-6.13856037779454,-11.436641629970234,0.6257855846992879,5.192577782544987,7.406107898412108,4.4487610520592575,5.845844677213728,6.662742283658025,1.0584057965458769,-9.56360511719206,-5.327666493533945,-20.5934473961588
-5.017843773140977,-20.496227818073045,-10.781694921205178,-13.153945104630823,0.4102874696607841,5.630852543798973,5.957527521393229,2.932189250464499,5.827146552031687,5.802333604230402,-4.003030146236357,-13.540181147471776,-7.1877893672110265,-23.939109373199383
-5.975758798669593,-25.44020108897752,-15.136748172573656,-19.143792633022358,-2.569974568316528,2.5574986086225207,2.6873469641590604,-3.7845340559164566,4.028298129846739,1.829463897875525,-8.683060469959358,-20.70796126255524,-9.297069944777116,-32.12041449567061
-4.975472838612194,-28.184667721275638,-17.094577798119865,-21.79871741917056,-4.768224565255193,0.6034748543949606,0.9753762429286538,-11.846291323836036,1.393159291527699,-3.510976094557643,-12.360144751940796,-25.346155876377637,-12.109427792575945,-37.71040002238719
-1.8020514027299237,-28.66662690881343,-16.666944408629416,-21.621642266887008,-5.439627120499153,-2.239780022120976,-1.2994878754013763,-22.797289143664788,-2.149625060314282,-9.264579551747332,-16.48753685310598,-27.48124850742791,-16.43832983690765,-41.58140583804904
1.185118166210832,-28.33748662600051,-15.819524586927674,-19.99459920317819,-6.39267746700638,-3.6822745433809536,-1.2370962693733971,-24.508418577916405,-7.425104165036144,-15.38276688839711,-22.46328832909108,-26.956871980057887,-22.262041055063197,-40.8330023694467
2.493186086456204,-28.69502521867849,-16.520224714836242,-15.301887406919665,-4.721942106967963,-1.242130107959901,1.5450890873049885,-15.55344015374746,-14.385776244521988,-21.411591615188332,-29.324187117476413,-22.252146880721533,-27.95764529999889,-33.67318890252429
2.7504238093876268,-29.71211094497042,-18.711553644126983,-11.833994632669675,-4.403671134161929,-0.9175470984097602,-0.5893476074573035,-8.339859120707613,-20.80242121057143,-25.441810122650537,-33.73572768199557,-17.358694438762253,-30.98647223119259,-26.63403971061514
3.106746909638112,-29.546045747831464,-20.01681930428988,-9.522179570688442,-5.439207838226503,-0.0493267922316504,-3.697224882561922,0.0026700672042817,-22.94313418608212,-24.76705036243897,-32.45266673914638,-11.77729091248401,-29.6130076568936,-18.591748147943907
2.291331746866257,-25.92750753609741,-17.534817078882135,-6.5257451520766,-5.238898173115068,1.7224727581699564,-4.310935569420387,3.978536049109928,-18.18967902212861,-17.99665023594261,-25.007001875693327,-6.139373609688776,-24.161969845206777,-11.36942575428746
-0.2792420202449975,-18.17620341181027,-10.304380734586758,-3.746189834126808,-5.806927194723072,0.8464040619422026,-4.312750882867455,1.2415007955524917,-7.58484881626536,-6.828329161132448,-14.19337869909879,-1.27584249388219,-16.70680179315957,-6.265136665573621
-1.1598532568203868,-8.069008378195473,-0.4189630994197557,1.1199542985928392,-3.968583752305326,1.156534802996608,-0.1101409450506241,4.369516453407552,4.040577895817616,4.28589965883484,-4.020267721107175,5.986105356777888,-9.51775426410956,2.593712754819167
-2.8464086957750108,1.3744586235869996,8.168681538627702,8.31554333350518,0.0975344047567764,0.6789983442408325,4.294643994627521,11.908336702800671,10.925168560535472,10.706067245690118,2.9690172954591603,15.344859121827817,-3.6461126368832346,14.61115170654812
-3.562559468250737,8.236980288264505,12.28471958888492,13.19501946764101,2.710265036280889,-1.4287287762949612,3.848288711823837,13.61983670051282,10.263594790949256,10.626682996753123,6.792065002022191,19.251294715330506,1.2534414345866978,21.69672963948555
-2.473343913667801,13.029285913180765,11.644288337320788,16.023913433463434,4.0225083327607045,-1.8093995034581725,0.3364010405905659,11.04393617878358,4.103265473592305,6.224256880903223,8.99733165739583,17.608847730107172,5.967561319736188,24.266716745520483
-2.071553384350981,17.692215994767594,8.923181326570948,19.02191351509141,3.0416228656851523,-1.567036366795851,-3.3119945451481785,5.4806763043740245,-2.3214756627907818,1.958338400770934,10.844518765135769,15.494273622630027,10.690017002533864,26.44955030433812
0.1631157923575548,23.25859399487252,7.844702698440901,21.27593514353576,0.5670107478854949,-0.1210104884382093,-4.697891468617256,-4.998960715138022,-4.5298266252228245,1.297936540902448,12.41501542306484,11.241875702841758,14.848584536988817,26.60889819867658
1.3064728089553188,28.59196903749939,10.719061861075415,23.6497216816556,0.1169669869113858,2.052779858519581,-2.330104447111168,-7.204650027713117,-1.874325611443936,4.41765792884237,13.16318432304498,10.871317350334635,17.802068220426754,28.508741038455213
1.5042728977032458,31.57794776849732,17.079675237475072,26.34677688643281,3.159424704936012,2.383500000451099,2.336705660590704,-0.4430702685768617,2.5881562036649584,8.583439995375315,12.989506405001231,15.472992920517145,19.58766920204917,32.781403903996704
4.57957016625454,31.561700776124457,24.12198815248643,27.88344848187052,8.909024220070812,1.221506473527816,5.2081027868056005,3.276140637357015,5.041294144023869,10.687096868012004,12.600448297400655,17.673568394436234,20.910909026234577,33.98960076968712
7.735636467711104,30.40509361974468,28.43557792190916,28.423568233157116,15.423431902427051,-0.5577003495415735,6.751670600431944,6.726493510349277,4.004562986251258,9.662228025208336,12.837174440014191,18.949294047961853,22.36363452294164,32.915710871141805
8.69389190923233,30.88193494891033,27.880895009435733,26.971210584465204,18.344286046543747,-1.911106270259648,5.690368690036815,6.754825373968295,1.0665805661756949,6.837833492449853,13.757272937120051,18.81158898225421,23.67212980655509,32.272741886969285
6.854415578216492,33.90555465222928,22.623309505501908,23.110149513316653,15.428284415885416,-1.559291288507726,1.7555359435554814,1.278763008838956,-0.9846232132054312,4.285044640554144,14.470349042253616,16.032319121239386,23.83015397230845,31.28881253114164
-1.2187467114944908,37.38517692115228,14.93704678241707,16.318001530392166,10.93158330849523,-0.0621697976255353,-1.4126368821577922,-0.436502087963063,-0.6672008439393444,2.9668953496655845,13.931962926335885,12.432046719308088,22.13691420747813,29.010325163259434
-12.477834135397094,37.96046230485523,8.00125075517367,6.031554177826029,6.909963759161756,0.8128629365257317,-7.0252075817011255,0.6174410637092987,1.2384763971596993,2.3974602199754718,11.955807857307724,7.428465273722673,19.188200744748656,25.69652213829239
-16.216758002784204,34.0526271688913,4.326312579934687,2.053874299733677,4.741201663847613,0.7813450196249879,-9.6747674895782,1.3461391876088613,2.792059257118225,1.8166089931143308,9.517633872694365,5.037836174229957,16.738843478896317,23.503782196633285
-10.657601573836072,27.428438286574387,4.598617469214902,4.906989498128253,5.911593753234817,0.2442303856441068,-5.095557884068246,3.370817944300703,2.752073029076177,1.382827986204676,8.102082510643687,5.796052633127391,16.33920169399481,22.498703801608936
-1.1341021707588328,21.917990465200536,7.530735127116696,9.739997570018945,4.893491203334211,-0.4926343651950437,-0.5603247228221009,3.818827425126903,1.5241581282305834,2.042855761644393,8.660110589100151,8.009423629388547,17.889600519534753,22.62077023416988
10.420906530475204,20.497029809227104,10.756305912852063,19.07747796600141,0.098901740826463,0.2324834535458742,8.270056241441722,2.4047840660688986,0.5999460743594724,4.260456037149668,10.960882249052196,12.909973357139105,19.51439453437555,24.5190328285048
14.165390706722947,23.17657092872148,12.191995047665545,20.593935489783888,-3.870737296997817,1.479632430552311,13.999585444157804,1.7032159213522795,1.178205230323888,7.033024230057308,13.684781896154288,12.66152875807803,19.0373681900406,22.400227775087
6.992520412728446,27.151742062788543,11.029023860633176,13.12273266955088,-6.665342210789963,1.4765041887318306,8.546839150497291,1.0844812303401823,3.1236979129799405,8.33784723667165,15.071878281649646,6.709336965323322,15.820329544587745,16.024295549187034
-0.1816493227399394,28.7225131460172,7.834258520081898,5.879509911546822,-6.874141727522906,0.9153560264563944,3.142841202841009,0.6431280580539073,4.977106949215987,6.69876475798398,13.755690558155356,0.2067398344197131,11.290562807082749,8.220087898778425
-6.649857024067427,25.44221961626988,3.878919755304144,-4.196597475490399,-3.8406512664193233,-1.061496571362472,-5.764684492034602,0.7394165152120267,4.951959522371225,2.452542960002451,9.4815519015418,-8.77543362088855,7.6317500246265215,-2.4546491718375574
-8.384464720067308,17.328173081688476,0.2811014771320526,-8.483604333691508,-1.8531598845952877,-2.954734371468004,-13.076723207585284,0.3760848649154522,2.244442754131796,-2.417519417023831,3.425787419519045,-11.455841049276708,5.819328192414408,-7.00057368397856
-2.3584017657833005,6.87312962584714,-2.4612647005207484,-5.306257551746987,-1.6735976237207928,-2.5908135945641417,-9.862634003815304,-0.3464688934901097,-2.2282378178908067,-5.685454773068041,-2.187710412719781,-6.609668651969959,4.827421492152637,-4.530818828223604
1.699441457848761,-1.9821688554598336,-4.35783764046686,-4.280086229778886,-3.23663472558184,-1.6392537654036197,-7.3429994871924285,-0.8980801209372795,-6.242629651605009,-6.290418274579686,-5.214922025637623,-2.6533106414973235,2.774437936533791,-1.3191936192787197
4.13498871092673,-5.75131477860409,-5.484563371007652,-3.1596822397606976,-5.218122059963016,-0.2560636447325767,-3.985705936052834,-1.4303126070863348,-7.64999530864468,-4.687395275031311,-4.907535075985552,2.6219646845391527,-1.038504275808008,4.954429261387753
4.747405427414044,-3.657922905034271,-5.674187684336926,-3.830082528313445,-5.722774409896647,0.6789877389330599,0.6308982851681041,-0.5944850666656047,-5.767038756514998,-2.148601642206424,-2.462442000523154,4.178301867031858,-5.145095468217645,5.458557552640238
1.362560180065149,1.108700505357901,-4.664041460694043,-7.827044445960529,-5.1394521971195175,-0.1520748338763267,0.0531131826929565,1.8152367631997,-1.723524999181034,0.1271703800246326,-0.2367819416662535,0.450420895833702,-7.066177349247701,-1.1130868290165656
-0.0284717083022764,2.699644162824294,-2.620113370047548,-8.18674515841044,-2.2560247696666766,-0.8618609072941266,1.1192705313397235,4.195216026471099,2.47355333837386,1.3781814669633512,-0.1016925492112692,-0.1603982208528408,-5.753772226852047,-6.0975235329498245
-0.6209308736807505,-3.466368860744025,-0.5433373922039162,-5.4941887810652,0.7640559151043612,-0.7732901041778142,4.762200887805733,6.869432752920588,5.334309267159484,1.1950839227416743,-2.193604860357898,1.0051672432533711,-3.1784191744261663,-11.720659379718285
-1.5957180416037473,-16.6393309866407,-0.0187036268788558,-5.156692854582501,1.653617193021497,0.2565822315564933,5.960785658255137,7.793645614708978,6.595392398129549,-0.4451266096754178,-5.042905455949423,0.6894314412113828,-3.407963774231884,-14.664465460586207
-1.500046171833594,-30.148858407231888,-2.2461598101237703,-6.180140858554111,0.9670635192278212,2.244558842990806,6.588026673741946,6.501485005174425,6.834749073251123,-2.8252228514101456,-6.90091508407163,0.0789774848290701,-9.52575523422445,-13.48500350063776
-3.282395750310046,-35.72880915896264,-6.9895916934475775,-10.01878260571327,-1.3315064268197367,3.5799788699053456,7.062722367191038,5.765598694458817,6.6103189016158375,-4.341878451487158,-7.091520520874283,-3.2097407957862107,-20.64860589379301,-14.533086634934904
-5.511711565273166,-29.927911070737288,-12.350803304816584,-17.800264677118722,-3.618543010378452,4.394086643292227,5.003933619976419,5.046405593626121,6.031094423516905,-3.213591563869856,-6.279541861390425,-9.721537029741045,-31.529575821938856,-16.809791503043346
-5.190353569850351,-17.278304724327157,-15.756495842513544,-20.28563415496489,-4.136737688958575,3.458248035388165,2.0753082278586343,3.1985802074206644,5.026252853396246,1.1339783951214608,-5.580297471302217,-11.954286372647855,-35.46002912625582,-18.16760515870887
-3.179968586719849,-7.069216297466577,-15.585050488397886,-17.529575924449542,-2.655537754572712,0.6929880751130993,0.18256330305186,0.5534190399603427,3.786189503075546,7.138979440495376,-5.459739500430039,-10.061072092694856,-28.69821928806857,-19.53223899603113
0.5086224549694116,-6.036412269679931,-12.276760234753494,-12.441204223723652,0.2950720880202273,-1.384291686356478,-3.3540826422567656,-3.1639410266100443,2.7589009649027743,11.721278147551784,-5.468726615298107,-7.51977218132506,-13.348064007962805,-18.671965654852222
5.270186505010347,-13.112562085339327,-8.089753432260306,-2.8093174273204635,2.8907666040384337,-4.648422959796719,-7.644415275397649,-8.139196980791537,2.2028852033325403,12.28738459343527,-4.974777905184913,-2.694627376679907,3.4752112182754,-15.23620029069679
6.952009450147293,-20.78053664527356,-5.636908736565967,1.087852162227424,3.492777686422692,-5.67801430467192,-7.343040731926308,-9.316946136330476,1.867177059978422,8.610795480441308,-4.046399789691522,-0.6784134737635373,13.8231078108517,-13.041616306738243
5.3553887572203385,-21.7701284580234,-6.200708342270336,-1.3657349527111655,2.147222349944506,-2.451381852871376,-4.051329095587852,-6.344661646601812,1.2491930547997665,2.9870203344819397,-3.4849239040086677,-2.0458154612424533,13.716041334648986,-11.69717731891614
3.9069829925115687,-15.166795968470188,-8.954056892113078,-5.324388406191322,-1.0991648954655813,-0.6237831052694827,-1.8310601109212443,-4.035500711900463,0.2189567312162594,-1.5380781704965134,-3.891619748373417,-2.7292929494305027,5.3538464740842695,-10.323894672651525
1.9692234175434271,-6.74553103499483,-11.592165708066936,-13.424430317927117,-4.0098001654683415,2.952004332111743,1.996360559578911,-1.273142445632582,-0.6643075070788953,-3.409918146394596,-4.757529865194362,-3.99240733616926,-4.73832265851769,-9.663620369246932
0.1247668420166155,-3.643758436873421,-11.951532325620388,-16.21317586294388,-4.01941339545457,5.04900364793094,3.185159583128515,0.3007830754913509,-0.5679940407575899,-3.432383117656931,-4.7100892014022655,-4.93611396061268,-10.2923580716053,-9.362392190655656
-0.4909013001337453,-8.332511890287325,-9.532281810136496,-12.8892084421822,-2.3297174868085024,1.6519305735287872,-0.1188683788013886,-0.1810324982306248,0.7720658044296673,-3.658352592988384,-2.933428380949016,-5.073056372513473,-9.358516499728136,-9.54212796027959
-2.054585024446409,-16.98013779272155,-5.858476267210246,-9.014169125204702,0.0624987184838928,1.1958369176202206,1.4125798274224202,1.7917968676632752,2.571482651020254,-5.4293298937783625,-0.4255625466288322,-5.833450049478993,-5.005285960175417,-10.86709047450706
