AF3,F7,F3,FC5,T7,P7,O1,O2,P8,T8,FC6,F4,F8,AF4
5.482947141900206,-3.1450414906729267,7.434566692480821,0.346687215587373,-3.5910876402826943,-1.228434424848194,8.292650361608768,3.2158777637966045,5.437643071782956,2.00461116749467,2.0986740935270976,9.773082185916776,-8.509580437841068,0.5930083921704666
-0.9804797877443276,-5.661807671696018,5.365772840844915,6.716667859878076,-4.868004027504565,-0.2653777928713374,10.616223259210724,1.6729908038353218,0.4944062140471126,0.4584862841726937,0.9511941028986912,8.221091634230925,-11.52808637998266,-0.2481392108429183
-8.364315182968769,-8.312352647251139,2.7750049281385074,6.021756618296173,-6.128526512836572,2.6873779730399363,10.453523892155584,-0.4154580284229037,-8.09745991665272,-0.8003726349505704,-1.8221760309322623,4.705244843487864,-12.195848038190796,-0.7179324981171229
-10.847014859779108,-7.283666726057024,1.1122657578052504,-3.392162430485888,-7.116916979462726,6.768537485329617,7.938038559232048,-1.0478050789717157,-10.733600928904892,-1.6242135924875858,-2.3786814059100303,2.20235637909661,-11.321555420320797,-1.2950160527762589
-5.636773256388311,-2.5383682247223445,0.8667958943102967,-15.712115374079222,-7.780272784202694,9.893958238604611,4.370012142312184,0.1149217672394851,-6.932466653260697,-1.4141436641526464,-0.8452912930553033,1.0608509827997628,-10.161713234196144,-0.8166457322496223
2.153275677426924,2.6277487941756723,1.388386462821849,-22.839181334105877,-7.962294599918675,10.244407580707572,1.3240638591855962,0.9640969501769996,-3.2095956780766133,-1.6883879425166883,-0.3226952024640924,0.1617997847632648,-5.978950477386513,0.4943814232532669
8.663702117336335,8.209407875933612,1.5164282655371617,-21.10629697314113,-7.262964808051091,7.707391356521711,-0.1943445830566794,2.0176633040495564,2.664355775868255,-2.259267566281071,-0.145780743346079,0.3631252017853677,-0.0220097953808036,1.1570974438818662
9.601994440183253,9.486800940127472,0.4716288158373345,-13.28717741526876,-5.306025172747532,4.013444754637536,-0.0529149510258619,1.914457410672712,3.696237711926444,-2.3266568678643917,-1.6634859147664312,-0.9734401252027958,1.919541071515275,1.3621926951173
3.553737940660075,4.894827339811508,-1.672043642020924,-4.815953834861052,-2.2300293001510383,1.3988212508286215,1.1880160165262943,0.2333993986564782,-1.36928816206701,-2.0998287382124863,-5.51163741593052,-3.928250948106948,1.0894913774102268,0.9009835256376316
-2.235857288437586,3.343831125559643,-4.222584529889673,1.1868546680215069,1.0759161526157648,0.9250281257805426,2.622188619287691,0.1436054608241127,-3.099654906360175,-0.4814260722609965,-5.7360942439011735,-7.734322566710812,0.2227059249849778,-0.2783417696329083
-5.826442703164735,2.1837287814076247,-6.517047732475007,5.081207945585124,3.341146709347349,1.8797454028088687,3.357644433959152,1.372820307635367,-3.100590232876064,2.755405374616863,-2.434720221516889,-13.059727707110795,-3.954669712208979,-0.6699881672975139
-5.693323296311024,0.7574355295014487,-8.391987141587379,7.836200622780684,3.7376619731500433,2.6793783603688723,2.932626086538015,1.7287661841811663,-2.5449331420740933,3.770147493079648,-0.8081067889294625,-13.80870938386182,-5.132433704914464,-0.3445812057236994
-1.307774651254761,0.8189571963466232,-10.096313915323885,8.338558893413921,2.552522209517321,2.34919368107575,1.6904072829390486,1.7008260313540486,0.1211049969525035,2.5953129617848543,0.1949167948898545,-9.523222717584863,-3.196699523074129,0.0004266426242349
0.6349812516471143,-2.650638098091924,-11.76880174367574,4.467147991511819,1.1028970005814038,1.2359609783300378,0.7363683671798817,0.2320977871990722,-0.0332863193814969,0.1288812530544782,-2.6113264915251144,-5.270054767523464,-4.096845644595083,0.326678520288462
0.7841893027819147,-6.488492625899146,-12.979730965249884,-3.217904806175333,0.8329615792904939,0.4514470697345807,1.208873314542899,-3.135069650937384,-3.032586953307165,-4.58590844691721,-10.419717857230282,0.3710642605620485,-2.3278972066513317,-0.5596560722229842
0.837867774729268,-6.697011904084922,-12.789380385156504,-9.752014140310436,2.231855880500184,0.7403450941866474,3.2227537201022507,-4.626896032917834,-3.927645149926791,-5.89808481338092,-11.412992460358204,2.656306228954142,-1.314605366379578,-1.6679485886052536
0.2494340645973782,-4.153984998276911,-10.35102062108378,-8.833117530837352,4.466892271837413,1.86759518089988,5.398008359909788,-4.390152269436173,-3.5357778716162227,-3.5180669642102456,-5.901099649715061,0.5060519666942493,-2.616288929904623,-1.333164607159441
2.284750367468264,-0.2916094548047796,-5.622555996249528,1.6275189428565788,6.110179002631927,2.963189772914685,5.630854507595153,-3.904304274976397,-2.9143006482193097,-0.7267826116087243,1.4072405504544965,0.8778813591187005,-0.7328777152779891,-0.1598288380673032
5.152485227842075,3.218797075469788,0.3809140720892294,16.792140563537274,6.390667867261982,3.337394352746845,2.721370559407472,-2.366962096947438,-1.2499111291446894,3.845631843143184,13.113230662824982,2.6057778909223344,-0.4650948594855713,2.4311183670510275
4.682555903884605,3.646489100661915,6.038718261042575,27.966486831445916,5.856152113539089,2.97898727648467,-2.438546260851581,-2.1007783796919526,-1.2595207313769785,5.431325241435621,15.780274237723876,3.25649956183338,-1.192635056970911,4.01828560287826
0.9179312430506636,1.2159154913930788,9.985929257092558,28.98435733629024,5.787399892235634,2.409365688743307,-7.226472858522394,-3.3092877534952296,-3.093354635129012,3.413062022743681,8.172711721270833,3.818148158986177,-0.2140968294036181,2.1125564763361746
-2.4806518393238552,-0.3440924563097907,11.77016628103864,20.43045844682105,6.859977250767567,2.1748840920021024,-9.056706457484616,-4.049573712217077,-3.121530609517553,2.2140411500507566,3.747234189022308,3.3059012574321778,-1.4483751770430564,-0.2345609686081773
-5.427021526219544,-1.1608748642124993,11.855617255152604,8.451690529114328,8.328615973706894,2.459490841966968,-7.172502685452413,-4.852872383171372,-1.7814191950021712,0.6620283314054484,-0.4682518045222216,1.4452025155564292,-2.5632890576183303,-3.232290031651259
-5.572797963935314,-1.0621531098882613,11.049737814114811,-0.1495987542390029,8.57904707910213,3.057365750618249,-3.025453138835383,-3.4232985197594563,0.1924617107819979,-0.3369706272982626,-0.7000225524155755,1.5916851003257142,-1.5217827300523314,-4.602389241659858
-1.5498625272712574,0.482955897475502,9.866095750361254,-2.109474332964988,6.592266415277786,3.621222981674263,0.9941278048654194,0.7085681857525881,3.487186463378787,-0.1449072587238888,5.466203678184342,3.703139004481905,-1.5402680434430644,-1.7418165131493817
0.2354192641880844,1.451084258890268,8.32935155994939,1.6002221390688955,2.958221569172851,3.953185296529865,3.3250469217226275,4.981883944792601,5.269051970260319,-2.0960509387499107,4.735745363620638,4.37151792180612,-0.9110714871351964,0.7407880654630278
2.001667194718206,2.735936458170813,6.30532044759781,7.733282036664332,-0.5150215182312525,4.13262761975764,4.023567385858174,10.02088262614612,5.411917830390594,-5.9692778389465735,-1.960192931254117,4.151368361838481,1.2292891854929102,3.1248788731763155
3.456308040750033,3.813413767098271,3.980121876226008,12.828175881067027,-2.225809915932275,4.391090033977071,4.089244671223869,12.088457358907924,5.9250205727116905,-6.933594524435204,-4.389689420112677,4.236413374024288,1.807537595958359,3.950889344581235
2.450043013467992,3.3023683338083485,2.0121327875864763,14.107298944621515,-1.9476446771203035,4.811068703507275,4.190493406972551,10.458637109628624,6.17931646787105,-5.27232274406698,-4.589691606510178,4.107099759395752,3.871486106303392,1.5297328801992245
1.701319377204921,0.8238671434893041,1.200366218779925,9.96899532195833,-0.7918973971577263,5.0884294017043965,4.093510440507094,9.844507354722628,7.03240183379315,-1.137217021359692,0.6730913009299734,5.226518523883131,7.518936037726742,-0.1823620888975893
-1.026230089710938,-3.7359472043952975,1.9546180507327084,0.9592401528878548,-0.1660418850269551,4.61277770713415,3.2651139684896324,9.296724238122083,8.772047383892914,6.660917379024269,13.485026971421924,7.809579036502132,9.643183420148098,-1.8561696989665768
-3.056642662645606,-6.342260748214783,4.034704510174705,-9.467447511618666,-0.7244487472873238,2.893115166762352,1.8691981716648765,9.64091228169298,9.24506072943687,11.453947449794343,20.404999026790843,10.456335871224482,12.925870550810483,-2.177005681611485
-2.087836490104419,-5.09307876058236,6.787378564071968,-15.98497703103178,-2.098233209615606,0.0318016282391213,0.9740912931619709,11.710347529281288,8.605757313866619,13.178113624229752,22.05341720219261,13.53210246647903,15.136700803726594,-0.3886377894863469
-0.9500410771679928,-2.070395952284463,9.658120006218835,-14.486767566232698,-3.394603163992281,-3.1714774947587765,1.636222493394945,12.127072001057345,8.228508364175953,14.320176226631762,22.45463047398705,17.23183765657533,15.482546721847465,-0.522517739783742
1.6948363073422612,1.9378084057383649,12.49776594598993,-5.169077781676698,-3.904873869386153,-5.656885908658812,3.7666004932049386,11.206744423720398,7.751551204843735,13.282458821331224,18.699286573497155,21.400830699782823,17.75260543541423,-1.063511192904102
2.847396288724179,3.4809265253774653,15.372126986118092,7.137416137908,-3.5158774676078117,-6.813664389194408,6.009408114548902,10.409383883975828,8.025210186694972,13.616655109716415,17.915769117239744,22.9845419519296,17.795142460277955,-1.6772038972261931
-0.5307859615396513,0.7462888605397419,18.071578871957048,16.105937764571763,-2.687134230763345,-6.930065911684671,6.884209114799428,9.155321152468334,9.323618513180902,15.472327455508816,20.33682997751243,21.651862779135254,16.211718823666857,-3.266839811312689
-0.6264344074112037,-0.4602946571652276,19.85073128447985,18.217841088866237,-2.118968820816847,-7.000956647002145,6.122308957005711,7.689076974911706,9.692120964685715,17.490686817700055,23.447480682175836,19.631444794503903,15.723928066544447,-0.5910867997576694
0.6961912425172059,0.5986018383131723,19.746375981208608,14.745428777730616,-2.307844223520397,-7.974513230115834,4.854898813205404,6.129615192584924,9.30794424435973,20.54076439582701,28.988955230444947,16.099210004135617,11.802598430161666,3.616222696623606
0.3942637691186263,1.715571757735522,17.257588148083606,9.804446467080476,-3.204490284039577,-9.957034299513506,4.429299997761564,3.368001784287126,7.759956463390552,18.99673233897425,26.39335321108815,11.322907349435155,8.28736156831442,4.989604387594002
1.5175519971706986,3.1851725031708256,12.765311198568655,6.25955916395187,-4.191602986460082,-11.978278909970582,5.022166672946722,-0.6000776762912324,4.57078659747646,12.400572620281029,14.870648312231005,5.470528236216332,5.903966018313428,4.668367700687169
-0.9593289005820664,1.956673098538189,7.268262862250587,3.1956729979210747,-4.469505527082634,-12.554198577858145,5.445935216813066,-4.744639993428288,1.507468778140667,4.808097019005385,0.8323078319667988,-1.876323302228164,0.2543702222524259,0.7475474105564966
-4.81279329315903,-2.0534594101632253,1.6634049343769086,-2.677028345046023,-3.656482050715329,-10.713229601234506,4.338045909182638,-9.267972859264829,-1.6276408294761548,-5.16384025979464,-18.39899168156577,-10.627643396590814,-4.356145774475441,-3.678960014447044
-4.434175689653828,-4.204631555039226,-3.74566376328404,-12.91492164293497,-2.186128652990023,-6.786029294597317,1.5127122040553678,-12.17144062955636,-4.379477212028712,-10.8020338326527,-27.144487943091097,-15.399542088866385,-8.615499389531928,-4.14370638662834
-0.5972841268100937,-2.616008653342985,-9.05822423398504,-24.448805566971046,-1.1482102056612984,-2.38725375964479,-1.8968122155449445,-13.07573778660796,-6.3398126553274485,-11.0867959174189,-23.553723694206205,-15.696246366749884,-14.100398692822113,-0.9036968987655158
1.929865113104977,-0.1558997997451419,-14.14818884114232,-31.001773975625404,-1.5901515732616467,0.4481311664486602,-4.614253181870987,-14.57093700961053,-9.875111634358218,-14.543668856997185,-23.594358172887464,-17.738371911318616,-17.736968432913564,1.7266651695635735
2.4869375392871067,2.4281479889051694,-18.289115722501634,-28.031715687479128,-3.7106558710770177,0.4631334577544832,-6.460886664698422,-16.155525277554844,-14.87747088494482,-19.647627991696165,-23.57616236841014,-20.367871331332758,-21.95876651110681,1.656661657997715
2.047179194141531,3.344682497632527,-20.45733083580844,-16.923680629200042,-6.520924504262734,-1.9975279849873424,-8.363127108999,-16.834776959584975,-17.308061574022975,-22.2496091477051,-24.534805795637176,-21.780670651671805,-24.68635892513957,0.313206282989475
-0.2523980640068307,0.5483900990823677,-20.05163542699708,-4.473522503469871,-8.28153891506385,-5.045054264752992,-11.140948385875902,-16.929951159968628,-17.335192192572627,-23.399287284753164,-28.869798807397057,-22.85414292247425,-22.694061352813893,-2.151060509452923
0.4523964118503347,-1.8717618236539335,-17.38157543682119,2.1913243966836635,-7.50639853776334,-6.249654133550139,-14.38035185831735,-15.664748776936952,-15.0600302721844,-20.667241345945115,-26.93435387677391,-20.89549765631829,-20.1455333357438,-2.8055718336046147
3.713606566515087,-2.684486988658114,-13.546252540236608,0.9453396485333964,-3.914538575480909,-4.149006212950587,-16.618460813933513,-12.840164465160164,-9.450175065440677,-13.167131012702177,-19.225030955821584,-15.568218914566875,-15.096304752644851,-0.3930268711791675
4.38058401906814,-2.1089689271075454,-9.893504222594272,-4.29452071385161,1.2837790394718418,0.5877197968204895,-16.712546220446693,-11.516775699034204,-8.354368771958647,-10.96257333625169,-15.313696533603403,-13.275809623363966,-10.756693732835828,1.6696602576628354
1.7189405411380552,-0.2987572020005743,-7.498655241077415,-7.426959595683998,5.955239190532701,5.238196774645237,-15.02410942631509,-11.692956233940995,-12.027825416043726,-13.950182819072252,-13.870984123633669,-13.769863237084262,-12.226941596577548,1.4132794200137062
-1.2045948410374634,0.8724861275832265,-6.873183566468459,-5.203050033718018,8.128151470933213,6.634616946145269,-13.18993571591964,-11.28807274114757,-16.81090992780279,-17.20521495556708,-12.693440712747034,-12.514010589941568,-12.307039795523064,0.9029063347980624
-4.624329326890913,0.8208560403436849,-7.819482783038884,0.897297781096011,6.992209309464639,3.455063611056985,-12.621763110985851,-10.937093341586849,-24.628417174176047,-22.946236548432697,-13.50608403014586,-10.68185247122569,-12.528005376895598,-0.3434397285581138
-6.226263859023604,-0.4343396376060999,-9.386772740229844,6.903352226962364,3.3154962648320163,-2.4840385962696176,-13.10749114368193,-8.187476980466984,-24.26484941838672,-21.65103369356658,-10.80119392427718,-7.1276887817502645,-12.324977276083246,-1.940646175311192
-3.040850624755546,-0.9702924299398354,-10.12476963714176,9.868832693321629,-0.9185958560798017,-7.204862373173071,-12.811761219800925,-2.564740898486038,-14.647903403327794,-12.217486508876462,-4.315948730691516,-1.1179878151752751,-4.791004537907514,-0.9780619158902016
-0.3587915865160564,0.8135090716740541,-8.793364669016883,9.298381142482018,-3.5314999089260395,-7.397577765756452,-9.723793619789916,3.957343167163,-3.5424834345272944,-1.1041895320731137,3.125468632548754,3.820063948839188,3.1093713540744305,0.6600333167686174
2.6891976248771035,3.7983583712023226,-5.221427138731075,5.92528705280158,-3.385203540249999,-3.0130288881334915,-3.373098443615964,12.105531722494632,11.923774211015068,14.223808448539176,12.849117946214028,8.009418158579127,10.73256743711442,2.0661570552442434
5.223728668509255,5.753590597390672,-0.6072176051280547,0.1287728590655383,-1.141422521791144,2.5472626037724275,4.537856345522901,17.235029033341853,19.52237273704715,22.963173652348544,17.875831358184268,10.428396997198623,18.904865396825656,3.046511624191397
3.60156360944352,4.835436777933713,3.185013382238384,-7.824952168370496,1.0673196631557236,4.967770557988043,11.047802046145492,18.749951148211498,17.502260768453784,23.68521038569924,17.462769957785923,10.199563901426345,19.756942391610032,1.8748410060340024
1.1948307892319523,-0.034924895667087,4.916349285637958,-16.178501527470118,1.0408822987654869,2.3291173464796726,13.746922195245288,20.086689229983875,17.578736400230813,25.264044042102263,16.441708465735122,10.490799932269596,18.922848388696718,-0.4478947368428744
-2.455123773049872,-6.446657497414984,4.797392221630209,-21.206509710890945,-1.9029004592032488,-3.466232794830657,12.28724855735765,19.988575950468835,16.65814689930418,24.881998595409414,12.988022220326274,10.85578342254898,19.57836080846779,-2.461780605658669
-5.255336716987469,-8.765734759328666,4.117038604907121,-19.362273470047903,-6.389298669970507,-8.267396141538367,8.640306354603828,19.461686709560336,17.31500848604748,24.68919235088696,12.557373719529409,10.8958921708277,17.58844758108889,-2.829115824024728
-3.8441808149732015,-5.724626954794096,4.030653097997961,-10.501433183123464,-10.00443551391648,-8.892063527224643,5.903401973506406,18.83016559487674,21.25825861441782,25.72548799234972,15.99295854213509,11.164517756579336,18.41896301641284,-1.2982062525480815
-1.1369407928804016,-0.2812333300198865,4.650899016303835,1.1007202316904774,-11.075335952018644,-5.359583468176012,6.331455426625316,16.551773579426506,22.25126717600911,23.171928148600564,16.728898879778367,9.567295330608529,20.68662674727905,0.2479884815638724
2.210725141638125,5.360068083725913,5.254460379793096,9.504201039547134,-9.723297861171703,-0.4627822490744502,9.832974899447247,12.877269972768564,21.207201571551543,17.599559396241776,16.017926323516985,6.071828053989611,18.506245965861574,1.0286026138824984
3.838207830617266,6.654935840140165,5.2710755529245255,11.518163531112162,-7.355860788338545,2.733803301246035,14.007467571083325,9.513299518935789,19.293413476695527,12.774541609219906,13.374172562596598,3.741130139252664,16.279120860211453,0.624221073234229
1.1533318911463946,2.579831384095859,4.943510939598937,8.799627839681973,-5.192355779234286,3.261999414202456,15.813688606514638,6.360495506601591,15.47863780001158,8.105199574267056,7.657613062616891,2.309498831641981,13.398034605229824,-0.5388484359213326
-1.1387354175893274,-0.7224428353579585,4.943319063559373,5.7340923705331655,-3.2485848815707468,2.598759873441968,13.710524179985953,2.279818012429529,10.631173625360388,3.772240832745253,2.8428374886033776,0.5915540618047421,6.236987667465713,-0.2004654051569756
-2.148862861595308,-2.3065882776539763,5.385375232604742,5.262892404897849,-0.6568331189087133,2.964236943023874,8.637684086478046,-2.411997530014331,4.621954555531048,0.5403767463324788,-1.390012004762054,-0.8278497568404903,-0.1639698940590132,1.35175408916754
-1.8017164640844592,-2.282726012006278,5.368948792499238,6.718631471899576,3.142490323772616,5.249396722799013,3.0800344910107937,-6.88976634021837,-1.3382870465619765,-4.128178810277028,-6.547037552666631,-3.5276301251547006,-4.814227460486976,2.1702202795840244
1.2536080799619878,-0.0360466945967252,3.6502542146074672,7.4635793229613,7.589621041497988,8.371582790558268,-0.9394336396974268,-11.212246013796426,-7.002215490392567,-10.03498993292058,-11.902323019306388,-7.6817461584327855,-11.48499986868857,1.5909436716461554
3.0437092075014576,0.4925254984787512,-0.1365731679190487,6.12945633372051,11.348251918836407,10.410938305198323,-3.201073456342685,-16.382581157641145,-14.141308335688583,-18.83581936351012,-18.863183612261956,-12.543047017640491,-17.29277511187389,-0.6117767342570561
3.680748888166301,-0.4998801012236524,-4.904424334574825,3.8333378249138166,13.396406744985937,10.292924971793363,-4.916585420268435,-22.29130985702436,-22.462884282269425,-31.26519239169958,-27.597992205901317,-18.550196717844823,-22.046660850669085,-3.653690872782389
3.49643355375724,-0.5485725211703547,-8.780402875300943,2.3323549685240903,13.76672526865812,8.495710908667329,-7.212939544176458,-24.49672125585865,-26.025639050441523,-36.18476418520389,-30.084375183441136,-20.194347437617136,-26.890274437977126,-4.288591213200939
2.29125820485533,0.1730329322365093,-10.429668996790449,1.643419094753351,13.265293191087952,6.381377656509877,-10.001712049338254,-22.763514815243717,-24.53703863418153,-33.32267556788656,-25.95429735386136,-16.956900254562065,-26.124990185820955,-1.2450872877062769
0.4589450326188582,1.0344671342103755,-9.875061716541357,0.1152417567303274,12.553217622293934,5.033227261815769,-12.187414596367269,-20.134135877948676,-22.510580173738315,-28.725807970925832,-22.205603117094352,-12.027036821896,-22.012054328885267,1.278097291412658
-2.9422505199036544,1.808104225595704,-8.203160500425202,-3.140454235417034,11.58783699187792,4.682452584879288,-12.760698481684226,-15.53556729224453,-18.56260480033701,-19.76838571754103,-17.104268962238525,-3.91090004358656,-17.709763205487448,3.41654234483699
-4.550431595640144,1.2015220038436536,-6.581159477837634,-6.496386062229707,9.98797639386829,4.950590030430767,-11.578333503275193,-12.041042868521297,-15.46048063118636,-15.357989559914296,-14.386952272744844,-0.05164255935831,-12.688969248219545,4.036449973993253
-3.8084471709525447,-0.7146284198165106,-5.500109353101198,-7.081530663425413,7.862974864592772,5.325289117262116,-9.199765962130972,-10.198216451172962,-13.953552715548277,-16.59899194081435,-15.39691523497867,-1.234863883475283,-10.756292382818726,1.1306923852162185
-2.953122986403824,-1.4162794601205984,-4.745533928503544,-3.875209417450341,6.087940413969262,5.355460460935501,-6.231755983195006,-4.684713534366221,-7.848983775100467,-12.646536197694934,-11.55174608854684,-1.429147575274687,-9.53291882590712,-0.4639409079770079
-0.6701862243679313,-1.865132530270368,-3.848210405747212,0.8523793178278289,5.561011450710417,4.67138509150567,-3.00095700219916,3.92155399506844,2.350038074169609,-5.394092817407841,-3.703398067891949,-2.482563455246985,-5.948098768313885,-1.9890883520192737
0.8318157576846892,-1.6818194739317684,-2.466992256798481,3.5531472771742925,6.125971308280012,3.165416750463304,0.2439085604333703,8.015239418008084,7.605132584452029,0.5639819489159708,1.472236519184559,-1.428730738038856,-2.340792057413434,-3.347973945250201
0.0462481450441802,-0.4029290694902582,-0.4659608187211681,2.8826336346272097,6.370786918814487,1.2468153209598083,3.115077423933154,7.952897914278779,8.403060031146751,6.668609906541141,5.149698094166882,2.640764098032853,2.151583182440066,-2.375761834399716
1.334582578210683,0.1701510268231749,2.12266438592929,0.97792031283129,4.735107576449341,-0.2887318624256383,5.290695384718374,7.64280988340453,8.980799154647862,11.271364821807442,9.792443297508887,6.679018101757464,7.800039789598137,-0.9464092905172704
3.935095544511609,2.222962850175392,5.010541510903306,1.0990745831188091,0.9761596952034748,-0.8916190169387559,6.883883709837202,5.528941242505548,7.491543541377253,13.647478499950823,14.410569012742812,11.638264039286932,12.52278937508382,2.1282306575692105
4.345542028813577,3.742206266149146,7.515150065420153,3.951463671172128,-3.4820253004477006,-0.7932165647273242,8.36391301708018,6.731853909100108,9.234378843022164,16.511382493168806,19.10787234388936,14.13307521839183,16.49073996726159,4.30086026851164
2.871324479568661,2.4147187719097785,8.677177218503687,6.394345811668274,-6.763413121486429,-0.7435086371226634,9.932334436282945,12.0047517748689,14.913314336493302,19.33262895013144,24.07607145055571,13.544487853305604,19.31423326025324,3.1869804977599023
-0.875157793097344,0.7652520998262994,7.775294011969055,3.999225890255588,-8.16534570743234,-1.0841776380327477,11.046057968156708,13.748057789640772,17.200901606719775,20.709499895965383,24.61879908218674,12.073842560234594,21.03333721142225,1.0216494537515772
-7.0728247688728105,-3.5968306366560743,4.951019631737252,-4.658445568147421,-8.570213819152997,-1.1549561382201503,10.806255089002908,12.975058702353774,17.1471230801367,20.92388024672415,20.34559825448932,8.68810468584372,22.23457974507841,-2.850724776051629
-9.413359590595949,-6.788481374121755,1.4067395911865326,-15.72565846794749,-9.26495280402648,0.1623931085586027,9.002157282038034,11.45662647609172,15.07162349410361,19.473350203986183,17.523727562990565,7.2004523152500095,21.64691885569702,-5.189229371357029
-5.741168631269109,-3.869377216671381,-1.13854980281325,-22.00927544397084,-10.460638040840855,3.157913580896802,6.694082133590912,7.854127277688512,9.581453991121515,16.04905064791344,15.265977075799173,8.003729740798544,20.007300913929534,-3.188541384048748
-0.6724732295428812,-0.9595856824524804,-1.4753553870446314,-17.996535477346722,-11.093857056584572,6.580018129329868,5.468069321977982,5.589421732494711,6.001615467148739,11.800402969480174,13.8445897200408,8.387805980358783,17.442301837721097,-0.6853079739996357
6.063918869959283,3.737648561398797,0.3077230756394709,-4.325174965959918,-10.062359764314367,8.376036083740972,5.837585678275659,4.795017831513074,4.223808408998889,6.541485969136452,14.523063330542133,9.320749816578628,12.096291372360458,2.386733863627847
9.028215894735416,7.389809176149956,2.902102037087684,11.80757846414596,-7.471504660069089,7.334802851584204,6.358360179806365,1.894259636944828,0.279591213148618,1.68796810168372,11.304910378305852,7.782018637708902,7.554432762020175,4.178307814089961
5.12718121214024,3.949753209381223,4.710295956619005,21.04649046529402,-4.491235530448416,4.120811619259665,4.589546795974943,-2.506369418870253,-4.870439802465527,-2.4119949948144663,4.329134467737885,3.2700661136060805,3.976208582122052,2.1628497366723005
1.9700520310321676,0.519447613486553,4.927023337237398,18.25167639302943,-2.012698559896165,0.7047705100273911,-0.6936942341009704,-7.606441520125833,-13.968741709229398,-8.608169530265059,-3.4467069855707284,-1.9992183879064884,-2.166009936914925,0.1410663123503286
-0.718318601490832,-3.445279172303823,3.931693716485348,6.227948417142148,0.3386064948947251,-1.2988260899934088,-8.002136753186736,-13.975668643207475,-27.868803923434086,-16.606445618972998,-13.264215410985573,-8.887240597085704,-7.4495346903713395,-1.5092050680220277
-2.0072278979979443,-6.338794339498861,2.73785748452813,-6.146197419541832,3.662026138618456,-1.867992011238328,-13.87621653445126,-15.7549796996549,-31.454531952193538,-20.102146302923988,-16.769916747165812,-12.135534726230013,-10.700153151707331,-2.2241941025911625
0.0615025425866448,-4.189971475837879,2.0427740150259432,-10.19574246056743,8.257146855869367,-2.305981589969597,-15.419686630025293,-12.413610571052578,-24.38249425972662,-19.06259642936163,-12.975416370654187,-11.095119673280074,-13.946154044751788,-0.3054712586809788
-0.5158353145002976,-1.165428686945051,1.7106902259631087,-3.486175934108041,12.791129887167305,-3.823873432455125,-12.49510712788763,-10.334151990239418,-15.83475589495283,-17.084179954232326,-11.356242508517209,-10.497054843619456,-14.88594865819175,0.3582687243355305
-3.086741136042515,2.09241907117286,1.0638330284714326,8.87488623399674,15.141261493653085,-6.357169806553787,-7.705429820180493,-8.252219125781679,-2.356207268453811,-12.734966954979686,-10.036008874716504,-9.021566923282547,-13.860554080728768,-0.3092784309350425
-3.555959419627604,3.597474114224956,-0.3875647184009332,18.43521199645937,14.141249648271316,-8.682640798791624,-4.243681905451089,-6.886866034520105,2.88888044189792,-10.25759305572744,-10.183567825783769,-8.031661312584609,-14.67605612315752,-0.3458726752774309
-2.0449782880902267,2.4859377955282373,-2.467563161442687,19.62632560013192,10.535821132920208,-9.603486237547251,-3.518847142271138,-7.358389878446453,-2.045881018518686,-10.280211566681563,-13.463716443919726,-8.213246795712427,-13.7101870015243,-0.3608343534137131
1.5248154748099167,2.1839247838661127,-4.46681688991834,13.265427499679417,6.294789981576653,-8.973867816432143,-4.499611977364811,-4.901000947994787,-2.359710139402023,-8.012912384046563,-12.276568887432036,-6.410357234304266,-10.391869663705194,1.1979584309146127
6.446344493499303,2.939669786905704,-5.664010592703406,5.065375395458069,3.0666547378352464,-7.59796954295637,-5.06051683581746,0.1932060256255809,-1.1759719924787126,-4.446108758214519,-7.031170619295876,-3.0112749642470087,-8.328738252218596,4.034879711914604
7.466482292333219,3.5157507551655938,-5.7643743240372896,0.8469063025077392,1.23648866182088,-6.248347858603972,-3.916953910102938,1.7843138215490224,-0.4146793300285527,-4.166874887997177,-5.6375416376588126,-2.092876322729121,-6.52461708240134,4.633781323325598
3.807571486048535,3.338566124846536,-4.997236061302706,2.356625213852041,0.2073226607078599,-4.945431631542427,-1.4927956749195226,0.3601326777323222,2.010749862064382,-6.896428060690267,-7.086187694041709,-3.441810793814514,-8.148413650153064,2.378045217829468
0.2697479409390682,0.104236385044738,-3.957255836518464,6.612862189222152,-0.7613981352369583,-3.2870649733142945,0.7312860351402122,-0.4434346983893443,1.954702640845436,-8.33724625364253,-8.9361202114999,-4.264912323073297,-12.997226603818309,-0.1326611746614646
-3.2914005019909056,-5.489331249594438,-3.3724566443452915,8.724291640275451,-2.128481191319588,-1.4007701318127137,1.509845098895401,-1.7110539289244702,-0.5021792871516897,-9.221293569399332,-12.599775833626971,-5.315380045352239,-17.176956335204608,-2.8661352361311048
-4.951943430144356,-7.725613862303255,-3.83490667508985,5.662128814284554,-4.2017685710753545,-0.3333896971068406,0.6091994177068343,-0.3392874018201933,-0.0589976604907937,-6.532762746769529,-11.101913391580156,-4.01052738031906,-17.83398265424001,-4.222095467781959
-4.167100181720825,-5.650227550447248,-5.443949027422423,-1.7736240139363673,-7.174836891731892,-1.255287916191408,-1.3177948832774886,4.415851823682277,2.808031977010446,0.8405952438780756,-3.798411304062621,0.2798659836584339,-13.381592480004857,-3.1953556206788503
-6.049955796949771,-2.3289920038699177,-7.472810152016422,-9.791062486401884,-10.677136820401792,-4.172946637431441,-3.299783809458758,7.47011593011646,4.3815840621592175,5.299285601913375,2.3489276675788373,3.3713257469313227,-6.55796000755962,-3.5661494639243467
-9.426268580444756,1.7480362840657584,-8.398483087518285,-14.158565531133002,-13.38628106098936,-7.495132348656474,-4.466877800767273,9.545846224116827,5.499286860679377,7.508406896824385,8.884103782478524,5.882977601119971,2.3184844400641604,-4.964632023476477
-9.494969201423247,3.0096963423490597,-6.569910064042119,-12.576638869825471,-13.57925576682086,-9.04337650186448,-4.207515206797195,11.796625176311158,7.047331847384705,11.69878330493705,14.317696528580806,8.649620946040892,8.716946563696649,-4.847198153088383
-5.950591786814359,0.5372959607762262,-1.308536096285576,-5.677603950964419,-10.589526778787388,-7.692919925338337,-2.3248634102190566,13.36006272975012,8.529172056417913,16.602943530437187,17.45219678907876,10.96455068008567,11.752833802390615,-3.4287620399540137
0.894024282989407,-0.08459009211697,6.3014120514622105,3.3878903879595774,-5.895047420104678,-4.208916205757882,0.7082853837173655,15.064577532354122,11.41232770975664,24.36076197777207,23.406005124576847,14.49805248793732,16.489081366057135,0.2457138756174135
10.595381897781214,1.0397252917103872,13.703922653948192,10.294483817450946,-2.4997159413500203,-0.6009884299811761,3.714604240400065,16.860669712672546,15.851972071644242,35.68795531254367,31.67587820897995,19.281831752722866,19.82033756049136,5.9916457788856485
14.723467734651122,2.4215120153272585,18.30023541862193,11.42447244900302,-2.742107069244609,1.3665821267853815,5.356279755644874,15.934315358732892,17.490372318672797,39.58169628377716,34.732928265929424,20.292761929205955,21.50931137686917,8.604759359187911
11.348897213540065,4.085110945590709,19.09827700703056,5.811242863154149,-6.306099182225167,1.2695160644153565,5.076108359245374,12.160527847225524,16.35662469415525,35.86007913205995,32.89701032918239,17.468287649112305,22.439705942847187,6.995978098587785
8.399347177943417,3.372740644340189,17.298156583257455,-3.862649684192719,-10.278675265537416,0.017699258153822,3.659189357871572,8.832832604273664,15.05662764347638,31.76142964304946,28.69017358426756,14.033641359079605,20.053841392305564,5.117303100766057
4.377354593314529,1.0495410057868628,15.260497938326136,-12.34856765358621,-11.357038116856453,-0.9902948609354916,2.7366816194305086,5.426679859890371,12.658972651750236,24.8710920669429,20.417665302278568,8.876412442325867,15.82756257691688,2.453058099150553
0.7736166916170168,-0.511391719194761,14.624080998754025,-14.950754657476717,-8.36503817128526,-0.801128184136338,3.448943243939267,3.7057919051511377,10.344517024041084,19.981285428014164,14.439257714966958,5.916877047242312,12.61454159384422,0.2359124325233146
0.574026432440504,-0.7713232609021725,15.08572309429822,-10.740200858391615,-2.9770707049391896,0.6164306976886909,5.387457963394684,4.471403180902404,8.4365016464737,18.2318090501202,11.165740213185142,5.826670065318126,9.418506625030153,0.0834244328337011
-2.5964246929322936,0.2955369073661539,14.803996315443989,-3.241821565489972,1.8005798657732486,2.4554721140948725,6.861171552253779,3.5073639116471145,5.516671595634558,12.257759444272466,5.926266529463812,3.776625083494319,4.771184765983301,-1.7022250283542055
-7.813842905068879,0.8880697546391323,12.002398107108784,2.267664430090078,3.900313850509489,3.565137647527018,6.379380564190882,1.3076799745287129,1.9120623357180488,3.185392614093457,0.1818009254113503,0.7021138110843301,-0.0448999657797298,-5.05058828866271
-8.977001972833422,-0.1678625977106897,6.399544866343186,2.7663598571395305,3.315744056316041,3.1291687996643143,4.049327257751396,-0.7035185775792386,-1.127649164500829,-4.275133702899906,-4.975697937147951,-1.9994821261186164,-4.9643724900783015,-5.859023878912807
-7.686833920621277,-2.636454483185372,-0.603778485518045,-0.596414177176757,1.4949995039044226,1.224878201329466,1.571382663776492,-3.244661884801731,-3.670597997517352,-11.01181358348761,-9.8929727704866,-4.975677722962628,-10.07699362715034,-4.563478722997702
-6.9818325865486495,-6.000061079865562,-6.902857184681498,-4.2215994204285,-0.0037246657723915,-1.09694467803759,0.7993725879606002,-5.592524940698278,-8.1641211372735,-18.268850983194447,-15.893978460742504,-7.970945596933956,-14.26492142746565,-3.4500461625905765
-4.975372342791768,-8.485775267422918,-10.90581689720564,-5.592344295173733,-0.3030059993238154,-2.3773460654850176,2.19499180780882,-7.659881423856173,-14.533114026816625,-25.30664987305475,-22.938994460100734,-10.89296135244935,-18.336348377864223,-0.987530330284478
-2.9606497684188606,-7.178072671643389,-12.16147883702792,-5.1756661811563145,0.8644779104477562,-1.672771299107629,4.582278906480566,-8.62639288338207,-16.69339174721504,-27.06429082209684,-24.59988789868759,-11.91923378291603,-20.326511168053823,0.652209623154616
-1.0512185386786923,-2.6372292069167784,-11.258028328048669,-5.024996907617319,3.417773517749958,0.80234630519273,6.314113785758924,-8.187885581232852,-14.666053944809244,-22.989169829314086,-20.57997882814514,-10.767565673454811,-17.428712444012177,0.5789888571949847
3.6474553974870174,2.2289788093697416,-9.332278520438548,-5.789816518814266,6.811017020169747,3.822877711542098,6.620016195276135,-6.909622342371383,-10.144981847729436,-16.439252727315584,-14.934399339732586,-8.064967061052835,-12.485680839422688,1.9711773524640024
9.196541127133113,7.980346961110649,-7.514081995968172,-5.430099750963553,9.820668892128952,6.001733068530564,5.867391128319791,-4.441995699948999,-1.6050618382785051,-5.990210706546658,-6.104911981705791,-3.199145839245245,-5.048325348772389,3.1631150279638263
10.29185772019652,9.664012204149865,-6.4535509445944506,-1.1677466484113204,10.922432678764196,6.688954556552452,4.708377922465302,-3.4561250138239235,1.315125028122018,-1.058676136857596,-3.4758959143710504,-1.214768618708418,0.4771549927447948,3.011213207594164
6.666278537359737,5.899584577379649,-6.072684822005884,7.128817671800683,9.31425719538079,6.240550080340027,3.2364401996731607,-4.172257188499398,-1.9832152089020356,-2.7188554720570126,-8.249357014706732,-2.4449228898909823,-0.1907630253984137,2.5045574962007
3.191031395883258,3.82417651644056,-5.724300643082956,15.53756397909392,5.719819367826165,5.519072387331616,1.1250648211678769,-3.5450946241466377,-3.812343913056949,-1.1765230378849318,-9.126405941909203,-2.7629816506197,-0.642181838321986,1.6579602147681165
-0.9487861036422904,0.2530176755041587,-4.736228777535587,18.38239045638091,2.060749287170073,5.114495384871804,-1.5079686988954997,-2.1205902806248638,-6.35819859422612,1.385736825420654,-8.19242356514443,-3.322207041221583,-1.9120885126230716,0.9417900997210696
-2.761245543712824,-2.920974814684945,-2.9610681100286262,12.594320210031189,0.1091977623711102,4.9421509011640925,-3.670095839280785,-1.1969768035281738,-6.115462523926953,2.2376234726920217,-6.391276650833194,-2.9938857138100947,-2.6385421918351124,0.7252719681086189
-1.0212187174653,-1.940675517389524,-0.878587850655121,0.5427034285625503,0.2564671090095149,4.470524117917403,-4.207489034386477,-0.3744665986393175,-1.8393643721846755,2.5534758425415958,-1.8927739898017208,-1.1764125605442843,0.5827875842320901,0.0556036511047255
-1.2828151401253935,-3.187396210436857,0.8046954473970835,-11.082944593971478,1.4337029574782123,3.268216814265797,-3.0297789903851537,-0.9090070299949816,0.9803824044783508,1.6812922642262826,1.1105303420574042,0.2708902711397843,2.612069936928473,-0.594042840863565
-1.3408249378868184,-3.9099521834961166,1.636969064470966,-15.592933511530765,2.110237309700439,1.3610172329248424,-1.474100890086195,-3.0914363810002508,3.372160880269937,-0.6431657886290569,2.8700043478760544,1.7635748905776638,4.381896693697793,-1.3215420793374897
-1.0348439241253362,-1.893086333779265,1.544123802105915,-10.643151937276706,1.3593927762663327,-0.8192816111558763,-1.1993619666030106,-3.321948223282184,4.564887890082111,-2.285474357790151,4.039049510108065,2.41000793667945,5.481255983750226,-2.169286346627916
-2.20925001672248,-0.7136608989828572,0.61935505534586,0.4009730108472773,-0.8429330128678458,-2.703911381949709,-2.561068042589433,-1.730082465174946,3.581817950977341,-3.305658230338836,3.735475331324633,1.861111604297962,3.126089090857992,-2.1803437088070945
-2.862389847629352,0.9162355729471572,-1.0177703847940478,10.747227795072014,-3.98241018651349,-3.7886521149177312,-4.114986539154923,-0.0077344360435883,2.3600330969402883,-7.6287262807335425,0.4008512715112771,0.3955016256051024,0.7575469895935357,-2.850602921854834
-4.683793380017811,3.016158134305033,-3.0499067713448014,14.285505993403971,-7.342638130135752,-3.718836135475623,-3.8882024876465895,2.5942803385560205,0.3726852506563059,-15.105866166392508,-6.433380666302407,-2.388431899060848,-2.5121665362018804,-3.9810793189414295
-5.697892749648801,2.913303492504072,-4.731705971376632,8.851287562064039,-9.975833170232754,-2.4019854644202603,-1.2668535682293438,3.677460954439238,0.2101373027207336,-16.76733987026199,-9.861232998497576,-3.05714117176059,-4.187087240256767,-3.7277047608847096
-2.843273090934851,1.816764339380847,-5.056522412735312,-3.0239443201603056,-10.687073220971596,-0.1662284265787263,2.3699326085224826,2.9412769308532023,2.3374175144977394,-12.70965658796409,-9.9171837826294,-1.4240976877482667,-0.6708565187631417,-2.0645167014378973
0.8756162208272855,0.7297834775676371,-3.395384160765108,-15.79961491493945,-8.532570355404996,2.259484542081914,4.9448393121733645,2.9051237195012263,5.17946113219673,-7.576194490299199,-7.290278103879963,-0.1911690814177611,3.1974810982820285,0.4149313669194619
6.930406575281888,-1.833455213777881,-0.1171199238042586,-23.77401154517865,-3.6680965572254856,4.116938319714297,5.6197436538830665,3.018042343586903,9.542336958462856,0.625022971910859,-0.1539026412681751,1.415365215287067,8.462964235022724,4.016608971787735
10.399683955662452,-3.403698397547009,3.4192841064017685,-23.62803060476953,2.2687375715436016,5.1177419794535215,5.393796496877286,2.9175691625573017,11.0796158127476,3.3559613692711765,4.0934175624860965,1.7400398462777829,12.673062215961505,6.103603772634623
6.508104107834125,-2.8250853153737765,5.615922507628095,-15.687255230976682,6.866010250606728,5.570689297285347,5.746993740955936,2.9456243443795525,9.382855747419574,-0.4341222056390854,5.5368937733202594,0.3038039843007048,11.85872982102844,5.115386079618452
2.05991030764717,-2.012604994838769,5.6080320941127,-3.5570178548418587,8.407759194024708,5.921004302128423,6.770662224812217,1.937806678998244,7.259728050421063,-1.5657660398189803,5.469682682812409,0.3411132606580705,11.477617137365948,4.014269975335877
-5.086190746328739,0.0802954421390388,3.7424057353748257,7.652547152280146,7.002218398077451,6.1254146931446805,6.807287521411299,-0.1578295897044336,3.583165117923899,-1.9986855757861,2.0804858248691054,1.482519939778575,10.666707246965592,2.1499457958770867
-10.20020483086842,1.8922914510370863,1.2446003997100146,13.77290151919553,4.446634751283881,5.558476487515351,4.06227240226977,-1.783814612671584,1.8630727858153768,-1.301981144083319,0.3042224220272552,1.4079609485701392,10.062362089407992,-0.1239323480818545
-6.854430284937521,0.9217333224273516,-0.6355942343133343,13.559317597254068,2.9168940504344185,3.645416948355912,-1.434962692645389,-3.120622408188139,2.587351524253488,1.9796760146155403,-0.0172375616931529,0.5539104647433357,12.656553131004804,-0.7603163494585103
-2.727089258205975,0.5841454773003069,-1.3775481434948065,9.125777485378674,3.4919702479149493,0.6122266911689493,-7.549027344573025,-4.35672826881608,2.358475920254536,3.338855705203484,1.21040161316938,-0.9514681259455002,14.646784723014587,-1.455095844250833
4.063794433408736,0.6290194420710531,-1.3583630627473935,4.477940882688841,5.59030842904907,-2.463618845632693,-11.749510463361384,-5.179615045270405,2.0385091056358773,3.1724451309009383,5.208745992193873,-3.514365720787497,16.51182477346895,-2.727641873106325
9.978599771193142,-0.0109761854702523,-1.3956092299120932,2.9346334605875164,7.611832580051629,-4.438998955343614,-13.110344731949771,-6.752505176435956,-1.0284287883317096,1.727454095212143,5.071687815574325,-5.029530374758028,16.728052444328455,-2.6959002829872416
7.730993153999863,0.9607047065331902,-2.039937383795607,5.037404926900425,8.16475405916334,-4.994042174741182,-12.686224617590508,-9.078105557234206,-7.555410717434174,-1.942784595473007,0.8042915207926212,-5.455871581210307,12.958058457580035,-2.0253545606293537
3.2657646688211326,1.9182798276129296,-3.127945068354082,8.349105079956713,6.933274861123193,-4.773189719663282,-12.109814772316833,-12.21863723712824,-13.81516042402854,-5.90157796661983,-4.719427220125984,-7.457405129218625,8.496890605335361,-2.3961986443539423
-3.0263392166591565,2.229445554524256,-3.900873036487644,9.334389965355806,4.666847557548799,-4.692105475398682,-12.02588375813998,-16.494230497801514,-20.53665746429514,-10.401893594586872,-13.083348499056545,-10.71257283874828,2.258480989535572,-1.648685460622072
-8.001394859309988,2.5141723912846228,-3.5919924063649398,6.068545232068585,2.490953497468457,-5.135612689254241,-11.914444284197648,-18.17722058282783,-23.856648905619423,-13.167605981314566,-14.395424813298176,-11.878366061172224,-2.4791134644584,-0.228005796983207
-5.51922932991864,1.9646479615008825,-2.0629993820787664,-0.1494604543786089,1.1525037651821215,-5.784700741131895,-11.178467129337388,-17.084086447611867,-22.779668344446403,-13.608554324515492,-7.733721040145537,-11.173282195510254,-3.509416827577345,0.7251653692816917
-0.2219422529249053,0.3940336042915578,-0.0346739848392356,-5.5501707989454125,0.6867582915464574,-6.09353199275334,-10.027311437244895,-14.792585828036346,-23.020323127821,-15.259792459707308,-2.5129802014913283,-8.859481180053775,-5.440551367893294,2.772612502179236
5.015603955598804,-1.0930564610890845,1.2596507310303195,-6.64052759718189,0.5678428368329307,-5.817976377298233,-9.134712295831529,-10.328689983258618,-23.548060078977212,-17.52124800151456,3.5277238972357323,-4.135271083775387,-6.121028845312926,4.193728799053576
7.133668852493804,-1.785696398826205,0.7790550586497389,-3.015684899811113,0.0975896487302758,-5.105718181104569,-8.631039828712247,-7.094973272034128,-21.705576824162325,-17.30982345791548,3.089248343914337,-2.157369030128045,-8.15793318671113,2.953320661647631
2.713219017801264,-2.608278997144457,-1.7156548480341698,1.9793555016777853,-1.220248509574681,-4.232492812635536,-7.800496925873691,-5.320637546198086,-18.19009608411578,-14.931197397062554,-5.890880650785555,-3.082980717224032,-13.554802772112843,0.2167042300988159
-4.090229697024863,-4.199434750144981,-5.518047457404961,3.526886421805365,-3.4267885366889708,-3.390890561641985,-5.952406601847411,-3.197343072388353,-11.997630184862285,-10.7206892009238,-12.187570839082625,-3.244363705812729,-17.69712523986423,-2.5041897380666613
-10.030448373834568,-7.372238501917809,-9.336639427118016,-0.9481265620301258,-6.0093920245683,-2.700085040748478,-3.424957500395273,-1.5800939257942292,-2.629081792589056,-3.9940142370412666,-17.766828891616193,-3.7644467598532985,-23.10656845916745,-5.75860773509197
-10.893086010997406,-8.601840363590847,-11.875093061628023,-9.502331255476976,-8.024007499650807,-2.2364475523957097,-1.4071855614778634,1.3422994937865873,3.269048574572694,0.5285542188447617,-17.997187914485067,-2.8035052084922034,-24.71604461215079,-6.1732903658897005
-4.979910425447005,-4.7575391584580125,-12.27296472054233,-16.824754613885357,-8.484125703369916,-1.9073399376012008,-0.6201829865089579,5.765750349432606,5.547061020016366,2.643224237415504,-10.466795345939529,0.2098170522190559,-19.481925551262115,-2.861104143541562
2.0792913768492287,0.9629283190329612,-10.259911614846116,-18.09700483148171,-6.894138695166802,-1.3429954712527206,-0.336417019126781,12.002991912863733,10.362257174683002,6.784086297835783,-3.389486071444275,2.690014042827727,-13.97351371875368,-0.0316239063912793
9.035527601195328,9.5239372776654,-6.157810121640793,-12.529753670170496,-3.6156294427850817,-0.1171993143271805,0.9994680179592236,20.667084862453287,16.420088728189327,11.997647823607036,4.974617132445888,5.161640103029023,-4.11486251555907,4.678524411619619
11.19120101554484,13.868007939615174,-0.9032432881084008,-3.742309130992343,0.2243908584272844,1.7561780487499623,4.035483793617939,23.31477104999766,19.266848804343702,16.06201550527413,11.120588837503524,6.606052767401819,2.5443395349549167,7.490008073707456
6.358280752546655,8.866842143822517,3.9871865273625247,3.185939269003306,3.288736180878672,3.563761631703368,7.513148867922435,19.52342942772379,19.42747372556905,19.440110202044387,13.485002109420504,6.518011565946488,1.0406499764288708,4.925019510120321
2.306895639092586,4.0619438153938985,6.803666919950935,5.4085587942233,4.713879465029166,4.307975446335195,9.23073671198641,13.677097361964323,16.759072083021508,21.63214674205353,15.728725787500665,5.979897360866342,1.981964795335574,3.0874076981673797
-1.8888491500351297,-1.9218083317757813,6.479338298461624,3.803157720549709,4.483307889100569,3.5708693182490343,8.145203341308182,3.643874663664319,10.236461634581127,22.18307557700233,16.432982339940306,4.553126430465791,-0.0163379579012284,-0.5614256782029898
-4.402073992494409,-5.541792156915999,3.422144574861427,1.5035976714531962,3.277419756726012,2.0275412452710384,5.500977492338393,-1.2929298882228608,7.04450021057882,21.182056433091248,14.731651504907443,3.336492806314803,-2.810878615856557,-3.9299167078175152
-2.246201594098694,-2.417970513620661,-0.4432357492659484,1.2083602528314046,1.9572310034620664,1.015505382264923,3.778102499445129,-0.1823504528022212,7.322073102979144,18.259723884129684,10.68222446224256,2.473579789495824,-0.7928003661981402,-2.448597328223811
-1.4346398796373252,-1.3790843726675803,-2.771314278451236,3.5244431382114776,1.0706572085154065,1.4430969846773216,4.447468707468651,-1.1259711583464866,5.236370362025673,14.16222064338042,7.887922826898153,1.5317111929723244,-2.40372362670794,-1.668137521164061
-1.000185504580698,-1.2987455195082678,-2.3867578155737768,7.116449934033893,0.6908029583132169,3.002115617463213,6.717347604538066,-1.9072467501034072,2.236108803933755,8.759784977842953,6.4440061112375,0.8365368386036847,-5.024937390314516,-0.3219311071896313
-0.1370947596604159,-1.5402835777096802,-0.1109010414039755,9.809232831958054,0.5974993746208561,4.419696098387435,8.428043682493259,-2.183403805008898,-0.6365930732635616,4.845210969218986,4.195336464762407,0.3721894994078417,-5.968244646813226,1.4327593049845595
-1.1727130361659186,-3.9660762157883354,1.938300827506332,9.598391384283774,0.5436112396435977,4.532916315265128,8.116735036939838,-2.8856485659124336,-4.079305227690232,2.824435524800978,1.9886085965804403,0.2079020757840472,-9.639525505139066,-0.0033859246740891
-1.8121219480761983,-4.161756015211463,2.0488827423129923,5.376288366397752,0.3429177670501495,3.2245311221195205,6.227500160170029,-2.5419640984521807,-6.701161301039202,-1.753033325312097,-3.742239311407873,0.3302054661435758,-13.685017070607618,-1.445962198225301
-1.8794806284087209,-3.5244490826227195,0.2114929698041532,-2.375362646351581,-0.2330845987542513,1.4246519230478984,4.448888927226163,-1.3337411951160747,-8.397643792279855,-8.335704901937733,-13.482011015582724,0.7877245124368528,-16.94949931991007,-2.84174520737946
-1.8618235377668648,-2.598889460462023,-2.0146674988734734,-11.200057314732904,-1.5099270432622909,0.2633415656120093,4.040877586541308,0.6877016936600021,-7.089863437225514,-11.016841773459308,-15.15293955625189,2.0283937068602014,-18.752659824161515,-3.607426595994609
-0.7020480648637119,-0.002018053463144,-2.816305478387026,-17.374637343508265,-3.7052292459682032,0.179904320590106,4.827983127847515,3.7840408786814126,-2.145850102935341,-10.104659048119968,-8.750513902296962,4.12545542903565,-17.131813436304473,-1.619921404123054
0.1319906278899847,0.1813585918708892,-1.4387597352492725,-17.87781209501218,-6.571674106071101,0.72007705471293,5.63951704643683,8.757883668791647,3.886227619986687,-7.4595791048487134,-2.970455232741935,5.424980189915905,-13.211277377922206,0.3507710057672895
0.5575309741381415,0.6387007418243112,1.482646061967074,-12.404910538634866,-9.271224929403704,1.0607960277017727,5.510728300886996,15.818335354040222,11.6929420686702,-1.7652840606272089,4.663101955067778,5.926486948745782,-7.37991690008432,2.1896566801850272
1.3766850060307028,2.503904143907026,4.5869761242940434,-3.676578071168983,-10.75012667852077,0.7115107438260795,4.428707699662663,18.467467023056127,15.282975599067862,2.03220319927806,8.22558077964005,6.394779890657663,-2.2626487961128143,3.183736021713204
2.152760615597823,3.506081229776435,6.737254239475689,4.463525134720214,-10.41784160350176,-0.1651355357307182,3.122979396709315,16.393054293078478,13.744917282684854,3.638056264001704,6.078233867652374,6.447359625431303,3.569762840522005,2.204776511886533
3.6776502742985504,7.581566070160671,7.583240087987379,9.64634938379904,-8.567039875008406,-0.9455199079103318,2.3688034402616767,15.281858050924084,14.252323132950464,8.743624972273121,10.76363046351336,8.158361370055735,11.55597110571796,2.4248524369143785
5.556485858320051,12.058905662484785,7.550867704796882,12.019043986444489,-6.131308799906202,-1.012985334003166,2.484878331366499,13.726573107779874,15.373377414829813,16.438606029479004,21.088815539132177,11.737812440965984,19.273337195947622,3.3284775883958546
4.715092117632133,11.104242024066275,7.4260907729129215,12.946545938793763,-3.967055193519421,-0.2060155430592427,3.221331655237302,11.279316251421756,13.40913326053708,18.421060939967635,23.63205600037092,11.640990994980266,23.8949543666956,3.075718432342191
0.8443385675929004,5.144953607060616,7.787963357791838,12.8982697761279,-2.294092929795712,0.9503864140919962,3.838988882766144,8.67346661446718,9.134187263616225,14.901484415486538,19.7772124961142,7.981644334488582,20.707998819103786,1.6572929519341777
-2.4292291026140065,-3.029324837176128,8.566490875029622,10.845143167922654,-0.7664193708969265,1.375626544360694,3.3103760421434014,1.9461453645751985,2.331260855492681,8.781086836944915,11.377619797368514,3.4748139599910948,13.47442235586688,-1.1506763206861528
-6.233721871727539,-13.214863575011275,9.02981885062751,5.864757332974218,0.975849848709622,0.0046228851188168,0.8201395124246496,-9.082755067835746,-7.684521932441854,-1.8939762299649807,-4.409526438530754,-3.0821016903520824,3.969619960103021,-4.894597021136444
-7.085464770472331,-17.01393759193168,8.32496870919337,-0.801481959280661,2.866559330551974,-3.391256904765504,-3.468729643717104,-13.722316625783042,-10.64824822842676,-5.533252970007782,-9.853696067839277,-5.523188584055395,-2.2035817300084863,-6.102496106016507
-2.873839010447747,-10.78002437501887,6.246830412437765,-5.686749899251419,4.499147971512526,-7.6871373987232925,-7.959755320617923,-12.053613540347891,-5.919308924287432,-1.2339075143341165,-4.167249860772385,-3.132222595988581,1.2382190413261622,-3.654768108608776
-0.9193909053598256,-5.076771675851026,3.5820677927298847,-5.54348868803347,5.5684705607463165,-10.77205483096012,-10.180592700523428,-9.9186276140978,-2.9142104924436807,2.2769081691954733,-0.9047484540100592,-2.3989413142302736,5.1963072528772365,-1.2705878381895686
2.114243524947073,1.9292699167996816,1.6183638208604831,-0.139414794618081,6.146905992119193,-10.803186057483217,-8.334491953650572,-4.971887391638479,0.6133730447937602,7.779785997736699,3.8346526360045,-1.907186027970895,9.963159033296543,1.3212401639950528
4.362858815018408,6.202156614230953,1.1333953671374033,7.324808411915029,6.511995656432073,-7.536221251461405,-2.8067304803298088,-4.234925943247148,0.250998405788885,8.145151314401888,4.156482840495386,-2.211899616996006,13.383838577921308,2.482509965805081
1.9426649725043756,2.507474393064326,1.705660327370702,12.663814234553035,6.779147590581386,-2.649976376113639,3.674533973735857,-8.736561145626434,-5.788438988872136,1.816519350691407,-2.0902182882353664,-4.351474129034583,9.170920566837488,1.0364691366982952
1.6735236693059443,1.6686727017148708,1.9707846191971796,13.719950539491196,6.812833961417383,1.3329345707563034,7.60400160310663,-10.874495136912302,-9.5755320020554,-4.236753444542587,-4.966193386640178,-5.612903565394585,5.443981635856008,0.6274593054197888
-0.1581754238595812,2.176915112596991,0.6565716599463487,11.230676521249276,6.540611370668706,2.792378789199196,6.984498077577344,-12.316282132313695,-12.448737646187697,-12.058632234313553,-6.150491169371466,-6.399812110305727,2.093113169458105,0.488045878819862
-2.59977196232326,1.9212170720781387,-2.401349498009945,7.205146011879378,6.273614280844716,2.094392632714804,2.677247608472692,-11.266194736713889,-12.488829720702068,-14.950095001596138,-6.619314862248511,-6.209705837419869,-1.0289946932822958,0.2801458138864325
-1.1715290113425352,4.008969118540455,-6.011863442335883,2.9687241613604645,6.542287856579249,1.1841613623629377,-2.1809983625484524,-6.4035484986092985,-8.117766966794038,-11.502395285053586,-4.73940595414891,-4.507191681952477,1.292619442290328,0.8057873364346969
-1.049324453249948,3.779352286436712,-8.29991665599292,-1.053784715740477,7.451612554989411,2.030000337691304,-4.274616169501705,-2.0296848515369725,-3.0838293085860387,-8.589231022895108,-3.5964826118062554,-0.5022568803396354,4.193081697052635,0.6753545605362111
0.5724700528781342,2.056289537248912,-7.84240457458152,-4.164702090204687,8.157168944041446,5.110171868187621,-2.241267121003668,2.593299299696929,3.6044018607468353,-4.328037290882035,-2.927952450768045,6.314269177335705,6.745742313063383,0.7651517562904985
3.020494607171974,1.171920498773589,-4.579805394771778,-4.958167623784959,7.115777085531109,9.028682746036369,2.5958545059591103,5.345699276221113,7.629368503063938,-1.926129640052,-2.4174341574959755,9.487310502770857,8.103689233177668,1.2596818770573677
2.038294847725783,0.2525657205637756,0.0279076814728291,-2.7238809636674883,3.1430799825519973,11.471507350957932,7.306066371786443,5.283393822895156,8.132411712425391,-2.5048411179300936,-2.673737437490484,8.889246037172796,5.037730159195871,0.9445059821187072
1.486932170060505,-0.8882014425639202,3.742338361709136,0.8302551597579733,-3.458141255440033,10.794389539903484,9.408044855257527,5.836996746637179,8.463071554310298,-0.565583631103641,-3.045046493383866,6.7082302203025215,1.0133086704004783,0.4688166508609387
-0.4615133717283333,-3.523621266518663,4.833770518693056,2.020235423006911,-10.63249267171952,7.168655974323665,8.447276493118157,6.26003012489655,7.309913467485744,3.0042784723415434,-3.710594485063762,1.3079598346706445,-3.733734224385113,-0.7828046104014811
-3.1770543054207407,-5.069300168632524,3.1570686881553414,-1.836837967120319,-15.52029998876352,2.5406479156091013,6.0162788099570506,5.127232636543514,5.816434334599128,3.4743803741545696,-4.481137927618922,-1.358865877612757,-6.599085714908979,-2.2864160549845547
-2.844772922828428,-4.058644946960471,0.2422193063466391,-9.516176574097162,-16.070006274080157,-0.5836374215631981,4.270977616823801,2.785824251644057,4.25321782710727,1.3437925699541655,-5.284437799680005,-1.0043425019896446,-6.092788685011764,-2.308247262000486
-2.22695102038907,-2.6428036506786934,-1.79512055497492,-16.09306995091292,-12.27023978284404,-0.769795360918323,4.103445646161068,0.7365006178145631,2.88749894213599,-1.368776166139236,-5.532527943724946,-1.3174432019821771,-6.115120310231319,-1.7552393538398
-0.5477214803114651,1.1445542144326286,-1.8184371741654743,-16.494094454324667,-6.2026042979117495,1.3713800984648064,4.398417449558703,-1.102697855788892,2.16180135009998,-5.5397006791894015,-5.0788052230618685,-0.9178145448107922,-4.611247647470023,-0.7330036768817965
1.897325403574432,3.808781552580165,-0.499375599026937,-9.40606896347573,-0.8704012856100682,3.577017222092344,2.970565581378528,-2.402789057820756,0.4831433182336282,-7.1423333838050445,-4.636540554689583,-1.6310589910822104,-3.2698091998046177,0.6447139351081099
2.1925143897945536,2.031712484874198,0.3436402673111125,1.7781769064465571,1.5124679475377771,3.492645449392404,-1.557835408826021,-2.739384021285113,-1.9725880782659595,-5.672350545336178,-4.027153430110423,-3.880209310281949,-3.378731043133436,1.2733680106142828
1.5395706829097788,1.5516119704519535,-0.559094958679653,11.534754798849324,0.7814176248575784,0.3372635224158085,-8.456776639857514,-7.404114666143201,-6.968404646847001,-7.409639669316009,-4.548566184156235,-6.137970418474381,-0.9993255468610924,1.1327543784760477
0.5775938985221412,0.6773269396875741,-2.632294374095114,15.88814372027601,-1.1313014895845388,-4.537223685795125,-15.23059298727796,-16.61102671686283,-15.01231191082592,-11.622857093307568,-6.426022205301716,-8.937420021706188,1.302414192066531,1.185704257484702
-0.6860104973387129,-0.952872538241755,-3.7834310332138426,14.340856677062034,-1.4678333488694566,-8.620650993388248,-19.330616219187785,-20.372892768202234,-18.20354853683112,-12.766840395124378,-5.946210264641087,-9.43788319570694,2.741815228840216,0.7444030175337045
-0.923269440496418,0.0671067307064898,-2.218608160535144,9.209117669436042,1.4710819724445925,-10.022507814101573,-19.863097810734686,-19.249816686163197,-16.505458798339603,-11.593496407677376,-3.211535530466468,-7.241690533816548,6.121441365165081,-0.356451215484789
0.0121327488516333,0.0576293764987358,1.778090925197905,3.635695550413868,7.048499669626025,-8.711861507953927,-17.984364423952396,-14.396247617642574,-14.453800870654687,-7.329660386622621,1.5419859959556392,-4.501051501708787,8.926667046907413,-0.3900468121977825
0.2746055708920427,-0.2111337068939452,5.750462851982695,-0.0531630461027941,12.589540871664434,-6.324761007255036,-15.804596206671926,-3.456537867293695,-10.299885698565353,1.265778899910335,9.263752640315383,-0.4377357398955672,11.28172002831707,-0.9373436004864836
-0.0065365108305606,0.8621423081007358,6.921410889754892,-0.9796569863500348,15.167652040520066,-4.786722442760976,-14.80051059193893,1.3925140726261829,-7.676087112954313,4.996057915208532,12.91167920012818,1.3484084707961723,14.261446349797971,-1.2126943452257215
-0.5782620259147814,0.8531939930993077,4.50141845061304,0.4117872789656953,13.616001409872975,-4.887088237073334,-14.964684670024043,-0.10882382141173,-7.230617621073156,3.8048537442190415,12.231417850794967,0.344785192817393,13.913469192444332,-0.3615076475927841
-0.8827794299583421,0.8673221597686617,0.4472860606420781,2.8777266103153583,9.220461692306364,-5.878582415515266,-15.13780811889474,-1.1629388821032167,-3.850194106718772,3.018759863342165,10.428568410145823,-0.1196908515000955,11.943489833299443,-0.52814814160395
0.8146554093320901,0.5170836199314262,-2.0661703546367214,5.119265013797786,4.57088355774777,-6.279768189965029,-14.003071406224514,-4.528375347720886,1.682508087344719,0.6291614074527044,5.754734598770026,-0.969526212781572,10.566930060085516,0.2476352181943134
2.258498982817909,-1.3831108655491278,-1.2152485708477627,6.439519897956858,1.5817246986359432,-5.121598974731128,-10.922340989895517,-3.945414943028015,5.04706088455367,0.9155224690148216,2.593975486008513,-1.2578905091620831,7.026482654285212,1.1259438462848443
1.8056954029668373,-2.8315415910341555,2.029969267109536,6.806387098026798,0.3580632414009415,-2.6402989538707318,-6.208141686757971,1.553358781783172,6.758032598500064,4.665528061106729,1.2886061865043026,-0.5036367751758966,3.422767235409492,0.7459549351018506
0.2288005153601624,-3.0547050523834303,4.773154647964805,6.175809201642927,-0.2708827339512236,0.0237479930758279,-0.937219759305462,6.2586383041240286,8.469239397069458,7.670596068272284,-0.6729900133213367,0.2611157389818503,0.1421872202854213,1.3567874455886422
-3.3765082981327024,-2.591196625080615,4.5547571024586855,3.762095075627734,-1.2911267071369537,1.752268151590835,3.4866033724265897,11.764937088360204,9.395485890098731,11.055774378307856,-2.203769597886024,1.4278248997753342,-6.214371396861775,0.8258938541095805
-5.164372642413414,-0.5503621127910675,1.1885529398425154,-1.7193037877690385,-2.617235994327153,2.225458894226604,5.9515719815785015,13.54463248479776,10.193879964902498,11.794511434256243,-2.491068670181569,1.8987383736265824,-8.835066152469595,-0.4707030517553017
-2.0404411582901223,2.2383071663982856,-3.343611469985526,-10.636791627146994,-3.5353312704394604,2.000091315231562,6.295526522076534,10.482789461602923,10.97219089270265,9.071667128255813,-1.520615061753199,1.5165045659786782,-6.258704339515159,-0.1999973268912577
0.4845126680384779,1.3562505011569468,-6.593547832633732,-21.013251376903927,-3.812802806151853,1.933502525120601,5.553870343289077,8.904583920881924,10.36590560558582,5.325275850813508,-0.2975553260262294,0.2509066501902614,-4.0332469409783736,-1.05465238515552
3.148631706462934,-0.1582941269288399,-7.343039933889681,-28.682036433123905,-4.179059570845776,2.465321957168348,5.362447938875626,7.627475034436717,8.444391523563997,-0.4565211533844863,1.3609368619041855,-2.281079325440537,2.350949753114045,-1.4484482970752586
4.505120954926833,-0.3589811179228809,-5.984390130289766,-29.456980549389836,-5.622255851632429,3.3098798468247503,6.736556639260457,7.654435900397523,6.685094567032391,-3.913766539617381,2.3738272971584875,-2.0851138654348387,5.3977803979458905,-0.4277665325700752
1.1843124875390605,-0.5763051806858375,-3.645037331004799,-21.92003238634412,-8.230554416654149,3.758075493425365,9.211488801212726,10.138675926891551,4.901543185940546,-4.527833699740508,2.452591664936831,1.0157740163390263,1.83290109569527,-0.401773406858281
-0.3637548929548273,2.9318750430637817,-1.1653579835511767,-8.695035189033273,-10.79714228176065,3.3136463139911143,11.25137511843358,9.422181668434495,1.8466597548227683,-5.074592022910094,2.3737309234409647,4.301107367094499,0.5341327284596248,0.1953075126218853
-1.185917555505292,5.868087446454129,1.142931027090774,4.811195412656406,-11.660636772603192,2.1426448772995634,11.704480140220838,5.807451850060095,-2.2963078132282244,-4.366527065933033,1.7575419533592769,8.695529362004708,-3.9749149985194094,1.049751164225658
-1.9759343134329448,4.503895236636106,3.052418756502865,13.269607646041155,-10.054166113951418,0.9707319759957064,10.949502108528751,4.11726547048426,-4.57951674398541,-5.169944666090197,-0.4439452525307671,9.970458820269387,-7.468661300645485,0.9272144722526112
-0.9364093336734838,1.0673858034721724,4.084584900280959,13.935123349775438,-6.7621178947062806,0.5148327565246595,10.527956158722404,3.485206180781628,-4.9537054696693446,-7.84773418986777,-4.350437821764555,7.462402477260228,-6.989961169978498,0.3810768892284813
-0.6098380588586401,-2.947689071671898,3.786040171420834,7.476646414728885,-3.520164381295029,0.9333610279240404,11.532239804670438,3.713829312315714,-5.516971377310106,-10.846256108394297,-7.646059553413784,6.154923347072208,-10.225925721659848,0.0246790012932864
0.1616734046028007,-5.236855757304575,2.2726339157469893,-2.788052557297142,-1.697753048930617,1.7727081253120271,13.366645907790994,5.656505737119998,-5.62118588871709,-14.934534078409158,-10.472375493940303,5.037995960427966,-11.885352080040896,-0.5222156820159124
0.8481536940795718,-4.294891743076523,0.3019840591468004,-12.407475417863475,-1.3777449276234628,2.4497498042880923,14.227491037921322,5.027020469655345,-4.684298441136667,-14.31858277441508,-11.211996501573806,3.19275457976522,-12.46946720466631,-1.008390572919993
0.957832522911766,-1.3196634257474396,-1.3648502286120578,-17.460327601916667,-1.5468436546081867,2.814137996442875,12.914057258888183,1.7756076296556829,-2.8634928628308614,-8.421149496529697,-9.134539535896774,1.3171101637202904,-14.4869537638508,-0.1971143115807248
1.9723863896775389,0.4474578155040999,-2.7238085971530523,-16.163052174008058,-1.1456736097633078,3.249376809507832,10.139464543967224,0.1057481809231919,1.758953544058479,-1.5974028605989168,-7.838883526550558,-2.4373650546132035,-13.608445701014531,1.0690436377432295
2.5067400397939275,1.3540343366511858,-4.596019686622675,-9.94848761266248,-0.0275347944060824,4.207193794667528,7.915803973984762,-0.7423077691892773,9.484003904649724,7.624801269715527,-6.831358447862288,-8.167310305443909,-12.916898127567356,2.4390703559833087
2.6078075543706225,1.816618440508143,-7.835984621857676,-3.058163049429524,0.9981466767675862,5.627953517874114,7.517187793366444,-0.98213585132941,12.081401009253431,11.014311904511482,-6.614556952987274,-11.08969537982991,-13.640059708885206,3.210905842982122
3.422103688443667,1.6695410521638203,-12.37240161981927,-0.151905812383168,1.0443373266897238,6.835188679401552,8.039684976855481,0.1087467070880493,9.406783705320054,7.367400286863599,-7.935390528289812,-11.254127623834362,-13.48909982791754,2.753855583666387
0.8796532825373482,1.415013315986056,-16.96859554161691,-3.075259644050102,0.1412908820459737,7.051768253748462,7.093092410264925,-1.009200096072557,5.1785522386249765,5.889920631397457,-9.234382424626824,-12.115892487698716,-13.84404223449471,0.6960638579713265
-2.972017470460437,0.453721629681987,-19.93357935144109,-9.24857903486965,-0.5787125739948378,6.077390268755809,3.0966977024188385,-4.383157440275149,-2.59956740892295,4.599861956420571,-10.895388334956875,-12.7206196609195,-14.3774329466769,-1.6037442106848183
-4.42315142309851,-0.8245366280170473,-20.168599576725327,-13.376024750676374,0.2613422089837405,4.481525066336702,-2.968687073161661,-5.503478940360331,-5.773435017023702,3.809533296740194,-10.711011037579658,-12.504551334403391,-12.7027710452576,-2.395623811857175
-5.49022591441642,-1.8814080282650048,-17.706870341894465,-11.464039662288013,3.075934979124248,3.10368652461173,-8.0678110893585,-4.893329021660559,-3.605027612964549,4.949712766891798,-8.26952302434477,-11.83765324727274,-9.462526441571956,-2.981701416214965
-4.636724451611631,-2.1526803963384413,-13.43680377109692,-3.8872300774587383,6.804694099147725,2.310931092652467,-9.502759726255285,-2.987700772204972,-1.7110910950003686,3.1903104522163703,-4.201554207541394,-9.190003638216886,-5.820340006342224,-4.015948585958009
-3.931399806348036,-2.327100464062244,-8.406383840843311,5.160710344398559,9.58245112851612,1.7139823551538529,-7.072547606001461,1.1341006274532532,1.948480726678506,-1.1533185218110025,2.264842747387785,-4.41296112402853,-0.4385654960460156,-6.477127866621722
-4.351853770766094,-2.2731901926658744,-3.328969291980802,11.3235682897513,10.082396165539064,0.6257612801358006,-3.1250803018731714,1.530502915293085,2.422044038268309,-2.428102863114169,6.102614211262151,-0.7618192497282993,3.455004310047042,-7.827103072029509
-4.23072340331873,-2.0567554150094542,1.450934897698536,13.543466104756808,8.444392488202157,-1.1663520771983809,-0.5628516296103703,-2.0311497441772848,-1.1794118891048428,-1.1624676070513902,7.076484444145167,1.9256096661964892,4.240528368552222,-5.584627701121729
-1.417207923604154,-0.9551584441314576,5.748060892639279,14.318503602506595,6.055832866948577,-3.075010780302474,-0.6311804203304625,-5.174848955581571,-4.859309843346598,0.0697936118753096,8.232351110926977,5.947890546085468,5.474298431494299,-0.1772494656181708
5.541246902030209,2.0341251590613494,9.41086550948425,16.816137532250895,4.4156803947500585,-4.196103516511846,-2.317272924817355,-9.20851482608939,-10.009565155523584,2.3039019963567573,8.373785005698739,10.727080324774072,5.576645696652506,8.720478643077012
9.87614474589573,3.669279886133189,12.348248186540236,21.7069278058969,4.040184957384157,-4.17336382515995,-3.585124457821204,-10.383054516490088,-11.863325974447708,2.515558698791008,9.529494963245517,13.058304209147495,6.148395490680205,13.155335199745531
9.6157794921127,3.28788286058653,14.54197881961206,26.51244589923784,4.2595529170742745,-3.59342899991036,-3.10542665220693,-7.840719841671266,-9.642702083118634,0.2370262405403421,12.070204686025097,12.934808972821944,9.314873814388536,9.90998928093274
8.180609909065781,2.74585199887021,15.935719308434138,27.6841147506467,3.956691678304327,-3.4631920226487933,-1.0155116703248837,-6.129022302257637,-7.404500271785853,-1.6152391405334556,12.990806348823895,11.68951221832626,11.717254129543418,5.868169045398647
4.125337826331514,1.3700380218088015,16.32541996063484,23.27917029697169,2.545354753932786,-4.216272084371387,1.5730890736648906,-4.234503159020557,-3.848441232260587,-3.809215973620628,12.707910300406612,8.529454171671892,14.24036183401693,0.0898268328568991
0.7320660716230649,0.6754901013742972,15.438938488418035,14.08026002388851,0.3920791894424003,-5.220111272866048,3.4682219976672144,-2.4467364343956977,-1.797231151575809,-3.523477001434539,12.040736784849903,6.68137399805593,14.578513762643713,-3.490061435543007
0.6428115581845174,1.4553473585534091,13.185795237529328,2.8296026786340693,-1.5605330540080402,-5.330246546095907,3.826036733059226,-1.4547106208319598,-1.9029296220129333,-0.1083753455691411,10.484629034824938,6.399040208297868,10.995805091511196,-1.3527047408947288
-1.7809371861810706,-0.3301029474184114,9.836691956010092,-7.242323792696133,-2.5582375921038096,-4.0175233076274,2.108809755597676,-0.133625843309545,-1.207401678234708,3.542271935327498,9.527843954341924,4.560070917714414,6.784567488071184,-1.1807670220923212
-6.057870824580462,-3.879327672278776,5.948066160602547,-13.534126792002528,-2.557882425245735,-1.9748526088211351,-1.8443624568296428,1.2046678727479112,-0.5106738726408462,8.257862527692552,9.284895914864892,1.8571910855932143,0.0906327862710241,-2.143731984423669
-7.014114617910789,-4.646241367293482,2.118376148983278,-14.78151330873706,-2.1760229905806696,-0.5730318981949747,-7.393544742363704,1.773885322090467,0.3007170313834837,9.80499537968831,7.474587537077003,0.0781452995928522,-3.950552690241203,-2.13521121847618
-5.910200479451251,-2.501574929769517,-1.1837801208168006,-11.660671229483414,-2.197552130725465,-0.6664134617257567,-12.85262101180727,1.5993122985985624,1.5826269683800511,7.4384398930362305,4.322015305530523,-1.0628572253027189,-3.2612082021782456,-3.7136221979303023
-4.691255764383165,1.537485424116296,-3.630687686452252,-6.9411684082271154,-3.034854580070002,-1.9129317478019008,-16.11271328341865,3.2796489841897736,3.941594821819972,7.192056929126275,0.1487766683246271,-1.705987310370084,-3.8713944138112666,-4.929747023495013
-1.9255849747893243,6.507605059350651,-5.027700176655923,-4.364168074158556,-4.462100118260084,-3.253081086547321,-16.006479819921218,6.861721516568289,7.638060767044994,8.111577829561245,-5.5187912035839615,-1.494920174792951,-1.8974281503264447,-5.405132264397734
-0.3003700127789754,6.815319628014168,-5.406198505450174,-6.240248217227961,-5.726882978467474,-3.991404171979784,-13.301653612165152,7.84338418001505,8.90668666321352,8.159403536058447,-7.508693445794923,-1.3246077253821131,-0.4839497268779295,-4.805557367072043
0.1911671953676636,2.4959138087896253,-5.086842927764069,-11.350533155957244,-5.952789896203512,-4.306575890999974,-10.213531831172372,6.518641307700719,7.695084649613968,8.24118797627198,-5.458076211556636,-1.1364422401716143,-2.39906241066783,-1.3917673267113906
2.9112986002371226,-0.4603059922672792,-4.492858889787889,-15.263167834310636,-4.653064727149005,-4.667398208409344,-8.558679374733728,2.027642732972384,3.869998604145199,4.84791932959858,-4.041581813362687,-1.2537858087363527,-1.5149888220969283,2.75256284516497
6.703594103692828,-1.6032792793251502,-3.789560595544605,-13.53578120387671,-2.1268742981096667,-4.880489629382293,-8.074107083574727,-6.812194689300389,-3.6572498385707024,-2.48098862586329,-2.1032568927706907,-1.9113503986651723,-1.109756383248658,7.778609192081792
7.506494749541439,-0.4648543457001121,-2.7777982333700084,-5.596070771483223,0.5045559937291806,-3.97182011630405,-6.558402958626274,-10.852634314737664,-7.59557155535773,-6.810949619447225,-3.2472154456667903,-3.654938507910363,-1.92197125525494,9.053741914103217
3.76218121880675,0.410740820173657,-1.3272262420887992,4.060679220990308,1.7747860840820593,-1.2163243280928588,-1.9891879465934936,-10.054366905244576,-7.855212644398303,-8.634307705752194,-8.480802420730637,-6.762677611466769,-1.2585262042548575,4.06371804404568
-2.1056775919473782,-5.16473378116235,0.0044990382800169,8.85768894081568,0.7446983466209796,2.7105162931067737,5.138551550539041,-8.664896957385846,-7.416673525083534,-10.931437735231071,-12.447087545785008,-9.071940378616317,-1.8247406998029936,0.114941917898859
-10.517240777581192,-15.342214202337388,-0.0397859546809149,5.261284289674434,-2.2057585510969253,5.808331400991216,11.493764214143482,-4.585171755858205,-4.538764114137032,-12.36431704536384,-16.127824636292537,-10.682772513719245,-2.839661278291705,-5.133932620297628
-13.936815078633623,-20.233890820121623,-2.4601345865082243,-4.090677768706019,-5.295738946164888,6.241273554198995,13.238417375729172,-2.974734039024268,-2.559867411311021,-12.652200183137634,-16.626412677545805,-11.118573303387842,-1.5978111452270911,-7.472191903713773
-8.357218079846401,-15.035748569920235,-6.762613788795287,-11.97575214638411,-6.274550358112208,3.929444045415536,9.20279052968663,-4.358121044525285,-1.6631534285323093,-11.862415877216892,-12.747084581500118,-9.793012645745758,0.6213010113922404,-2.821914111327971
-1.73110975189186,-0.3200093093738199,-10.695797805377431,-11.78220294005963,-3.924228975802452,0.685369918595728,2.111013188770082,-4.381433032153579,-0.1701243921511201,-8.259261928065152,-8.219907782685134,-8.486616514349448,3.3031079369302576,-1.3044408261675973
6.99686697203328,19.63736313535171,-11.52703936212367,-2.2798620504138567,0.92836855348225,-1.3147580219435555,-3.4057716017235484,-4.247587393675872,1.130414558787756,-1.5621153525323592,-1.978820469932448,-6.919057101927791,7.636854304102768,0.9090435035033548
11.837981931176646,27.84007472860792,-7.9893783303257795,11.619346738365026,5.799107695967991,-1.3248494881251869,-4.447677846466549,-1.4113344380066646,3.956848822541739,4.24210454611047,3.5291218304852188,-3.5239384588134635,10.54267369240143,3.45527116541036
8.410876974683386,19.49453865511878,-1.2575414991029188,22.43156825024744,8.223856925331237,-0.446840606133386,-2.028497825315001,4.901413911286268,8.498960753335565,9.38724277563531,7.6678935386164655,1.5469655672567864,11.848438616153423,1.7111168456341197
7.200988366932617,8.235568286204076,5.926463489697134,25.116544441469568,7.47773584257544,-0.3949106745801236,0.0775340624954417,11.363251849837514,13.767252218246863,15.190300140927713,13.43806229411869,7.294492834295903,13.957328374268172,3.5235800846707352
7.408660852978288,-2.456986855619581,11.206314192813531,19.96443182263629,4.912701314985328,-1.8902399750247405,-1.2363302860573464,18.73237998829284,20.214238408744517,20.81384614642109,20.14779835508947,13.98187443229149,14.884160164886758,5.381624665802863
6.021143298784501,-6.283129423262539,13.928909238773809,11.703699635670755,2.606860604259138,-4.178469083396996,-5.731235409775816,20.21180346005374,20.77508948697991,21.776208231514524,21.794814331021374,15.644857598137085,14.185317401798356,3.862715082306844
3.958311318749999,-1.0100544104298472,14.81320602835648,5.875922011770247,1.5318264383818727,-5.908289855074892,-10.129709081177126,14.635811685743136,14.711639168437168,17.518952648645893,18.17982098803002,11.532180467671116,11.632568567909267,1.9816664512432411
-1.850587920788908,-0.4402978529904519,14.599682913672702,5.10272969006653,0.9185701201608624,-6.280385711942918,-10.919768577950643,9.364736157464746,9.25788969923591,12.28936819753514,11.78707504871704,7.745585871817597,6.819162444343633,-1.65015262058308
-12.016866568405048,-6.255988757199111,13.2290350968253,7.660639984533391,-0.6062905133708689,-5.328456224188539,-7.073065117187012,2.618063498169105,2.7749147276613577,4.909455236965136,1.0417444938137963,2.822397377409762,0.3946731210976455,-5.195228001830174
-16.99171559817331,-10.338402900652396,10.372445629071388,9.19546917193934,-3.254928906571608,-3.3287324247262733,-0.4659175460614193,-0.6646757754839202,-0.9209587887009244,-0.1257941744696466,-3.872035654370139,0.6985199285916814,-4.164408222678038,-5.677357687976326
-12.472304255440845,-11.232318149851949,6.552495901531403,6.337191458918115,-5.4856582913775735,-0.3037405257649759,5.944846295981206,1.0221491663799125,-0.3747592991777843,-1.858879378780348,-2.1159242958556983,2.623286812218628,-5.076770441866131,-3.9700691261515977
-6.018094038731181,-8.948702770605848,3.364151368132706,-0.47479318683299,-5.283987507491124,3.675127391262519,10.25511795354412,0.4516161799227752,-4.305582576215448,-6.0324573274773305,0.3246457025987405,2.911063853888446,-6.1985406457604295,-2.5116402967230185
3.9574677369218456,-2.126653922922606,2.2695553862501185,-7.330870893262226,-2.1690064546949994,7.79614986360369,12.275793531416255,-0.95664416729368,-11.78509238803629,-11.483818553286849,6.098323628300151,2.726821004049115,-6.405468857919657,-1.879507639215004
10.697872462988034,3.089939400509375,3.113630643044542,-10.362811637137794,2.0309564017998545,10.464260899559829,12.66839998727776,-1.5683626973350795,-14.149384612100423,-13.936326979716329,6.7157407676514165,3.1729666204939435,-5.870997622262003,-1.378846625736422
7.943219471618726,4.135700830655104,4.040318764217929,-9.505936990537702,4.515833099698305,10.304847113136676,11.890478352211762,-2.3652535399366728,-12.35804032256304,-13.854772759024137,1.171926452114324,3.488704447359936,-7.612142976893785,-0.3434733607838776
3.544033722671468,4.166071658130073,3.162096116551861,-8.793335280446753,3.863599302130922,7.387873609391658,10.049737810078254,-3.1496763938947825,-8.70000564367179,-13.78649093160351,-6.269543629171421,3.5275335077461007,-7.776642797881691,1.0079940759524284
-2.562725329137199,3.125038149850647,0.4470448548058066,-12.231611313547576,1.2762310723135857,3.4166723018760194,7.455457210700255,-3.937091368170506,-1.4831974290727925,-13.004679565380732,-18.004409753197265,3.203540873038503,-6.291442119923225,3.539911791954368
-6.534843255546117,1.6682910961765822,-2.126263782000453,-18.722261537404496,-0.4492145549278312,0.5411558959359404,4.863756556781334,-4.8092848083739845,1.4836013682982927,-11.596715841688871,-20.33908284388867,2.397863819687995,-5.76159841746695,4.937647650842363
-3.3938877928171074,1.325548867040252,-2.4461438375444065,-21.31285154489145,0.6654568890277908,-0.207005823841806,2.958431093788363,-5.773166822715695,-0.3250571891594808,-9.89358213287656,-12.079723060171297,0.9731439366794016,-1.953160176322255,3.4232743689909007
2.5047292362593327,3.8953579530091087,-0.3834632948640468,-12.734846345092258,4.1315663035405485,0.5155151158781202,1.6985389609632229,-5.114917280389966,2.070709967577851,-4.87257054328424,-2.2337294235116865,0.562281776258505,3.4429942951863195,2.724558260249046
9.312066859118843,7.320585556913032,1.9880896601078817,6.946682492587748,7.5437346147766355,1.1922238688696396,0.4259169079431109,-2.685742683785851,7.181169122268195,3.5975836685053046,12.686710813918168,1.2176932049674252,7.746059285228794,1.2389085410879062
12.195800429487498,8.37555238761622,2.3439302396829422,27.859456319235427,8.7322729456432,0.7909910100313375,-1.269253108634837,-1.5364743054150425,8.353738636959404,7.04348731429233,16.648064732236936,0.7237304333081447,11.496039644852994,-0.4730697204634482
6.652063523354795,4.634890923817364,0.3196544635878346,36.60679753776596,7.496803563858544,-0.5805534055633075,-2.890026361606042,-1.4154647182547753,6.550814912769273,5.501182066723603,7.515412201023095,-0.6656774041711981,9.61216783547115,-0.3225563181198922
-1.0645919023409434,-2.1579647242164337,-2.2094128229009997,26.944666175636257,5.401934475549382,-2.0722397373269423,-3.3971449613911187,-1.4902095500262738,0.2475115042189355,3.2240582576561847,0.7071988947911986,-2.312340341799591,4.642592954568146,-1.2233610778711068
-9.065233208454016,-9.441792214201724,-3.042409430416061,5.636095023133802,4.020266452347789,-2.899837787979393,-2.263182338663256,-2.381127010214025,-12.100387348397136,-1.7022641546448516,-7.747888225922159,-4.625344103555034,0.0952007369252988,-1.8609453039294208
-13.172573336681712,-12.613585658153887,-1.8595295694327447,-12.310470047671874,3.434019424737965,-2.765927636584969,-0.0623798024491595,-1.681272316724543,-15.88591217172014,-3.0373307190049266,-10.387593046124689,-5.307451908176013,-3.876331882916385,-1.552920797576769
-8.637929104702199,-8.043882564820112,-0.5753702735510027,-15.556403397451252,2.409809849197246,-1.7481852995571252,2.0784022994222155,0.7485492575667608,-10.870082405116854,-0.0349009218458612,-4.478487627738586,-4.164677532549699,-3.198608587637903,-1.7685281986178516
-3.1088736725020616,-2.3447862265906267,-1.5415941576748144,-5.359966783142212,-0.0862405197017315,-0.0827528493859945,3.5751096261761184,3.809473628138925,-4.828920570501251,2.753958295449191,-1.5844982665111336,-2.971233386320249,-0.8230276766582426,-1.8519075657338853
1.998044932315101,2.164811254248637,-5.346564437803897,6.2398174304551,-3.65844668655286,1.841571130292728,4.815778221485551,8.11495583205617,5.603134216714184,6.950259488159281,0.5752859886023894,-1.1730072511544998,0.1798667928237913,-2.3847965022705093
5.687163482351244,4.129454807409562,-10.228903817690924,7.215490394315811,-6.75556009442552,3.4527240992591697,6.450080291699671,9.004243675619918,8.987875659645903,8.43351000924727,3.0053826083285573,-0.1646222774517205,1.3191147663613896,-2.543856604337297
4.782741643835268,2.483846600560496,-13.499527149085557,-4.322492015496258,-8.09326429582474,4.23590100603645,8.339408927485323,6.045385524963439,3.8954305611079674,6.460779694195877,3.9894008012037703,-0.2627615459148888,1.310013000590876,-0.8881740418692874
2.1086759639130115,0.5120257599405937,-13.545107549641967,-19.29848774699973,-7.780680419044289,4.143545591317501,9.35429298222108,2.210659990183021,0.4453342692819252,3.272284779645348,6.536795355413629,-0.2549752030710515,0.4397863693606255,0.8359059946335818
-0.0072961062683163,0.4772454245988033,-10.680039523624492,-26.103223928212195,-7.117928570468264,3.69205355402031,8.293325495590432,-3.7205674672615183,-4.192592004205725,-2.407305105845243,10.36534543614073,-0.5631097172212735,0.962541465692054,3.463728713299816
-1.6119015436495605,1.7965571910248594,-6.4172403264909725,-20.23256737887177,-7.369958983753879,3.4887317522014163,5.003260074057009,-5.929374537702228,-5.085841136935913,-5.290441963529688,9.739050402752074,-0.2537039644557095,1.6436995819498867,4.881610518514049
-2.119520049454476,1.985712529473038,-2.1935272016893883,-6.916758380978346,-8.693465973251676,3.5745887344277687,0.5928212495161,-3.698424901529161,-0.5657092199681089,-4.965500354189571,4.672441812084174,0.8545418358522063,1.1368574996569434,2.742358691752721
0.0964142909599966,1.7488865049089166,1.2086752137399015,4.42360081366814,-10.079895879690978,3.280498432143365,-3.412633997653879,-2.4985527741752405,1.747810004905331,-4.544691277809588,-1.547477159778652,2.2285734978806366,1.1250110044259554,0.9602391568256314
1.233666304374084,0.003747267761948,3.3587025483650006,7.966002625649789,-10.203641034751522,1.8409166689276129,-6.1065660553646826,-0.9063302785967708,3.2766371895874067,-2.6878588766363425,-10.19736342132412,4.159574847486384,1.0155372792393829,-1.790562575765993
0.7869954844067926,-2.194907100675805,3.844623110601505,4.7699123240741645,-8.415247493106403,-0.7758911240004887,-7.511325879012968,-0.4605048901843235,3.665656333328752,-1.789520951417174,-12.347838279676749,4.510173934258929,0.326356314142287,-3.750674775094172
-0.4426869518845577,-2.856153706511031,2.619996093838701,-0.045485931001008,-5.196018325751189,-3.637678563803479,-8.09334690474742,-2.010493831510057,1.6268412937478989,-2.186586816006031,-6.884460313102311,3.0851322311104505,1.07511092677939,-2.3462990667329766
-2.6322089746192296,-1.930952215980038,0.651039565005127,-2.369040689657445,-1.8674272035218529,-5.490221467477223,-8.15436568245265,-2.49798153698798,0.9197121028759114,-2.1000395150124174,-1.399493045202607,1.716457339865944,2.248917522596254,-1.0824011403275855
-2.010166990715612,-0.152984532729807,-0.2168403745111042,-1.6588919196961711,0.2163464865227808,-5.714792266420633,-7.685037668946181,-2.459124824308527,1.1623528016206195,-2.149491392758223,6.4092499750597165,-0.1052720180255093,2.7508950309902795,0.9522189520557643
0.2585482294310645,0.7958312627781127,1.398998343635177,0.2950148675352277,0.5091870268015164,-4.761660750130368,-6.624881971160573,-2.130365532898434,0.4368728836260858,-2.425722307470393,7.682361683708522,-1.2536124928643388,2.5583155671740307,2.3480040900366084
2.608741434962651,1.8096419012565803,4.879425487996581,2.0027539502779472,-0.4010196809086075,-3.724436861045901,-5.0808482794865375,-1.0223245916780916,-0.6757770495215996,-2.8075264687509693,0.7407899630031546,-1.397828879954072,0.7021210219164805,1.399005532096021
5.266841562922447,3.0244146888233234,7.50437484680273,3.363694651999346,-1.2761707872210335,-3.4800500702006527,-3.275499469040831,0.912418388746115,-2.408037266317705,-2.620221163605867,-4.8769344426137815,-2.93441274625966,-2.4510422858949483,1.0745173497056877
5.792216707097535,5.255098767491144,6.3284027007916,4.628073124947909,-1.2287140900337192,-4.109397806970762,-1.413519729169817,3.866812611777593,-5.008485911787569,-1.7792199903203674,-11.527863931218011,-5.628610193691969,-6.167158294351728,0.6881235347249341
4.32729422276777,6.807651292143207,0.6537571292774107,5.00281531564741,-0.4236045839229518,-4.954104667445398,0.2996292769452218,5.319067672937069,-6.140374448711177,-1.4305856550286036,-13.703483404266308,-6.521861494261346,-8.587672030827914,0.3254409602423659
3.395659155186656,5.708269137079679,-7.074980046157895,2.7712592297660645,0.1887159686544706,-5.108041949343679,1.5706934706608386,5.155481301063515,-5.743480628565866,-1.4490588535914508,-9.580530851982736,-5.83331607535071,-10.077119926942146,1.3507560778123138
0.1048311756453365,1.6629592235283055,-12.87687828173594,-3.059061365748935,-0.0885269477832491,-3.9301654227655103,2.1168019282940502,4.162582484949658,-5.1696081696993375,-1.976445899162368,-7.572683715973215,-4.192074018440261,-11.80048369354411,0.5692388601521625
-4.525099203913336,-5.105886876616479,-14.059767000427042,-11.2722397393706,-0.8969982872465323,-1.35589943329372,1.9392552846550613,1.6574014080836563,-3.878979990815038,-3.273753051107076,-6.068097092103993,-0.946506402615458,-12.477823787820927,-0.9232151853538988
-6.229585314349109,-9.015572627827474,-10.935767173297318,-18.70610068250653,-1.1138647963432555,1.9929102228513216,1.4150412500585894,0.0775765134026017,-2.23653783671299,-2.3956329929720903,-4.269917076556971,0.7196601066771717,-12.802644765004732,-1.3302342745575115
-6.934568826260371,-8.67595777651817,-6.170038450274472,-22.1716510659391,-0.0050000191924972,4.928303777336868,0.9587198305681994,-0.4999264132003037,-0.3487220180306054,0.77817465643653,-3.454981229664725,0.663673671250861,-11.587404028837303,-2.270629255274862
-6.752921803522152,-7.846046018804373,-2.5861503384505333,-20.412967855013253,1.926427304599692,6.175483796863123,0.5416002066658159,-1.5184991097841458,1.4628285127306573,3.695165593286585,-0.794937194177392,1.4121280480790015,-8.110397745780897,-2.35875456971791
-5.658881219876557,-6.978936813618683,-1.357778498577627,-14.553327565907797,3.317339318473412,5.154013985645804,-0.3420841715586,-2.4299010814048674,3.026678277637492,6.976052282684966,3.570969129043319,2.279863290060719,-4.31734510682637,-2.583261166574665
-4.355068723328035,-5.633611141859695,-1.8036239674449028,-6.937094768076396,3.2337614932746988,2.5711750012652352,-2.0857802699905896,-3.473202615010561,3.656392023178506,8.014782030981916,4.518680280462508,2.007985096382832,-0.5183034812322915,-2.8679468554585403
-2.691651782839516,-3.998950201041804,-2.435295915370279,0.3932508504024596,2.1060226636542723,0.1861987659050363,-4.33571944280353,-4.762002719926754,3.0883469246487256,6.186076317505028,2.176636977870256,0.7788821087134636,2.8392450398821385,-1.8600667007055065
1.292230566069605,1.0296830012604872,-2.0773805006611994,6.387445632368891,1.383054728184998,-0.3509128948623079,-6.079904787518487,-5.834878551729116,3.0660603327062983,6.146502270420766,0.699551511629672,-1.1532098392666037,5.682103443312569,0.1410790580230548
8.220552788778402,10.31087932072363,-0.3284858420942171,10.770304689875914,2.2570188884785907,1.2142520905564351,-6.514282490977163,-6.751020818941248,3.418049536397638,7.315691784941344,-0.8565812879063225,-4.043033289499019,9.39276717102015,3.9104745571110975
10.612580795783064,14.488650176533096,2.471606506054151,13.639916908286494,4.694071544192187,3.455200326182545,-5.833018179201428,-5.769637409722964,3.2627667752147222,7.137469940478531,-1.5123199201676394,-5.812586926199596,10.39809769479947,5.551279977381049
7.770194529158272,11.407390579624227,5.331729344837363,15.2892709570003,7.611212002181496,4.357011758470442,-5.051780054317103,-2.6209922381580104,2.88901122029967,6.296223339741272,-0.5329630213414759,-6.313504154321653,6.163496137777438,3.712935259994887
5.382676110728829,7.804513366453449,6.768811009649806,15.947968244474744,9.848742628829672,2.926683809758892,-4.949451909456258,0.3063207961923246,2.9785929443895744,2.947588713017489,-1.9009897958019248,-7.870765114343434,0.7371681066890252,2.116875487357808
0.4988527206081856,1.4637888764543152,5.39877495567389,15.225359873996958,10.882421795167044,-0.0568449795616459,-5.192943024100465,3.406258821737301,3.5110334413878115,-3.4522546264330964,-5.375758717884738,-10.067414670781222,-7.821716687104883,-0.7040923933187994
-2.1828607356528327,-2.503701404148476,0.9461190535182098,11.886112343040338,10.687048504806,-2.7661355545210995,-4.58553758685132,4.448239404572249,3.635974859625136,-7.001261491046153,-6.638322892479215,-9.965332454172168,-13.283316713056989,-2.018007358319233
0.7016221133849071,-0.0598573651936146,-5.065708023692286,4.830210360803548,9.195350891474956,-3.808348476840436,-2.227255939100445,2.769197046301488,3.4589020760004003,-7.888380756671168,-6.191107622696613,-7.670169553383549,-9.76854304304688,0.4794486651080349
-1.5492668347216023,-1.806778610353741,-9.79557699173423,-5.06475629212675,6.208627445292279,-3.1558224571252325,1.5733107180552963,3.027287592695807,0.9676508100239856,-8.811224916895538,-5.609544917890076,-4.406242445640135,-6.625003686934714,-0.0546461580151396
-5.051986494305982,-5.310596915114074,-10.719226688656065,-14.108895559255206,1.9682549557623403,-1.8585591307214493,5.522444727572321,4.715732350023821,-4.224400093450109,-8.523329554270033,-4.118795059041729,0.4841863494321007,-1.3759111661497534,-1.395223870412865
-5.127627887918285,-5.885804446064348,-7.282928795378218,-17.577499214826517,-2.344119756789216,-1.0195260368889976,8.390297432065537,4.871129353056848,-6.528059206786268,-7.75965446269713,-1.73245831080455,3.785480357456556,3.7496349197887846,-1.4790690511828857
-5.658279985531777,-6.90979110459127,-1.234996597919853,-13.276160327860858,-5.018837763924232,-1.024358926351347,9.772665856857294,4.176626992233125,-6.148559057878515,-6.65095748481635,1.5245908615767296,5.193209726324669,1.8200175848342963,-2.8871232487308665
-2.5179762913694668,-5.952307386094433,4.669853241149141,-3.7852927355816632,-5.048970241238962,-1.5407898698093874,9.885452515511544,1.814188168044417,-4.408807481480939,-4.671392826044222,6.362531405374844,8.457596697585826,1.5971624623980392,-1.656661013870645
2.04951885783666,-4.042933935062938,8.529918518946758,5.112789799948136,-3.07197559664494,-2.005746512697815,8.846600120333939,-2.766010665813325,-0.0107247153148514,-1.9904016845851005,12.872100993074833,12.918543699367696,2.3569716005662054,0.1271068085065863
3.0191523470699115,-3.540688730173027,10.231731266957189,8.904117882192882,-0.9723149521909278,-2.02694711251419,6.438887060393604,-4.578893860531142,1.3605854023406816,0.2453161202292282,15.296272663479115,13.932119388422494,1.56992562853709,0.124235802583881
1.5052692707624162,-2.329638036239842,10.875196002552665,7.827499932347138,-0.3062765087062225,-1.4538069418557704,2.697615014248939,-3.623149785658492,-0.5205434503864133,1.9626998469545105,13.292445936446466,11.682658091029296,5.027696461189703,-0.2458109302278028
0.9857694299608784,1.2971252504065416,11.428602284670394,6.138946506689322,-0.9241112785916776,-0.294550252852197,-1.409426624917085,-3.978493747773457,-1.7308156281693745,5.545557786543317,13.091398779443589,7.763162563227517,8.54703017815106,-0.1535899302781658
2.2463736116095694,7.924228800125342,11.864518977880714,7.791191999427401,-1.1249075116834355,1.2974356925073067,-4.201943767924078,-4.689913364752981,-3.5314037640227847,10.86787632714118,13.527050513903268,1.1086542243630064,10.218175931437724,2.0385837334878274
2.3824847110289684,11.4060568975559,11.352921826835871,12.525265482446454,0.688593565018877,2.9847494359182924,-4.484295763410927,-5.538035594818847,-4.09981897242506,10.894309210737104,9.703156185432434,-3.769762368254222,9.7376531589326,3.6063308859128624
1.8783177071703792,8.76766183429331,9.043116685522026,15.94516039075689,4.32671551870504,4.305997355321608,-2.6705831748011697,-7.100865331517353,-2.876730645005296,5.494686746076651,2.1841243074689647,-6.559453194931806,1.7022667758897738,3.258955989309733
0.8957946272548215,4.641897351244227,4.612669298691653,13.412836415322934,7.6860436044756035,4.867429700267465,-0.673160294865788,-6.748310664460041,-2.875534276763323,-2.0429949076164933,-11.514879777993436,-11.48297834446612,-9.660799971639744,2.1102995699583955
-2.739890644144231,-2.575666670528898,-1.6951610501919987,4.207674085627611,8.387427970832473,4.521250600944441,-0.4748802025596212,-4.4337911265803305,-3.633775295489942,-13.435405160573772,-32.75591231828494,-17.57922890066493,-22.86995884839018,-1.7823485704197384
-3.7720496749090753,-7.061594679493609,-9.16478360669417,-7.588074713019063,5.772819016371406,3.393670004326085,-2.546313344319985,-3.5992246082232,-4.653201969292154,-17.292761538440402,-39.94811038421194,-19.82521986040633,-31.048908929625323,-4.072079592347285
0.651987550739788,-3.9561909154385546,-16.48487440252456,-15.94545231934815,1.5041029973078963,1.7838555617792355,-5.462613978453161,-3.8605547243720473,-6.439013065615968,-12.50470074802651,-32.3175382743367,-18.326816879079686,-27.259172613133742,-0.9108172668550776
0.8431242743526473,-2.3114281972832704,-21.676693408802315,-16.90763455494518,-1.7610807031637483,0.0465262281965097,-7.050244911789862,-4.100427634188058,-7.063329820953469,-8.14743869551232,-22.263715268341983,-15.860503827018547,-21.74494647104365,0.204655624926383
1.797194647118571,-0.258533878945646,-22.66089895539001,-10.734570309854073,-2.4577601869928736,-1.490630453538655,-6.111161539216873,-4.948918056521827,-6.454694451271958,-1.4033783218036349,-4.622875550483781,-11.318105975072932,-12.823910119202663,1.835898042844038
3.771970383135981,2.4885715782760705,-18.48841154030877,-1.1150146246063892,-1.1909240655343192,-2.6117092177961494,-3.3457506627067675,-3.745935599464334,-4.545836474898783,2.9876788650362736,5.599525812794995,-6.340457702660675,-3.9443378426159903,3.586367975591312
-0.7669772785294282,0.7123002200247475,-10.33141412757038,7.377886778315394,0.0209461137126454,-3.304511437130877,-0.7875287278799932,-0.2456781417571375,-0.7710922080194902,3.647887913246478,6.358637565077442,-1.2487511934916995,-2.587071649334799,-0.5280332279153319
-2.9963944648164147,-0.9806717737520324,-1.1483881991907507,11.693785466667824,-0.4434766879535141,-3.763105134557591,-0.2184340399417714,2.107331027406385,1.4106321299131006,4.944618427827106,9.668900256244264,6.469179953576171,1.988485434629451,-3.5051749469160947
-7.727316702041423,-2.976962570911001,6.053657604797721,11.41882843115696,-2.539537040662868,-4.219398563930729,-1.7527011491164028,3.816529214311964,1.988095107949862,5.340559311146311,11.6257026840154,16.47906604685492,8.804006639600209,-7.160074002646275
-13.037320265354168,-5.724697480918088,10.099016662656618,8.443771190801172,-4.821359161865296,-4.696239702715781,-3.634440830164066,6.368525954897335,4.732648196910116,7.266279883221426,14.991084412292146,22.417585910395967,12.746601445235942,-9.879399889162146
-10.807149566889246,-5.409475210666877,12.120646780636124,5.5607316565923295,-5.844666743764545,-4.915011408731218,-3.4517699109408104,9.247774231413493,9.081053869905992,11.257877472779288,21.101233660160727,24.12958768360148,19.54882339826565,-6.96595772981347
-3.9297743137168646,-1.1651418435671572,14.26171275881251,4.6325766446703405,-5.397797688631762,-4.488896954172908,0.0397777066080315,15.154449219683729,17.306196142400527,18.42527484191784,30.546514321551893,27.65347982318795,26.693766655086307,-1.4125044720707558
9.190019564008455,5.157354372853575,17.773456807351085,5.334774518133564,-4.5335074712809735,-3.240110673438341,5.832017669370465,24.512952646328216,30.379028319816825,29.80010246484709,44.745555533384056,31.72053024625868,30.539867027634852,7.34992796788168
17.382937543152806,8.795107436327696,22.105235327857933,5.506448679694444,-4.493880682928065,-1.3202937293914443,11.26658817685628,27.134796962729787,33.30816134890442,32.587174071966444,48.05445189560318,31.407771244774327,32.25131963538215,11.791999485128695
14.560928396290215,7.555949370728084,25.529123530128015,3.1952003984067368,-5.558439523194281,0.9893771904317106,14.0223135979802,22.947635962872155,25.71644608356799,26.39409019289577,39.899244814702,27.172932953771948,28.4775289784875,9.1925422760651
9.95756567982745,3.0246400889384835,26.448118500992663,-1.1407876844909808,-6.83269532471121,3.5464558636915733,13.94042673921644,17.030300331231533,16.227861717482636,17.843577629703745,28.216434274890176,19.209954746729466,19.04005193419301,6.879094044710142
3.5210081206786983,-1.6705166519943893,24.18868459519437,-4.501897554398134,-7.1138848070773015,6.315654724245576,13.05264505606302,7.023553204741424,1.351036376795695,3.8489179762226895,9.16904689528137,6.359444371951429,7.203786119519361,3.555703343850348
-0.0758568489215821,-2.652848145055479,18.93203652207561,-3.987557886668313,-6.018410073474456,9.011043366976333,13.61156911504554,2.3752221867813472,-5.396825915883219,-2.878057621846477,-0.8793589102221783,-0.6450258783083769,-1.1636051996354655,1.4207717221659764
3.233052166007079,0.8075405834972553,11.386442423844244,-0.0716545981707241,-4.346439098245554,10.842268076884608,15.787369416377224,4.134715468770926,-2.211916072476798,-0.9481750759708286,-0.231155535634333,-1.284371806826024,-6.5349468720451815,2.9853777894859586
-0.444473463935066,2.179564749638462,2.782027120755018,2.915918582979572,-3.357919607127449,10.81503700537391,17.21359325147896,2.955048909865087,-4.196787447382726,-3.8983012344143706,-9.073386531655228,-5.773575110620877,-12.13657574989563,-1.3348392338520134
-10.619066698415422,-0.8878041171948383,-5.0232672567873,0.3399561755999301,-3.62307732427022,8.487446646844873,15.007898995427029,1.0164505654613507,-8.24304170432896,-8.902841946719297,-24.09839164081593,-11.908066203395062,-15.7601124926359,-9.336807391560768
-15.05256016434334,-4.427353508857415,-9.990817732956964,-8.014350507632017,-4.507122800765302,4.510759030228435,8.548482277082996,-0.6825307700555662,-10.211280453272812,-10.847740671770742,-29.622545896991124,-13.950172779998583,-18.03350119763346,-11.519269805830376
-14.183617698788096,-6.973279148604672,-11.007398695818182,-16.742434600563115,-4.766919673756668,0.346800501006129,0.4101367952223569,-3.371413866683392,-12.059453777027274,-11.331446592080544,-27.73417030037414,-12.895798440150818,-13.33069570756006,-9.425399528525269
-8.052805598149297,-6.125611403942468,-8.79581452962163,-18.95831224252054,-3.693947067890413,-2.706877137323133,-5.551790226522414,-4.894960048318672,-9.219111479215613,-7.285802746914637,-16.75190456097041,-8.521787174093946,-2.357727312468333,-4.316932168656386
3.0922316282157456,-1.6490812951081977,-5.604729269653731,-12.32386451621212,-1.7111256875933023,-4.365768302593779,-7.336680849402064,-5.351943756430403,-1.031637232878224,2.259027062994652,6.861379967970332,0.3390125140805076,10.077752675251816,3.074673003877412
7.907482260471826,1.5816033375646388,-3.6561307405643433,-1.2576762568188968,0.1359215059377874,-5.350241868262103,-6.340905472595082,-7.405387557649873,1.4856957255818593,5.246216388623546,15.458065862334788,2.667830201505737,19.30137587876145,5.074668518815837
3.208311572619032,0.7369962076844541,-3.570331127362905,6.9320353744712975,1.2507775590495314,-6.590043022754372,-5.941238239369611,-10.837240745287655,-1.2330463113048216,1.775679314849144,8.585638342412116,-1.9870113988149245,18.081589417778297,0.9675196925803244
1.0730585201240173,0.4301412329114388,-4.168440035180161,8.3002353250384,2.00287296576699,-8.407420821246347,-8.45356536173653,-12.668745672029983,-3.5498369042026234,0.5175181939746122,5.47362026036215,-2.7046864880242154,13.37205586091302,0.0968908858821716
1.7032881886456768,2.438625817297123,-3.8754989152999135,4.916432422612452,3.1421695922199504,-10.357319170447076,-13.20788405608304,-13.221081327446823,-7.699425940082176,-0.9190220904023638,0.2442930645085456,-1.6583749835288004,8.641340800264716,1.5813553340977102
2.7056997246471983,3.98237433905265,-2.4754906735805022,1.7474327657342528,4.738009252925835,-11.688545845415028,-17.334863739055344,-14.066644561708246,-9.712547523623666,-2.3686374217722954,-3.234424680762612,-2.282923696404429,4.447820535775384,3.1816277727395232
6.533396525130686,5.45658536620684,-1.5966324514803674,1.4711564200488991,5.827664824241424,-11.852012493392737,-18.349379658942357,-14.704190292362194,-8.852429841703962,-2.7392382170733893,-2.5390662295602597,-3.126237034301106,3.9191003015251074,6.111851898593351
6.971443676870953,5.035414751584329,-3.4083477280922807,2.5895364098828537,5.277214841888707,-10.630124514839489,-16.116543628728728,-16.2366546362934,-9.362942665227916,-8.126391690393861,-9.526791304085126,-8.812202031123748,2.867041842232464,5.452019700219287
3.388792829831483,0.5026501222296762,-8.611544955892583,2.1529915075453445,3.0854827275291115,-8.01178989420783,-12.575088530544306,-18.947889635106947,-10.249193654702296,-18.598237173538475,-23.220405770934924,-20.05283397053395,-0.3399901327725293,2.217999459360993
0.8627882447689023,-3.206039276492473,-15.464011701875464,-0.5963038289168736,0.7978583564170592,-4.186036030863505,-9.75729986484005,-18.871324858275404,-10.79306915929564,-24.26376936613978,-30.35999886817961,-24.27443575016885,-4.106578536442092,0.0040034269007392
0.1538010981848089,-2.6232357723443958,-20.731342325785526,-3.767704993229934,0.4666681126364551,0.2702600620327686,-8.09291031677747,-16.047141432102027,-11.510745841962686,-25.8047600274467,-32.240627499130575,-21.820156268066,-6.952800305471189,-0.9017501028557696
-0.9512843503435676,-1.773276025768031,-21.848877765104906,-5.457643821890741,2.967505628447057,4.340407884398616,-6.47983922291828,-13.004641144463834,-11.740592093580544,-25.075023204888765,-32.294849224755175,-18.627617159486217,-9.739073784789872,-0.7762899149279445
-2.671128044793779,-0.4110568821233612,-18.609912453832024,-5.797858548996533,7.126354587781719,6.938809016008797,-3.810850125692774,-8.926585730146346,-11.461532665181505,-19.8805903299279,-27.847118032030664,-12.0065661447081,-13.082739931175627,-1.0253602743383057
-3.761763395529929,1.1143711767939677,-13.132891250198623,-5.917264858228066,10.424821381045298,7.519993449151975,-0.3344713805613537,-5.937413180604253,-9.461078021453083,-17.148469592434452,-23.151802915648197,-8.387567252241501,-12.066142924320642,-1.3181507789345186
-5.568582874116846,-0.5891571007909753,-8.255526711945194,-5.505692278422245,10.708300034617192,6.412569390397671,2.4458367223509043,-4.501610111549792,-5.440405638546856,-16.892168486064204,-18.14407358144076,-8.580874114365955,-8.101472062803246,-2.789758585749373
-7.701514525070832,-2.478278699661641,-5.642254149869949,-2.5519499929021485,7.560270724229046,4.580424932462201,3.1427694902521743,-1.0256734329862924,-1.4157054183465536,-16.077771813571115,-11.442840437683628,-6.51877183942633,-3.360761981558526,-6.871865738553222
-8.683825723289402,-2.755294925734805,-4.923580881391022,3.940669783661857,2.408506551275046,3.0372110331425795,1.7761342176097583,4.036557436710252,2.917279804097483,-16.244431876837897,-3.9402478056111474,-3.7203512459339017,6.52541365294627,-10.85556610142504
-7.783076109433633,-2.411008428465813,-4.267516051837404,11.471538728297482,-2.5096877895656284,2.383697512709304,-0.1766390283074237,8.86721473753759,7.421800595675356,-10.814293824171216,3.277606895157559,0.6982996300885045,13.995459825386035,-11.431028167948996
-5.086967471424995,-1.2138809051896151,-1.7781949773565735,15.24993847044297,-5.446854821040404,2.684370560628736,-0.9316412213143082,14.00780029916504,11.705038932231938,0.8629875799125771,9.980813713145825,7.627926443419255,18.37672468122103,-7.887523769332172
1.4501996378684734,1.2164267827832371,3.253423232311949,12.494737844527496,-5.89468109176384,3.5305022177778795,0.3022209432222453,18.765023291338903,19.120777971642767,14.38664242649116,21.204115950730436,15.49343576873114,26.409196000347706,1.1390794334711432
11.04058409631178,3.5958101772709625,9.910560228400891,5.479625588612246,-4.553428600353932,4.12130049320186,2.904349491919602,22.845142044176832,29.765795971467444,31.450442091083172,36.98867722644366,24.81898960946821,32.14678530875774,12.734483639069994
14.82090755011736,3.925203417845192,16.11972118465777,-0.0814568071320884,-2.784375469089838,3.469990895142665,5.480821016577094,24.04931963531489,33.68100098733304,37.1020081929176,43.13289908038426,28.021981940433808,33.14791394602116,17.02564851974453
11.812810925315285,2.820261601391379,19.688484144795886,0.0188241783412319,-1.903133375652926,0.9182813831290416,6.916950106764175,21.81397378222876,30.81994084620897,29.56274774062708,39.60132185232534,24.219660571539634,28.82216443971873,13.078747498944486
7.461787986736473,0.8820825014989738,19.37175840292234,4.929248046725163,-2.5442264645181485,-3.2247139281696366,7.034926531762444,18.907297859375284,25.12701109908296,22.764130365585203,32.17883237289549,19.09091174975648,18.78520603415322,7.514447658613782
0.4212254120717618,-2.252822368093863,15.432205934055958,9.808364458729235,-4.275527808235812,-7.500165339995629,6.482673021524451,14.661992964936603,14.190302774648131,13.006003811473638,17.45565534890775,10.612214247122038,4.682880946277758,1.4863901433870657
-3.810292854370718,-3.5861407196461097,9.401634553429233,10.124892113873456,-5.693740468595443,-9.980999847274886,6.050775767402792,10.927673785653363,7.545253669848736,7.516251360045054,8.454989667797713,5.511394034713437,-6.134029134709,-1.3157411975267126
-1.433574709616435,-1.4962614818399351,3.195032646532852,4.990793148639836,-5.14819233833461,-9.47675928779202,5.956893872556696,8.265346488968959,5.902964163771103,8.757772749580225,6.195016858632936,4.880533300753601,-10.1075631976125,0.4440917559172551
-2.2322185854297354,-0.211647378145791,-1.8578141123099456,-3.088296674837217,-1.8603489085627665,-6.332792507418644,5.623594900476419,2.5392288276856365,1.5516334153145463,4.296492146144921,-0.8313193306102671,1.1304793723329525,-15.37283901652374,-1.263849427668849
-4.811600224512885,0.9264146483078912,-5.456084195701939,-10.871849202602869,3.2558090439268463,-2.145884501786417,4.143750873007417,-5.8678645123982776,-3.3309744106630768,-3.8838597757124265,-9.728531307252144,-4.101423008742176,-20.22124548592524,-6.9773963901816245
-4.710961034871731,1.8010955210454171,-8.056730050424825,-16.417903740510233,7.819348193597913,1.3626755517985245,1.1259687261008118,-10.535902261969737,-8.346088313391217,-8.550053818858194,-16.029377612805636,-7.977155769475369,-23.57340150036019,-9.73314196502172
-5.589346006320879,-0.0751337725706361,-10.23448708900366,-19.02583911455364,9.374190425939856,3.38650470733632,-2.741652964119225,-11.720983539356814,-14.342876607764506,-11.203568071284336,-20.80624845321482,-11.351074029355486,-29.77561751196752,-9.219757377938873
-5.573137133346248,-0.8488999823640385,-12.209633955420776,-18.29010235595313,7.110945648438873,4.241659326326715,-5.940475942387337,-12.47123733039444,-20.03715716031426,-13.235725012886991,-24.585337349881733,-14.0875442291017,-34.034619569441595,-7.429736213835432
-3.7135568481128063,-0.2986282527592654,-13.801407244430838,-14.103208400496284,2.600522389441391,4.786039392801307,-7.09337654410062,-11.426534030390954,-25.568929372304694,-13.52420240777477,-26.645119969941828,-15.787822030315583,-35.2284691974742,-2.4986270136565887
-2.778434494397768,0.2077439256248407,-14.649033925454557,-7.677819937115629,-1.206194190971198,5.663714768453737,-5.938700470828385,-10.83325137615208,-26.87777053782765,-13.336168499877443,-25.725871815013907,-15.496832231461008,-35.95243206484043,1.1356686890592025
-1.3166273855504604,1.0646731296505478,-14.409404669140924,-1.9141267219141245,-2.1180064955331126,6.903493760195651,-3.521924127640069,-11.01438402009366,-23.30412797718296,-12.621619086346437,-21.48346967461638,-12.890073749154064,-32.333418702292064,1.406475483108688
1.9493408320307608,1.010541622543955,-12.828567933337013,0.0752134692466519,-0.3528252032159642,7.972962458475088,-1.4343603371910696,-8.85028842462905,-18.16271930757158,-10.23587359389204,-14.483725112690538,-9.045014114755764,-25.021531743394974,3.1103259826948224
5.453059560849741,-0.1355984826618613,-9.7984173501719,-2.6695419014174533,1.687375740639272,8.132323856447467,-0.6915005884825209,-4.772141297279328,-10.285104122733843,-6.336701408450846,-4.201773637451046,-3.601019257385038,-16.734222522881506,4.824974867613376
6.567418741074246,-1.6606046058221646,-5.484058000510759,-7.932724763031585,1.4332390772333028,6.933278951095161,-1.103281056041432,-2.0497313581819694,-5.794927232526379,-3.7432820655647134,1.4662364900422038,-0.443297237152544,-9.400026240046518,4.587731084232328
5.140337498940808,-2.003042541196034,-0.4287905848795965,-11.79045705056262,-1.644903803078236,4.671261833950457,-1.5608298995136458,-0.4046003944540081,-5.556323626537085,-2.512126383292314,1.863876866713688,-0.053633030802036,-5.541973969644504,4.10133165534749
4.44960268637805,-0.2137282538364741,4.52291345547647,-11.409548564734326,-5.477591655510963,2.4441031794844648,-0.9562773538136646,2.994178218505487,-2.1634945581862395,2.265393986766478,6.811515301888456,3.6474661209023687,-2.5249624679135985,4.19917050559241
4.765939926243616,2.572495591351029,8.498620654337447,-6.881225676631498,-7.003160742193998,1.538173307140088,0.9741230563921376,7.659030116864731,2.987629406741788,10.263600453541017,14.753009234015682,9.93686718521774,0.6989978194739992,4.327895137159468
5.154153427502461,4.76985892338001,10.899012370860852,-0.8046815909796265,-4.6597411034777245,2.3963419056294306,3.4805903854914,10.14286388469053,6.203860225684072,14.214105636364073,18.651285073411657,11.736681827395406,3.319739110816476,4.247726588054061
3.6312690602104407,4.3583459555249,11.555618335011,3.7452858289276847,0.2682329958112461,4.01298252132419,5.387779617883613,10.62033608209527,8.34822721589249,14.558444823585644,19.621216479046076,9.590512795235352,5.106421633166222,2.221201599660968
-0.6390441012029199,1.0085927727759714,10.720560295930536,5.2382655687629125,4.539139562941202,4.500921412667346,5.972578990817961,8.697953595101684,9.302495105795312,12.558716555883368,15.784685255318742,4.211341893707117,5.744848095561245,-1.5941923875481712
-7.526689776404551,-3.090163805476456,8.959574143853732,4.470696792988582,5.349458359409578,2.606016607491348,5.445311148738185,3.444676791537369,8.445686126606175,6.541177462656647,5.537084450915003,-6.03768632063087,4.655750708936798,-6.398966231329103
-12.280018378640175,-6.09561976531202,6.977664932212228,3.8201155301867686,2.338114739590605,-1.0642583177600322,4.651840429235705,0.8392924847540838,7.171398261830883,4.16759213893363,-0.2715400421509161,-9.875406875982616,2.254175140671299,-9.120825097123127
-10.27625898391788,-6.325722878244115,5.361098910844358,5.382709260738949,-2.2935012561378763,-4.290573892742952,4.269350918969817,0.8637702365283472,5.27541912493808,5.64663281747919,-1.9155071801471384,-6.849020295638968,0.6287922180831698,-6.963842483632436
-5.867721427211682,-3.549687116651356,4.31101593590212,8.969003827983475,-5.4908705707879015,-4.921245580167355,4.243264261297515,0.3549965891954927,1.4704393072744968,5.707610544664683,-4.74214828814861,-4.69381958411278,-2.161285304420965,-4.07526865187865
0.1362936742589304,-1.0465539705747962,3.582832501257201,11.44650758741351,-5.459995223687525,-2.591054052434988,4.015489361501746,0.6127336605726729,-4.1298476126242445,6.000954635709583,-6.486144928314798,-0.8560361563004437,-7.10974852902258,-0.895180403279246
4.941652779894996,0.8547401440805469,2.7826078813365704,8.630103005438379,-2.6282448996844643,1.0276785735007152,3.313737371910797,-0.5851870689745825,-7.046022514008952,4.096565956785229,-6.921997418322152,1.2941508707139635,-8.556569254455797,1.6032239938547823
4.7345026278640905,2.1833303403246123,1.8493646765744776,-0.8942749156956182,1.0453785425421884,3.6506201973719,2.644503479887298,-3.615026963618234,-7.122956098311195,-0.7844651885343351,-6.248313050998457,0.7156003169333347,-7.9625459869850035,1.711625835998681
2.163348447463325,-0.2109107307474469,1.2748263524637586,-12.980562283960593,3.623266887114028,4.180974740150447,2.8632256398677143,-5.932954845135902,-8.930897574195782,-6.55698294830418,-5.672807876417144,1.726194897509307,-7.8778822474736225,1.358306329376351
0.2290782778097268,-1.2741151616554536,1.7539310973684827,-19.42867613368327,4.333634190997223,3.29073268683392,4.153399712509101,-8.055776929995904,-11.589032510741797,-14.056892061011274,-5.265555569550098,3.347928430446001,-3.925749723769602,1.955552623053768
-0.2131804533276288,0.0979327232713065,3.484751445700212,-13.849393327423623,3.601626811965541,2.3896876363892208,5.470905655809609,-8.057806921646606,-11.71309937912274,-15.284847251470334,-3.230969473597716,4.433932188761529,-0.9645552009241504,3.020695199001576
1.0413520634183877,1.4384107895389344,5.753036481323441,2.506620913801921,2.2707812453771297,2.105163816083357,5.177741400105694,-5.338747187385261,-9.728288560419854,-9.344660835987554,0.2276228336632481,5.472658206934494,1.305967938703389,3.468983766899844
4.589391218011078,6.614148841013261,7.268310024750676,20.505480558257727,0.881995902353438,1.7676751111019318,2.4326005576822904,-3.5642345709846808,-5.110431710670867,-1.299091557997176,7.39508669019014,6.614730031334948,7.45817912407578,4.291353982537896
6.320704346449019,10.244360453902216,7.051246552547472,29.69311620635849,-0.401388992142472,0.3146930723380077,-1.922107379051588,-2.252373728330895,2.942524203379673,11.049116715967784,18.891503673743816,7.787276792644443,12.600598457574227,3.760612990432419
4.56612115791055,7.918803684989307,5.135015689077921,26.4568306106476,-1.3901642648923946,-2.403307274691672,-5.862387847751364,-2.501100322451201,6.389488606779048,15.492483106842018,21.38820531695011,6.463502752951749,15.564005192659208,1.3447711064774106
1.2578573507204085,2.478259359644297,2.47606655096258,16.425410629768137,-1.6325416555254293,-5.280746567798353,-7.687264507608319,-5.150046123323696,4.987811224733809,10.647570011027314,14.498994531962436,2.406514621540397,15.687132010552732,-0.9952433335611418
-3.1853444247946427,-4.290994483995871,0.1737981316535783,8.717317991329622,-0.737027980517583,-6.915493251104554,-7.21204537408584,-6.026843254963168,5.458463754810031,6.971195585089221,5.600224724500124,-2.1051734665957724,12.711734421587051,-2.5423243320066145
-6.493814717693399,-10.04655668143764,-1.291752781748798,7.417533998381286,1.0451916972066702,-6.876929739998669,-5.642963323663359,-5.466955598555065,6.134329755227888,1.4246770404411429,-8.482411831516332,-7.684851904484949,8.896697320712962,-3.407349716522933
-6.287436498093294,-9.980718251148389,-2.1574732674528097,8.506668109967613,2.6768751241301665,-6.012119146732825,-4.351277371301457,-3.8257313026374,7.901431692008214,-0.2474694677376371,-13.255242195544383,-8.729423431946037,5.949399787956219,-2.9186131182518444
-3.608334670336945,-4.620622601601604,-2.816533138262395,5.15040504805161,2.9705180556855417,-5.527616128408996,-3.718310119237781,-0.1983646010004872,11.775810709871,3.684947838564645,-6.983784725942776,-4.383170101567488,5.055736105658497,-1.584252290989734
-1.1825643965028143,-0.7399438612218501,-3.223902560663011,-4.156738840511915,1.5389806312730858,-5.8125357458298135,-3.047613082200672,2.7553346710822764,12.683337750749372,5.256706063003894,-2.13187689692324,-1.3578796157403317,4.098470073271281,-2.146432038867574
1.4288702697073812,3.148454040237013,-2.8893167545135423,-13.066330528520892,-0.8331578525758543,-6.173139112427523,-1.488693424507959,5.1624387103000124,10.853257330773982,6.107627976681598,4.92966125908537,1.688414471154712,2.131893228307427,-2.5054411541754087
3.0139347463517647,5.18210841595002,-1.471861465379754,-13.274426386649406,-2.831333423250575,-5.680352153641764,0.9743831010940394,6.653584987299861,9.552900875238794,6.6791466764241605,8.037662964632544,3.4736843187299424,1.8879342515062356,-1.6486326426795743
2.3691943784166,3.305087673787077,0.635278000123594,-3.027346440060409,-3.732552195290413,-4.222631366766982,3.364825446483298,6.55814619819525,7.871575501957303,5.795413155116044,5.2083307310915465,2.7864630411325493,3.3396477423168194,-0.5733674075567058
1.6641701210607054,2.582466657222743,2.380025521586931,10.32926924718318,-3.9478876846115862,-2.7005150289061826,4.4558604423634165,7.100649509524005,7.133807127956497,5.421953514609775,4.2025831849248245,4.143901505757925,5.188665432886199,1.8535427907071689
