AF3,F7,F3,FC5,T7,P7,O1,O2,P8,T8,FC6,F4,F8,AF4
-2.7644727373210385,5.2249100960741375,1.2674747840165328,5.228362015539963,3.3386539033866143,6.637856662758826,0.3429839681390443,-2.4284068832373205,3.7512060495840425,5.416777035072256,1.6876090561357626,1.361086564959159,3.0457261432343805,3.3964589523445223
0.5149948146535382,4.714605194732751,3.415114566682285,6.964062952424593,4.675878213337654,3.2432042932627354,-3.383580707319455,-2.4995751495128,2.5939418358087414,4.40511816367684,0.8682647592897458,2.1963498165679782,2.7883562445804357,6.27440696386133
4.6186002710303855,3.475922054417448,5.483338417739265,7.161367523616348,3.45744671620858,-0.2771288226715774,-9.572498056536109,-4.409993203252473,-0.6675735498515187,2.517645042895329,-1.7495203577678684,1.501938955205566,0.2030261852425545,8.99065052848823
6.396450748571328,1.5463725188218922,6.526105431390142,6.449358431344658,1.6746021318584496,-3.223512629000218,-12.110564172645084,-4.592515276575213,-1.9976968333444252,0.6343212338386952,-1.0261378038549378,2.158455821436927,-3.561819047187278,10.385414243720287
5.916969891235353,1.2274352482550976,6.68382833916837,4.915745504749771,0.954135600724527,-2.341885020788062,-10.522291327334706,-3.5016662591103183,-1.515096524277436,1.350900199885367,3.25130241671193,3.9800768947446654,-3.153160700028834,10.30909194635342
4.292098364053834,-3.151348485344214,6.183162669768648,2.344592062222524,1.3572162880743122,-0.3817703866816141,-10.30821495206635,-1.3760004092524905,-0.4260129084987277,1.859776132676846,8.354421046410453,6.430398406620005,-3.7002108500658224,9.8928964933134
0.7729587109281052,-8.550815038195292,4.826418870769906,-1.1422507956736176,1.755854824339309,1.4688604835035133,-10.112416868852373,2.4847979817081955,2.168173975219222,2.848966748928337,15.531487624376917,10.13121082483508,-2.668575175689901,8.82366854394302
-0.2367966033539362,-9.207605264497658,3.899622677593349,-2.8468494850487422,1.1982234127009832,2.3452634278138103,-9.93102572346311,3.704422425008485,3.0789622522236657,4.337020312645713,17.753029594147872,11.03556822068641,0.7760129866595739,7.617558698136714
1.604306051531303,-5.425520443857055,3.492486998335625,-2.4785924115119125,-0.0753864232434864,1.3933574047570656,-10.512640940508872,2.1439475096165816,2.146574122191419,6.071960393862241,14.251262388351709,8.92240459609784,3.039451053025961,6.45977964757372
2.3571678782588363,1.0263156019447413,1.571707807075584,-4.501766241706065,-0.8471550279598716,0.2934755885520236,-8.700514326101889,1.3800937571608691,2.1367221842888444,8.594437735929894,11.135671181170052,6.40908692499367,5.842636882137629,3.826484938147536
3.012898137730115,8.804912447030654,-1.6689004074609437,-8.447130522909728,-0.1202162544106073,-1.2447477611406637,-4.533208841741867,0.5054148406315666,2.389169922855124,11.377601070533355,6.68121994368059,2.5314247221768005,9.387408847178522,-0.2030478979811791
1.9044169480159208,11.082938445361142,-4.175649958073586,-10.17114916061157,1.7716073632058595,-2.12605620748951,-3.282116013611349,-0.5115204174118244,2.014207327677749,12.82807800165548,2.0747589234401285,-0.6029894920876316,9.33960367000126,-3.951121847022202
-1.664745223747761,5.96082503695956,-6.193306625508819,-10.219613848804403,3.121303503528189,-3.4084607024787403,-4.660046282299671,-1.193772208364321,1.3127843205368048,9.94792261800266,-1.8655617020848796,-2.602509102671237,5.820354779107891,-7.619112376270536
-6.0450997810671305,0.1747324365364643,-8.292077972890537,-8.246781271830386,1.989005901690991,-5.991347423762791,-6.904768159753031,-4.37231982916746,-1.3985832891477885,5.379621705642514,-9.0366504544119,-7.486311898037894,0.3805667424687273,-12.582378981346016
-11.886499236865422,-6.512374665418587,-10.084795904184748,-3.3435240183212285,-2.300224847660088,-7.792499687826017,-11.152739189328376,-10.1171121494107,-6.401681441901321,0.2407769069109245,-19.11916478942692,-14.897405780486151,-8.743958439744114,-18.622704742990933
-14.104787430961466,-9.406452724158296,-10.63256061671167,-1.3324306247950657,-8.43103133293221,-9.181308654224695,-11.299857599475905,-12.104024925331135,-9.03679947491633,-4.727201056708158,-22.24060083647279,-18.010495712690258,-13.480568537740853,-20.514984546516857
-12.116244690812772,-5.199073149481579,-9.78925174769607,-2.2223675073033897,-13.727394558504628,-9.040679593155671,-6.858046756410528,-10.494817742857212,-9.443788211269624,-5.499555902142672,-18.25900086453259,-17.029749436406885,-10.49111060171902,-17.992309699494466
-9.20157470158562,-1.5148337467435329,-8.424579628074802,-3.278858217683569,-15.737820087608824,-6.903256520419399,-2.4658640840775186,-7.22532518479362,-8.669864798932593,-5.326843636922462,-14.062226533946356,-13.213549469932008,-7.526884094294732,-14.040830266418952
-3.968141046981245,2.529255541162705,-6.263335352890818,-5.818282853117564,-13.694768931189516,-4.947655808354243,3.338963554393174,-0.8148742532262037,-5.607398643706757,-6.350508609623727,-7.492040988194621,-4.875342707776279,-2.721183875816517,-7.338778093198076
-0.0715462870551896,5.260034226314668,-3.980484286691169,-5.773951585083493,-8.881175245140781,-3.636164384658024,6.077189884943002,2.404997026073424,-4.2929017684972,-6.078733127414542,-4.129609519796672,0.1982899996914302,1.1102322312667194,-2.981209584113949
2.012040812605228,2.987790346053964,-1.7259778659821363,-2.7107923698783467,-3.725717276928776,-2.449005746532505,4.8419861315145525,2.0761523419268504,-4.810564219593245,-5.859360128878052,-5.245632927157215,1.805096860686624,-0.0192254097953585,-1.564758829861287
5.591893712073121,1.133219473879297,2.0862705530764902,0.9654473624939544,-0.3070122095611509,-1.688696405699198,4.409781833648465,2.0144815528806537,-5.115199618253823,-6.07260224645148,-1.792239266207292,3.773432014718035,1.831558659486108,2.2453638005059995
9.774870309920791,-0.6561641695150793,7.357169913408954,6.336386738223558,0.7275882304488732,-0.8355159681080637,3.5648091543028224,0.6991269053155293,-6.12655111942881,-4.049504335540186,4.969608003016934,4.273615172854249,6.025377992946549,7.288434590484081
10.967310650703128,-2.5394689836799245,9.29207241964499,7.976873365239131,0.1928045510777565,0.2310403730876828,3.277106458235102,0.3440973466084133,-5.166649046282554,-2.4020092672755857,8.013916380819744,4.717234418893046,7.069161170829116,9.25256180263543
9.197052117745956,-1.605533811355217,7.779315905517938,5.2900060926389845,-0.5305833068194943,-0.5394024492722709,4.25232758853457,1.3646699958710975,-1.9141223020018212,-3.052813014545145,8.379926937392721,5.271510693011047,6.345308558560446,8.502136295821249
7.490802981646703,-0.2394176255741742,6.407806501311811,3.3397410106464207,-0.5863910267515848,-2.2816260248132307,4.7865139874416105,2.09807845855042,1.1578698798434122,-2.7226712628374794,7.303377907435947,6.700783782528218,4.405496804868332,7.524180493163399
5.126031063655208,0.6989110957450031,4.1326852702749575,0.8336082694372036,-0.1354978659124981,-3.932152156657698,5.323131034759601,3.1616091282027523,4.687542802537752,-2.707084348044835,3.473729571245783,9.491217266173246,0.4945728694941581,5.518617198687879
3.60239085803078,1.421526929214706,3.1315535640304244,0.0695869783285215,0.0272958483849379,-5.428129775512271,5.724182772442768,3.4059757508199766,5.548066195383584,-3.5945835339112038,2.5954892848185955,9.338472905662767,-1.5190829936413863,4.902756243213177
3.513144905858786,0.5812625506792422,4.035034293116193,1.941247800992504,-0.6940058806222851,-5.074141266471044,5.78248658942652,2.6172447012405,3.1020656594451834,-2.8550255376941367,4.903107156160171,6.299043338082493,-1.0303390766942266,6.184061862798888
0.6118346893904484,-0.6831151608421082,2.122414644878853,0.9050743315221236,-2.158735055728925,-3.796339054128005,4.6075445325517,1.7432082431492315,1.0365167686230303,-2.173525573827874,4.985337292584696,0.9041192170253268,-2.4763071306480158,4.387247367309919
-4.8125072700556695,-1.020327278284117,-2.169284060079136,-2.514232554446828,-3.6506883225986257,-2.8919120352430583,1.971192343616497,0.4651604920601232,-1.4810443499609205,-2.514223521920582,3.960079176043184,-7.945420322261257,-5.377222092047299,-0.0685563939808086
-6.770905508656797,-0.7289884946406834,-4.077431300558609,-3.6378589432139297,-4.468169494492372,-1.618821978542584,0.8133386548288483,0.1204341509288212,-2.231937854647727,-1.2744179478639897,4.210182181819709,-10.316947591834998,-6.182431456637261,-1.0476451683873405
-5.6469023755463885,0.0989542287745598,-4.15881744847917,-3.200110540537409,-4.333696740872711,0.1858126713258807,1.0469382736606618,0.9211522979573186,-0.456827901263197,1.1447890925134678,5.110147700612788,-5.663224630188461,-4.073413373506531,0.9471864449961422
-3.0836685661346297,0.9330453810277524,-2.70760748227745,-1.3019488153869618,-3.3390277828557373,2.186111079473053,2.197790879358899,1.2279903781216748,1.45050703868431,3.086436791676657,7.435128264799992,-1.3745209987753175,0.4202663956482636,4.083350906571103
2.225528261198064,1.015261676476779,1.2855060529012992,2.96508053852515,-1.7158978003024004,4.964629925597241,4.982282553030264,1.3539672502174014,4.261314707036704,6.5274738198508455,11.62854274794349,4.83846067895228,7.982444898760615,9.627246617098368
3.395036856612195,0.6542706938928198,2.031672331367731,2.892821693885117,0.1466222915410071,6.4732620728144505,4.929837467755148,0.559861064380581,4.916540109659161,7.775323395731086,11.746886728234768,6.081727232137808,11.127724891395202,10.525439529152118
-0.0175597838443427,0.5517507240654163,-0.5975172852973378,-1.753205943996433,1.4932821767027915,5.137391455912951,1.8517422932836,-1.502351225207037,2.904089258283341,4.0135636610170025,7.620122661551839,0.9017939009138396,5.957922269799004,6.236577093232587
-3.691533915090113,-0.1089691229630172,-3.444129518380804,-5.917024012048603,1.3137237296793955,3.1094584345613066,-1.5643867607005542,-3.603462698189121,-0.8098115501455592,0.1491207869293898,2.977324760837049,-2.7281249554599527,0.1535659440368559,2.95498567865099
-9.307408142730482,-1.1852644083114483,-7.835056632897152,-11.053373258770383,-0.9513204222430433,-0.0848265474886561,-6.371634046763415,-6.008565153443915,-7.241078977450818,-5.770064838809329,-3.5428008668316093,-6.646385136462737,-7.576770379355516,-0.9123891769572776
-10.21211823755011,-1.4272413600970286,-8.182031643389495,-11.782306781066127,-4.597939529536006,-1.5042069933937618,-6.957816227384716,-5.979589484240456,-8.689836060627146,-9.588201430784004,-6.325089512191268,-7.491238849784887,-11.17032930644799,-1.9302378702960667
-5.486681688123992,-0.9851482656549316,-3.785979358308124,-6.971139085501661,-7.635111318839677,0.4296311719445803,-2.600043375271317,-3.056819910697798,-4.695236203883793,-6.118839277662468,-4.528893175485852,-3.793627924852522,-5.218435590141958,1.0605343031959822
0.1672937462057527,0.3681180028980141,0.7203213723917127,-3.0876675606762505,-7.890486389031707,2.1902774632515123,1.9007019021511824,0.3907544400885452,0.3761018253224863,-2.787185637640871,-3.29362443419118,-0.3009439682053117,-0.5973789537774961,2.852532951312164
8.580437341147748,2.772131965871965,6.76650479631365,1.2917992373629177,-4.527724938565598,5.349490985459101,7.989632077125062,5.13795985596558,8.452447569631934,2.0432539604055133,-1.1550852958892783,4.1952064704498975,4.31749946704072,4.461955660879108
10.659062692627776,3.858265381534269,7.779596118953376,3.76480854569952,1.241331527748116,6.642009380976139,9.38994504530718,6.524327358876333,10.873349564859414,5.672308659813919,-0.4916698744337029,5.308953951628705,7.160518051396801,3.7875833482348993
5.23357674713697,2.340522881734425,2.6299691465347057,3.132414200322108,6.864618638381444,4.734558754673263,4.96525960732252,3.8681446980326246,6.6424647233574525,2.4265415151648444,-2.1172547782718425,2.0128567921095053,3.372228908985043,-0.2158762873519486
-0.1937960979339934,0.4822927101676106,-1.2232597508798957,3.655942512408372,10.04565524902955,3.9376392730899914,1.0701340746757542,1.7269550120491617,3.5690357871386347,-0.3056101773717999,-3.723428273766809,-1.6307873959949408,1.2115356415803198,-4.698524868676087
-7.986609164026124,-1.8869454694541608,-5.436079374802337,4.481255905694737,10.045432484072307,1.33705207145664,-3.985103988105749,-1.091646718327936,-0.4539626785431993,-3.4954978697074006,-6.137109050126864,-6.965506931787912,-1.3704944935612948,-10.506324268467903
-10.84195116178566,-3.81210450925012,-7.490239352354769,2.8345221031248835,7.840846865447247,-0.3507738627097664,-6.813608668738257,-3.2357933034880046,-2.548616624704683,-6.36562668795743,-8.30136500749409,-9.833155844995128,-3.793406550920851,-13.395735195731277
-7.303796100293526,-3.306971345681132,-6.028922043196341,-0.9157627174818836,5.203836682287488,0.6730421445070436,-6.29876670924719,-3.998297894943757,-1.4739048424846812,-4.274670450100868,-9.968408968271383,-9.47882000269807,-2.3640688824885823,-12.660459868085235
-5.536026922058682,-2.8267213889949487,-7.448079066901523,-4.765085334455313,3.4768315224019943,-0.0946953378490543,-6.926013527662702,-6.154908233830776,-2.249004557197193,-2.463657613605592,-10.526997091712325,-8.938766761517925,-1.867730143439701,-10.63809335139523
-3.607082252644645,-2.934861866196869,-11.00143090087058,-9.114956140862152,2.879515635650705,0.3243557627774339,-7.647117708911555,-9.263337894527467,-3.971742723765268,-0.7323685437745786,-9.514211983483117,-6.989434698110649,-0.287195525688093,-6.014025316799692
-2.257666809394223,-2.134885744657321,-11.007274027389132,-10.244189809672331,2.693536670415938,1.0997245647391038,-6.758100763440571,-9.235093032003824,-3.872213789845366,1.4829861111507157,-7.608954029201565,-5.226874521010026,2.315350831793172,-3.2551502304384723
-2.687303223735081,-0.8368657467344087,-8.188310995744427,-7.41906506021331,2.04598041802069,0.0088882541746755,-4.693585082944484,-6.143808469179982,-2.502742059446213,1.4622561869239454,-4.434090355684172,-3.9351944051858303,2.0375945501629813,-2.695242570757898
-1.1469142174278024,0.2313342077373977,-3.8576932852911674,-6.406932714009756,0.6595896245216863,0.3374901109790374,-1.883484903789299,-2.714647594322481,-0.7516997385070173,1.7406045744798426,-1.3315492844551533,-3.5550637635133917,1.7518004052270504,-2.385019089048737
1.946180937384613,2.775315474057845,3.0666178487050577,-6.356770231990746,-0.9525801071265504,0.5815534550504153,1.9066544804483312,1.8980184494396668,1.7935736423331798,2.6691092778756134,1.606336668319556,-4.6856616696276845,0.7995358393492193,-3.5077431410101028
3.4466963653502183,4.79744453964903,5.545782895380907,-4.4937311160424285,-1.9167093234649428,0.1800423538830867,3.4286356777681126,3.703009836323345,1.8284943660351176,2.638005281955844,2.8806215968595104,-4.14066621036473,-1.339130636120072,-3.4999550390713763
3.790192881137072,4.303091651568085,3.070513475681655,-1.6321786020591778,-1.6757080615208224,0.9966127812717622,2.3411493198239435,2.003361364519157,-1.0265339405197185,2.191091127135232,1.9249778027958997,-2.070616646719408,-1.475572213549506,-2.2407689457165128
3.619636932149246,4.472114905496412,2.9886466898742268,3.2965862355452256,-0.4146305464179818,1.559835118792806,2.22916832191018,2.076333860408181,-3.248096089760919,1.437861817905341,1.3021335090469148,2.302155138936618,-0.6339345583352509,-0.54645699068992
2.347434761409599,3.687222246020576,3.8397645443837054,10.75625283206372,1.028231071446157,1.9613488796952776,2.365940096942685,2.9860547651566898,-5.59874939595301,-0.2171134065758096,0.5278242331133437,9.838789368671398,-0.0679055914897557,2.233129658993762
1.3750033510707074,1.5485650983024275,4.605415106982922,12.559088571832197,1.6751116416259038,2.3892959498409527,2.608756491006647,3.5182809678800613,-6.0198107416401125,-1.585399700896573,0.6185509028676216,12.433589862030685,0.6673390629420768,3.22495031745384
0.7120078462117571,0.1654248863635617,6.387214040561153,8.389336222985156,1.030424275453356,1.7246749894242173,3.519166064306054,4.463723317892283,-3.762602350549765,-1.995377480910597,2.096148974444565,9.954756114451216,0.5922580970827183,2.280484200743568
-0.0304123439376579,-1.5972509868044815,5.12609637146413,4.106021359950823,-0.5519347821732481,0.7404532476547752,2.903192222695958,3.757273500807437,-1.6768846848758936,-2.723739183060092,2.55360693530084,6.709186192050328,-0.4033075847863826,1.3635556003947722
-0.5203728221467973,-3.711652486657517,0.6794493284378804,-2.145121538944464,-2.0240687955619023,-0.4112261884530838,0.7817814308790098,1.2534040174522818,0.913875403378266,-3.436142743221864,2.3038791058012986,0.8290816798771552,-0.4019178769207246,-0.185059866649279
-0.1926670834182016,-4.23365886661168,-0.2673586142068607,-3.5752402751439885,-2.3266147562156902,-0.8077364157444399,0.199320961660453,0.5111012268213129,2.8844695187452865,-2.860183671834408,2.6708400635656813,-0.3665097046949837,-0.1485224648061138,-0.2723248912784914
1.091444681743012,-3.393302239424304,1.8036217196040896,1.087214287203088,-1.2006795186253356,0.1682374027194617,0.8910248815676612,1.2703214336480255,3.739337943130536,-1.2991546078694107,3.3175173979450565,4.013541558165004,-0.660148357599715,1.4857056704701523
1.558963169929387,-3.4133569723627915,4.256846922795698,5.147364096567203,0.5271601972452657,1.28875729487192,2.467509658314107,1.8957063902965663,4.649957823073984,1.0258273638980169,4.264936690591642,6.877584213801271,-0.930439946800928,1.8293333910734797
1.2804590288628837,-3.3420788903270195,8.416366781236375,10.461876832425189,1.5715821511161785,3.1009210308983124,5.593310260013884,3.063054073860431,5.169511708424065,4.733007475807932,5.70913010060166,9.972701793011344,-2.537923145087433,1.1992746110345085
2.1296316684830328,-2.795237684485592,9.593624238094604,12.516586929329865,1.331996272758018,3.679289967931276,7.247211987327109,3.5004014825721868,4.8975301076967925,6.503560473499659,5.086900905558736,10.838620190091826,-4.0457450119902125,1.3510769348406793
3.848230823917652,-1.993103144948993,7.299103578450121,10.08476526279491,0.5451099467100313,2.2875516219571,7.375748991958945,2.9911883920856384,3.84403673324622,5.799233972785163,2.2366209253673293,8.268633287151953,-3.4985243121357312,1.8193451861745948
7.278322810955417,0.6407802312350201,6.093168585455766,7.653837623454904,0.7242278378425624,1.2757130896199649,7.3304829580687345,3.872118999065804,3.075310152537021,5.252446467929249,0.1677771714489196,7.022903444216865,-2.3843118340109126,4.437486146230931
12.888554211373163,4.763155966288551,4.910699610338758,3.804177975823052,2.765100272675859,-0.8910884351973092,6.402445433636959,5.934203979484982,2.5738412311164245,3.027892494185206,-1.612603931438338,6.292856830359332,0.5964887700390725,9.641902308643132
14.62085496342952,7.072430795125621,4.324961979722251,2.892157376338017,5.987124452786077,-1.3595522944969531,6.290639155880109,7.633897693802339,3.056823523405794,2.280411518908329,-1.6667893476879982,5.48143116973309,4.807996942168788,11.327247969663237
12.343461835368885,6.022079802319676,5.045227853820649,5.759873828550608,8.587057863846908,1.7109948825922974,7.142568745082462,9.339161084611336,4.887896066465995,3.6671106391618102,0.709484585446435,5.346851316710853,7.841868706412623,9.607279595430644
8.82834445027285,3.290916307403073,5.288077434342025,8.244515901276525,9.174945124077992,4.29428236646116,7.719439715853526,9.414231285875994,6.3588615578643495,3.7592363857509614,1.0219024268250156,4.330292657814524,9.803725066460434,6.032742334737315
2.606519661742148,-1.14672067513977,5.386402260552202,11.5555603034543,7.993083336982892,8.543026572006003,8.422225525333323,7.457655559718212,7.701824272294285,5.232002140579464,-0.4095318135213908,2.498932681046886,10.433643708644064,-0.8657766079073168
-0.6638310368035475,-4.610462088702707,5.204847254416587,11.995369208610397,6.664140812919925,10.865101614654368,7.406730422202632,5.579491546506644,7.526219859801174,3.984819051627898,-2.6882098554115696,0.946924246733826,6.451547066691272,-4.668235267179631
-0.4659831535789188,-4.388822015075998,4.451296583563063,8.743231598947302,6.680202710420019,7.7514319619689775,4.370828693395464,3.3256785091043737,5.358468095396169,-0.8855522191645244,-6.768651067579097,-0.5775352272442096,0.3276934297290707,-5.111281825406788
-0.4145011249072953,-2.6066692667857403,2.50670467363186,6.206261952806023,8.019919613033693,5.036080701569191,1.3515607509967056,1.727704282679161,2.320615331014275,-5.001658704876454,-9.953532583273429,-2.064046153143437,-3.2540084336091577,-6.059898617245604
0.9341462879107872,-0.6051901150149768,-0.881936972557221,3.3875906145214443,9.163054983957636,0.5339570378910916,-2.112996355367225,1.2066767285436746,-2.1216468311601138,-12.387713457075414,-12.243178887799628,-3.3448917452109392,-7.785207342404713,-6.026975609940556
1.7685698702182786,1.5003656304965969,-2.0775641391231847,2.939202028707727,8.485667287410706,-2.9058467490586994,-3.3141570268333123,0.582810322469558,-4.436055901159669,-15.429580638192093,-12.979265392066871,-3.374556923718357,-8.21437176555127,-5.498762074726189
1.7346471417434624,2.285423864668781,-1.0373328804137396,5.765001697431655,5.777911855629384,-1.0086254469655016,-1.6785904947113062,0.2435280415744056,-4.270551110070298,-11.627043657722217,-11.380888691700616,-1.958434264882015,-5.055929044557613,-4.75008379200372
1.8806395672463403,1.1851681378892107,1.0117079448784676,8.099804142926612,2.5351816582434594,0.0828858201279976,-0.6867453494383202,0.373631496063239,-3.001652719518207,-9.222767725236816,-8.902609787374669,-0.472740792071091,-9.346584075423458,-2.144262650562668
1.670359955899989,1.5207809602495193,4.9771061008182,10.77023026626695,0.7689832634237916,1.883197352871797,0.369295653395806,0.9012660828341033,0.3967968905253153,-1.931985938382028,-5.0639737240094105,1.3530865882779997,-12.494256964010583,2.262324656500696
1.0948853087669304,1.6815890454251623,5.352641633717317,10.814907122501792,1.361341115545855,2.8367871581191224,0.0430111057767257,1.369395393008776,1.774732656281415,2.7981474377955835,-1.189803644548311,1.5528839928759417,-10.81887801414347,4.67455436130422
0.1254864081937991,0.4084405275767695,1.746650282755673,7.385024088094851,3.3402737836316305,-0.5189451788921784,-2.3614550402910206,1.7596967964292622,0.9199905505784516,0.4830156793071809,2.485128549234462,-0.2988186264256331,-7.425423371328584,5.116466787139511
-1.8112209239975376,1.0137619355024436,-1.621857898627094,3.698080633423632,4.640794384291098,-3.609965900320903,-4.4320201479827706,-0.0029452763254029,-0.8716232827738156,2.0464123588916525,6.124206953382531,-1.9888170224886883,4.752300278193842,4.805537902937134
-4.817810858312984,-0.700988213336917,-6.046036782182637,-1.1921836273943818,3.6834837934364657,-7.432896721144484,-6.690800181728052,-4.274187190804602,-4.705600728863117,0.8976711223455958,9.26052694351141,-4.07148834880808,16.82231271556225,2.8127762301838763
-5.79580716200999,-2.76177610126551,-7.039610528268166,-5.233304738074661,0.5059311673311981,-9.667824479703716,-8.457840253232527,-6.691999065834861,-5.884427969647641,0.2420414166899369,10.739554069250357,-4.69949758185609,17.596908417451957,2.045467579524716
-4.647071311511514,-1.7370158862905245,-3.711919340988361,-7.889482274255882,-3.3576035065347583,-8.461228949327982,-9.315783910314428,-7.593634565248032,-4.201062261511924,5.648473366272072,10.211227456211908,-3.397122147760663,11.847460922934635,2.6159232348202397
-0.7695374903078682,-2.666157440024247,-0.6924765031674472,-11.356599725617334,-6.021979017732946,-7.537694776995282,-9.46704690579786,-5.715526292343354,-1.6405700985374516,8.136120697376034,10.915251467835072,-0.6272751681807812,4.809636817576736,3.693165606688046
6.819871136782516,-1.8082304007449344,3.250139379071518,-15.022426687564511,-6.489555678713089,-4.839166707332868,-8.527561996063437,0.0882558918079157,2.97871185906491,11.870201731590615,12.639846031448744,4.326826302437574,-0.1140010370697328,6.029160231940414
9.115578474916816,0.4637136495115079,4.485015325229198,-15.73060375044436,-5.145371370703913,-3.783595781510897,-7.928252479075643,2.0590521621599818,4.433797862469806,14.71939543673729,13.160661394842958,6.370557099285426,-0.2053902661571125,6.664408832950801
5.924843927109275,0.3879207503144893,2.0820382795306003,-13.3988824101036,-3.3275756842371607,-5.050787339207324,-7.634986040262962,0.3910283304171371,2.3132652659555646,10.826762355170642,13.021353772955637,5.280252000136292,0.6648332672790891,5.495038067097982
0.9906022533411012,2.166242110963151,-0.4231444720961417,-9.543082408585269,-2.4091112884216277,-4.543283147116159,-8.025454450774129,-2.3843039821828027,0.2644031093650528,7.418567663591834,10.57020093192317,1.8131061096977816,-1.7096983312277958,3.846774560713061
-7.894769775255951,3.404152561619365,-4.159758101486591,-3.358055681065335,-3.020711606586445,-5.92594903252762,-9.503111053876088,-8.021051247922513,-2.983936208405946,2.129302837425417,5.313058002442747,-5.477774764070263,-7.317824984462158,1.0005893661535428
-11.33788775217556,2.389012541958782,-5.981902926386726,-1.104081613426414,-4.840213484861636,-6.4163392664830114,-9.108750765847764,-9.968455682329926,-4.755842914173627,-2.8717087340884926,2.719000725927826,-8.841714436274557,-9.564467677153743,-0.2283811309999108
-8.589048635152496,1.364169040092532,-5.2600049618505365,-3.388098457236565,-6.988691911603411,-5.3083715855602405,-6.872342332660043,-7.833046140295849,-4.495861217851177,-2.2959332746813583,2.63045334956774,-8.103852881839478,-5.788014727544982,0.4069435859517031
-7.604455946782828,-1.2831421171855144,-4.490921584149479,-6.372822886438265,-8.707642899571326,-6.454672252644121,-4.491875142682525,-6.747755835841067,-4.512990717960097,-2.9529722085465333,2.362562093224737,-6.710025583409921,-2.653603145839395,0.5067778368216003
-6.239968138805293,-4.411453524317294,-2.7413701613086143,-11.729879931185774,-9.810335911624207,-6.046196936810271,-1.3470230793652485,-5.258174834569484,-4.035355622918816,-3.321635319727103,3.0617329983207315,-2.80585684497579,1.6773007790537071,0.7222594356192998
-4.970358599542661,-4.86130770625496,-1.799552612818958,-13.785898916184134,-10.56258177281299,-5.400783534986479,0.0466435802019123,-4.926570738487529,-3.317695949666718,-2.3454080874579377,2.739171611381393,-1.155125303569336,3.7900679866524256,0.6310780577860142
-4.820723721105797,-2.839449633219346,-1.9892452505090268,-11.8609520380396,-11.123745320415829,-5.61608755790759,-0.6940784751800958,-6.507148685597479,-2.5686732496459124,-3.8553135195187447,1.083019423649395,-2.149886728877583,1.7981753841806043,-0.1012091221317996
-1.1540615765719142,0.6628995137822798,-1.7775961815438457,-8.686016797857116,-11.12942567260916,-4.023799781076895,0.896330984250901,-5.895056224771532,-2.7956922727463125,-4.133914325949764,0.0202649365866461,-1.735107332274157,3.5362558277825022,-1.0460445670192384
5.887620059053147,5.020343303129202,-1.6505675533369824,-2.6385902150869573,-9.941166416369704,-3.135018107186456,4.3812864362798445,-3.4696037410199243,-4.257461439953576,-2.9370336358140072,-0.9341975503437429,-0.96905882921851,4.85081680735628,-2.438665057306083
7.319782570587346,6.23592502352508,-2.4241356281554958,-0.5861414935680145,-7.448317974958421,-3.15324404952637,5.111676049923008,-2.783477651613821,-5.246883405976188,-3.7000775347098327,-1.8443538255628624,-1.0923808177749657,2.931708017092854,-3.8198342295521575
3.3912585793410246,3.1154111409527063,-4.044018182471882,-3.045587917053476,-4.632883419142097,-3.476420502562863,3.5959631180372904,-3.301010415267726,-6.028206716654008,-4.2277493649929365,-2.466833374097609,-1.715984336528,-0.2705179107147412,-5.1715186088377445
-1.56687739250669,-0.606367282328404,-6.177124470143684,-6.3497012903455206,-3.143379387797616,-4.94563002267711,-1.185296825639084,-5.479582589058088,-5.335744192482577,-4.281449790065576,-3.1699677077520816,-4.469162484123505,-5.836471740444301,-5.260638503073642
-9.495714741698787,-4.600085250021877,-9.009637785493908,-12.269130040243214,-4.00580500455413,-6.4608011405060095,-10.372296768398463,-10.07557747306094,-2.722584317422461,-5.997944888921742,-3.893145494099088,-9.694682661156016,-10.601519623599684,-3.8318830937053248
-10.825774807609532,-5.632293184484557,-9.30423099581779,-12.882097787008243,-6.552490094616204,-6.586428573457742,-12.660886167579422,-10.462345270007535,-1.0708246979741245,-5.378905609529036,-4.23394562005346,-11.152957218822891,-8.913866642669284,-3.2448921666321744
-4.451791784612025,-2.178257660980927,-6.737860316491207,-7.377320824743084,-8.6722662127468,-4.717439268241515,-7.800606502454194,-6.492947582226916,-0.0790677583487982,-2.9404352068666784,-4.208586282998616,-8.836729867730606,-2.619171479247357,-3.249936059304953
-0.4991923460581048,0.6329337892634761,-4.2309197477911935,-2.300287755043076,-8.379957470335572,-1.9861729882880108,-2.728326257480989,-1.754806226059566,0.9228815442258724,-1.4642981702981444,-3.685668409728952,-4.685171049111494,2.539304594952018,-3.8079170034421694
3.2173693435561934,3.095720195064782,-0.999499249575412,4.280439791327876,-5.427726995282191,1.3911618547130769,5.105803840608769,5.292165702383572,1.387355388161612,2.493302382386321,-2.5451546753438365,2.842162100062887,7.609798774461413,-5.423071739528984
3.3043657183229675,3.579875923120581,0.1739252123230541,6.364788365063724,-1.5085606500231812,3.524996257968541,7.920542990353486,8.132589050730433,1.7942795238354812,4.018512603396075,-2.1669738536687686,5.901182736534227,8.251885813108037,-5.60272773667035
-2.132853050641235,0.7646074706640735,-1.3549590535882572,2.636492984031788,1.1727669525532072,3.0387510770950272,4.433315921850013,5.973831244120354,2.0827122219231797,1.6454596752241568,-2.588560480876239,4.018992629988483,4.069016244707154,-4.35542963044572
-4.124401907590041,-0.3706868573867069,-2.157407490144464,0.3857483454637318,1.662933204501023,2.2545602578146786,3.661105204282253,4.742974721250096,1.5391855559203107,0.6456233229314259,-3.039886825112934,1.4935815167220865,4.061576712393166,-3.739105728686773
-3.679735868639935,-1.2560460606875148,-2.99304677981604,-1.983351216395228,0.742931947528362,0.8659142544867505,3.733370526598242,2.8397846961995,0.1650435284227457,-3.1736537462831693,-3.8449161225330974,-3.63361424677643,3.546966817903538,-3.2938683540241467
-3.710195090909416,-1.8531939924388687,-3.538374829028609,-3.247526862037424,-0.2120072394999752,0.0821858898694093,3.8972749126973736,2.168009428860295,-0.9252511910419488,-5.537587895314284,-4.772446457112069,-5.53028286473277,1.7372247726612442,-3.763981455573246
-2.6601630650767105,-0.4383831444099793,-3.260401564061672,-2.2049946042450226,-0.7094953511953932,0.8460873564742634,5.48088490297787,3.638418815482466,-1.8193178334695583,-3.4428771805920757,-5.768994706100973,-3.528284570099173,1.6255863277907003,-5.541890584960727
-4.316299548636214,-0.864922860843915,-3.077380654648393,-3.0868502966791773,-1.362059077537609,1.2638337792069687,4.95040050881307,3.268240072567681,-2.56481007086384,-3.3173544190621294,-7.093217053176812,-1.7185542136451046,-2.52798289156336,-6.106207906041558
-9.044903055200852,-0.9785999246546286,-2.7239718986957664,-5.373183975374909,-2.651707424086169,1.9094292774573836,2.402129532625646,1.6278012369794947,-2.9036741099728056,-1.4753115083230093,-8.691229943542908,1.4061268501365285,-6.4543240754688505,-5.609014252050314
-9.915414199073668,0.3576360904485469,-2.2349492219417493,-5.606833449160351,-3.698891364683632,2.307950407036068,1.8604487306618809,0.9779744386373816,-2.075236035457233,0.3119278109090119,-8.839778747368204,2.748244022633926,-6.198658556181618,-5.226706095288749
-7.414863412971917,0.7669375907311821,-1.6958284429061845,-4.267962460309464,-2.626072857318775,2.8271363214688576,2.863548989077583,0.800541521513835,0.1285694691407183,-0.9569483016580724,-7.400908465932496,1.7308461140758415,-4.844806359656682,-4.477317994098669
-3.552692046625264,2.0442251001020058,-1.9102910396942825,-1.5434608937457326,1.554906469485843,3.941025745918623,3.8373724512769374,1.213316538728136,2.8255516463261823,-0.4582399619578843,-5.853397412023268,1.6267513176129744,-2.2733005265396264,-3.962386750315819
3.115299478549528,2.9599875219374527,-3.007390230569511,3.2680450421497595,7.376463533645392,4.644532994491863,5.490729388829156,2.593811442241,6.268990428438847,-0.4936870244072523,-3.784520852350433,1.6435314607695504,-0.1870532584276353,-3.80620057162283
4.080165814379361,1.9729422221809985,-4.164934643378405,5.191518585804905,11.47351213437132,5.668444830250295,4.853446448581473,2.119492534375874,6.991954748630149,-0.8024420206311078,-3.56961588776526,1.3833368928725989,0.0408500244207601,-3.320499972503051
-1.2967816337755624,0.6410626019597079,-5.601453814744367,4.04033422013075,11.096113899681654,5.495353747869344,1.5609200550860198,-0.2756237624687726,4.543950951885629,0.5221669654711831,-5.626588508471161,1.2455246884396978,0.1756462703074512,-2.652029287083901
-6.570528044558931,-0.9557537941745212,-6.848755036372104,1.740531415957236,6.418032608441138,4.3963618551285615,-1.4589722860839225,-2.714623162082808,1.614356916174543,0.9232875987833988,-7.853888048917848,-1.00761480864663,0.5565568676261138,-3.3980548107552098
-13.764272837273632,-3.326213817015374,-7.75839934121744,-2.980484285637141,0.5029295478913269,4.176682382189177,-4.914032820102837,-5.816964354371761,-2.738576605088184,1.7511767587623492,-10.921400274428072,-5.526788139373257,2.0196030632146518,-5.619177108782452
-14.8316024570793,-4.288733925792812,-6.755003565430603,-4.406169500449401,-3.122549724488607,3.459735262253197,-6.122839181413726,-5.979188080355209,-3.5616946990050318,3.0080447764324725,-10.661906235993102,-6.689209108853637,3.065393412832848,-5.643129625926865
-8.31822060616238,-2.849221471317056,-3.4703656348295246,-2.1417917607959778,-3.171338208654504,3.9179590302061897,-4.407884359800181,-2.659801533586722,-0.147991488541625,3.856949742164272,-6.457769800747243,-4.611902832559402,2.491581151267827,-3.5816425215240755
-3.3073962978601257,-0.5691630886653574,0.2472814556947661,0.9845266404122284,-1.2537385203112876,5.633203261362967,-3.25443981546554,0.2913194458640684,3.374042230633343,5.471357143927109,-1.1936502808451408,-0.7255606497945228,2.9006271650756745,0.7417101876303444
2.2611953158827,3.575804599360841,4.866788216755065,6.453108675902203,-0.0658620796184266,6.11355523642087,-1.914633810554614,3.769856185714199,8.329889104751095,6.972033662828567,6.32485954760491,6.327393818445311,2.6227044548405107,8.309512634906651
4.277943696983811,6.263332681605398,7.473736034249326,7.984221415968633,-0.8594086114633939,6.769422396657365,-1.481076693474623,5.128924818443175,9.939466436319686,7.500211826970005,10.067517511762846,8.468196097988198,1.4827346729621065,11.509236499692378
1.0118139672583777,4.272940709093626,7.533613203155578,4.999963198727734,-2.444882413178547,6.742971979234585,-2.586970389095336,3.5510263817793124,7.3402283279001725,6.936424124140988,9.31341686933684,5.232528603469182,0.5213326594304726,10.162102492028875
0.8497802984039852,0.7197615895328935,8.634165204927367,3.05831447140956,-2.4800583458942924,5.213056687692234,-2.5672894094743963,3.6722602641188336,5.059536760572097,5.550208624236334,8.44294201686157,2.3624517270829664,-1.758754154948014,8.448537389360665
2.608921946087965,-4.386039152824218,10.04322093535725,0.7069214519421894,0.2500031981118624,4.606998832655005,-1.7811869350611509,4.801707766075982,1.790495167515453,3.5976567228107363,5.857855693410666,-2.0213582158939203,-3.701430761966805,4.604967476940901
4.721816591939776,-7.136375486806712,11.118451431030664,1.1185349556349615,4.640400048385459,4.43090976546066,0.2603368688794452,6.551215559349297,0.912408334280336,2.9136548497509613,5.562493453635934,-2.0575220344381573,-3.356108534159816,3.82636455092353
8.62736153975341,-4.091403783207996,12.358779212215207,5.3251442428043445,8.177132024679487,4.29377963204767,4.12181833532037,9.750689101903149,3.25906068260008,4.379242141148729,8.25406745778959,3.37608167315479,-1.4233547622433458,6.8070006223019135
10.323024279568347,-0.1052328509830143,12.53291095707804,6.8574092138083085,9.083362027086489,5.206503671885384,8.219451211830316,12.028197530702714,5.545882588078214,6.157943519422654,10.463668801596134,7.368911563525407,0.3593955749193934,8.421145966458756
9.723023309582643,4.042695385195045,11.58465533357605,6.461903770300758,7.782064614133873,5.945391462123151,12.832944157527171,13.472166204316272,8.798896419920649,8.706914725519166,13.28252046235018,11.40868598702223,1.501742311508323,9.914455965248058
10.02613461238034,5.62702494267634,11.193452508837792,7.113502389922978,6.410008252558697,5.917173516004844,14.941484230071184,13.86014231775299,9.83232315058966,9.194742003702872,14.202191150793666,12.96227343634181,1.252359142739682,10.832523468593688
10.45522561977912,2.25188437235834,11.177404795644067,7.775507598141865,6.866306472556452,6.280449064739075,13.974999916231123,12.591951045918869,8.019679264838295,6.287927379151401,12.645070911328094,10.72901357756998,0.2586092492821442,10.43197659950947
11.097780098771016,-0.5084286800252784,10.510734554316882,10.388083544519368,9.163384681009653,6.718675218304174,12.711159759814834,10.853150979430104,5.069139871473441,3.320814047898069,10.922860080201104,9.711875113797737,0.7716407312971603,10.68847270555336
12.413642381901717,-2.5789821342233146,9.453008288254368,15.429166622291511,11.54046277318539,6.727773928438372,10.27556010034549,8.36509112018888,-0.0479381868666775,-1.4240712269502498,8.290066201509399,9.04130696586469,2.0844279932762704,11.311131714956506
11.995922362740682,-3.3942514272666444,7.772053557906768,16.53109587501052,12.173590371421444,7.000948075063151,7.823944400774314,5.293025497185303,-3.3240689061166213,-4.573134338338701,5.84654214210279,7.246719628697021,2.148522370327709,10.317327074422266
9.84795127339608,-1.077366680174901,5.295672396115457,13.808006038358108,10.866750249434972,7.063586951363659,5.730140469753286,1.8002603137045257,-4.482697920663093,-4.102062458280894,3.902724560145567,5.025489608338332,0.16961607090415,7.857527448225474
9.035455601840964,0.5055158238139466,3.4461011744121883,11.803591755098475,9.15581697001812,6.291377499748576,3.4100040436383217,-1.3494598652894925,-4.010241030479621,-5.02402705775519,1.224302869585474,2.2560061785414622,-3.252429297978427,5.337045224995426
9.221348570576067,2.365809668703051,2.218283668797441,9.284994083025008,8.756940549729684,5.722754197104934,1.300850109551168,-3.950808074269899,-0.7213119965883031,-4.503604729565739,-1.864245134785948,-1.129357442697824,-7.047344812885703,2.416374486663214
9.294825878310144,4.168654966344571,1.6219096207774413,8.011006434868694,9.835889347619082,5.054518661116609,0.7311412592539727,-4.473209720491931,0.957724971176142,-3.21702470521661,-2.9335234421152765,-2.0815403802973798,-6.710381901595416,0.6443030906119833
9.810110397522932,3.250959244052863,2.046443710356031,8.740350248691405,10.730924210621868,2.901539976561017,1.940239397278384,-2.4200934791548225,1.1234898628367156,-4.381572750768576,-1.880644935292677,-0.327329105701351,-1.3788278454061305,0.3880612179781384
6.343136802892341,1.6013307867405786,0.1811679942026396,6.930453651969176,9.407065925149574,0.591305047721182,0.9388445048097696,-3.113487949033299,-1.175930265334833,-3.4798842645673367,-1.531366611377643,-0.2823716797318589,2.52215426062822,-1.0852097119121475
-1.5727271026011005,-1.677796551821408,-4.090082427689929,2.9835108414480693,5.33539820449952,-1.862845903246276,-2.1540889456888763,-6.378854846273339,-7.171521087047301,-1.726227252102626,-1.420924350368984,-1.392486022416036,5.571387022015882,-3.4281810742388683
-5.582610017474557,-5.199024699301904,-6.332086684885401,0.3268584659262195,0.117250872787062,-4.666728233226164,-4.017139896853553,-8.29951666906712,-9.455804443110624,-2.5552903258752986,-1.864061797481364,-2.4227816487834573,4.991022957176682,-4.413216484264229
-6.309165978661794,-5.423536950003289,-7.066094025169422,-1.697697665919472,-3.690037376543836,-5.389899148833316,-5.349513115206742,-9.844018760444095,-8.23118049423165,-1.9675418132608016,-3.4166629994862334,-4.1571421883737685,0.0080464694184889,-4.363246685678137
-3.819857446777169,-3.679816288843871,-4.415521159966574,-4.256491861763035,-4.525278241919004,-5.431732295268623,-4.3328741240567465,-7.547166573251294,-4.441575709571664,-1.0934137077025323,-2.647749018616579,-4.044608510765344,0.1838068116396085,-3.4277155347842645
3.8472947901153214,-0.8225347578729595,2.75528587259034,-6.864290659053511,-2.920245410199924,-6.149151605141135,-0.2409260666649683,-0.4970968681304804,3.723330858260592,-2.678509332119835,0.4118164009276143,-1.897511331251592,1.715370187902456,-1.164829928470965
6.474196215660688,2.177080300982103,5.15665902871508,-7.920381584814429,-0.9134156418976084,-6.018700703168572,0.2870376027252311,1.985011687745745,6.0280117874350605,-1.2550193515693018,1.2599855703097258,-1.549910454211714,2.426710657631305,-1.1356570534761985
4.080483371985664,2.887750542667016,2.9829457987243995,-7.340964654019942,-0.3827019363506228,-6.4044096874553205,-2.539836964124703,0.3880317391106098,2.177090724993621,0.5131236788814586,0.3533800856704778,-2.6093314569809944,3.249799521688174,-3.511582703664722
1.7054592283500587,1.1873336497201803,0.084999116361233,-3.582396405273633,-1.7104160209018353,-7.43727963044009,-4.985846621938275,-1.117143569947555,-1.24841508189848,-0.1239300283630612,-0.9263318628967578,-2.9634857137200474,-1.5237171224483463,-5.028986915946297
-2.899303941780464,0.22658076099136,-5.585663084386625,4.033704079807827,-3.771737567492165,-7.041379258376195,-8.377662198232839,-4.397217226952892,-6.529774989670279,2.612058824784141,-3.441810840495441,-3.2388347769593437,-5.913707927691911,-6.429082649746579
-3.934538236731644,0.06755204968038,-6.993512575955526,6.5741447433095725,-5.065068062129615,-6.770006317821655,-8.690211949743611,-4.745685226190455,-7.259454646691276,2.8052226375430447,-3.960638521282514,-2.4753202665604523,-5.515022817718243,-6.656401974946157
-0.6700546469281378,0.3155774993768563,-3.492677957219307,3.943532096938364,-4.922518346834011,-7.145772959493328,-5.207468369304598,-1.5493366721066075,-2.2450627244475867,-0.6693012466678288,-2.233213185086604,-0.3203654880858677,-2.517709362544179,-5.116712175751332
1.173098711215935,2.764969071187922,-2.0828957509548687,-0.7434608402575631,-3.837408462309103,-6.444256747540722,-3.4689874761109305,-1.543768185908103,-0.551860830295447,-1.5807298529399103,-2.147937588505635,-0.2959355766590199,3.200426043870776,-4.581973466165609
2.94712886370197,3.37769565541106,-1.2354057336860675,-9.69730022265523,-2.8141525971199286,-6.105166957499282,-2.5676365988714585,-3.837136381744283,-0.7390063457764257,-5.928168668646209,-3.0949227983775898,-2.3227604007584577,6.528275295193263,-4.736385929690241
2.626523321284798,1.7914282554321166,-1.9189095981136628,-13.26730194233948,-2.459263291506641,-6.638104228769561,-2.7896511866982365,-5.644063694411246,-2.2255792889064647,-9.563372778230386,-4.012686010193808,-3.7451969613353313,4.694067938415951,-4.726378554780714
-0.7985108695207255,0.5619614050056079,-5.296578853523092,-10.850797491108978,-2.62771634921474,-6.514947980098694,-5.169338570871436,-8.031912307407406,-6.620114742673019,-7.819648912104077,-5.524258210801638,-5.217207481947964,1.2782133478716546,-5.03483361330331
-2.6040748988815303,-2.006522558510173,-5.956476241857328,-7.392443072632914,-2.8346609129519464,-6.901128792450181,-5.569843140150968,-7.583492966829367,-7.674737610522285,-8.285613030045738,-5.538089204844909,-4.266317064499464,-1.8220521270020809,-4.613880292575182
-3.3862805511834515,-2.9032509164135867,-4.206563866627229,-0.4498703715546313,-2.9474305000505794,-8.020483035649175,-4.19388002225351,-3.73284207447142,-5.434381698692523,-7.455032444257023,-3.868176946493504,-0.2618268729268116,-2.6055985929614893,-3.3769089148725624
-3.4983436798113137,-1.545535149435738,-3.41970793500138,1.8047000007480665,-3.4728766893408505,-8.276866674098741,-4.336657978993227,-2.431465221820924,-4.730850829068645,-5.44122614736373,-3.207738278068163,1.0639262065914472,-1.2109583210270378,-3.107747336173613
-2.0368882835876136,-1.008430338149206,-2.652906929626438,-1.437365006089859,-5.149308118815156,-9.328664983532075,-5.339189119619677,-3.0589446508779004,-4.40710977903024,-7.167983960641075,-3.169394129843053,0.1446415703836161,-0.8665416212812667,-3.6686494095731934
-1.9152237816534696,-0.8426035245045043,-3.139643342634079,-5.478869222851357,-8.158728273661367,-10.95953795627136,-8.089604495977017,-4.764411511316018,-6.18522055798762,-7.728122264116606,-3.391381518206635,-2.6861626058191628,-2.32421684363223,-4.592239050202559
-3.044577726329954,-2.3965370742419,-5.430105866756302,-12.479396140542953,-11.610953350763095,-11.787537417066506,-13.237885032529965,-8.751204068343199,-10.941067761717015,-7.413059741383865,-4.363053889887809,-8.727061649375392,-5.3000297813651045,-6.248647019581538
-3.934701887859577,-4.142783940824759,-5.437343619005893,-13.59915192088621,-13.79490519377454,-12.107625411368812,-13.456757685430649,-9.103718634962377,-11.442724298636673,-7.377103539978956,-4.354563653933835,-9.999379992686288,-6.477846849090976,-5.772733963836577
-5.157886768269355,-3.066140538939324,-3.3573755170356305,-7.878452889773216,-13.166517031139447,-9.721666391036196,-8.581737263761186,-5.631948508981603,-7.875563141043401,-4.770584632924359,-3.34757026957223,-6.3089004491672895,-3.7100845831620375,-2.943139243454252
-5.628843288347326,-0.4384819144959638,-1.779159207755051,-1.7456828156043094,-9.483407235526672,-5.811215938582544,-2.364534249192355,-2.399002092228997,-3.449720051462587,-1.476127364946306,-2.724554312261777,-2.15088141477579,0.2903182990907866,0.2570411166785058
-5.139808140554133,4.091889226213398,0.0410672241190103,7.067116826216504,-4.2693226951537255,-1.7887363230967064,6.929619596283023,1.8906318512815283,3.3886240724502112,1.948105899254021,-2.1542371262822697,4.302904363734384,5.769916704097901,4.537253477623825
-4.307436449493409,6.970714383499265,1.2994885055347458,9.78043022398279,-0.1168855200224214,1.8320274491253807,10.48889523002128,3.754249839659374,6.075079460978421,4.3448459240019375,-1.9770226557956927,6.377336521268486,8.656051270750105,6.7342044489338
-2.7983534882632024,5.265721675903452,1.6017296266509242,5.023530695063132,0.894843308347582,2.0065337055644146,7.350001765762267,2.4403266051316708,3.9104319406296937,4.245963082840833,-2.4262776703512947,3.174988951877158,6.518747068700835,6.380369470019271
-1.900462513217568,3.0287636141640544,3.770552155427701,1.864633249800132,-1.3495385570384073,1.284331715523824,4.422686220023684,2.3051503951735333,2.9627129407138884,3.9412702991134703,-2.076662146872703,1.474562102440453,4.920147952797574,6.267211469171996
-1.719754536055535,0.2587476725987672,7.680135746313927,-1.9050228262111355,-4.791294477777441,1.1886864365082113,-0.5252106431372057,2.450376133985668,1.6863480243965154,2.62349569635016,-0.9948850842112932,-0.3278782482250764,2.34154410529731,5.560001235674784
-1.6495089066708255,-1.4850174677379722,8.242887372301997,-2.734490295145142,-6.5382582296005065,0.7181216802728092,-2.5736895621354283,2.4065172370701475,1.0927026301176126,1.5874752150846418,-0.0897468879816206,-0.3153173245371155,-0.6641925433886119,4.692224420200436
-2.0339499550584894,-0.2946802939183697,5.637681956642042,0.9647218264481991,-4.879445903422138,2.6315867016052934,-0.5939023209478952,2.801287199219954,2.0757335965277246,2.3391652444832136,0.8965704898296712,2.656529246509644,-1.030842914009673,3.994583151026309
-1.061774498609279,-0.1182234847053949,1.634048517624042,1.678175968950464,-0.4825441709438962,5.380635715128539,0.7648344257793224,2.7831303185137157,1.6506978817536109,1.9126698505545128,0.6401406524856909,3.746010607320955,-2.165032756409889,2.7411700100754497
1.422587496460707,-1.2225602848893866,-4.91790984668208,0.4336422296384541,4.146270721414068,6.691260833901272,2.946317590143701,2.4492749227805,0.2330540621114394,1.4232097514023256,-1.1064690796634216,3.571784411672213,-3.638466798593152,1.129173757793254
2.1718692970513325,-2.279626553003149,-7.17222763886434,-0.5051736466393156,6.498925295437777,7.92291064434498,4.340671099532868,3.1365109186190754,0.6584565223088981,2.1992381578747,-0.6392838675782547,3.5816608631867166,-3.16393236473788,1.1245747578652898
1.4332142789807003,-3.455138825200182,-4.575065807334938,-2.355592091502561,5.747598337494365,7.665175443719896,4.352332173496001,4.82770161510592,2.6589320548935,2.3787745164453886,1.922019500221312,2.970920281623436,-2.6508971486293507,2.85362193368118
-0.715957269082116,-3.659669999239144,-3.017567661390692,-2.618311907562144,3.0436456678088,5.869775302467094,3.2969779071570717,5.299009523167859,4.168165694082108,3.2303774887499923,6.624151402329787,2.81753772861146,-3.301806897863795,4.1174254087708135
-5.031188966541696,-3.0736854748932925,-0.9212348865523106,-1.0475743386592211,0.4156293075042878,4.590437883231858,0.481897848898706,4.691514942387402,5.635814432498968,5.331537320504445,14.43211927115882,3.208422557022689,-3.334330154803926,5.322645171748901
-5.5576712338245,-2.12182743206859,0.5295060749516222,-0.3563157596248165,-0.6732321929720584,3.901049165060298,-0.4393268575156963,4.45378581203834,6.606820917823767,6.425347361287731,17.684296420100413,2.969430471565813,-2.9514725130377144,5.657804193330999
-2.08027487587048,-0.8244805802442388,0.4846340259896406,-0.0379728538630977,-0.019945000982263,3.903628591744882,0.5755225130294227,4.1902898418423895,6.698384994653408,8.51117479369449,16.150043906083212,2.294880946117499,-2.4865086795335847,4.659808682210161
2.6823074724157028,0.6038615059739779,2.714309752722872,0.7396772574897187,1.600946621628868,4.5795390833767815,3.4043644598329474,5.66553390820825,8.544965190108169,11.832952908639712,13.729052760426647,2.4290656492197678,0.8414731877645374,4.327494391901403
10.209903026343309,3.595113327774461,6.8619069837794,1.6008938127819643,3.1365943902912887,5.247672444603481,9.052536649450582,9.248710284223655,12.092340221719928,14.179184620694896,8.584683269231457,3.285262097062753,4.899049569798055,4.393382833537353
11.782658736160204,5.685510287990419,7.3878173020758995,1.509529908277922,3.7779800494875024,4.90720884710143,10.362456100743136,9.64147340170062,12.968568984325486,15.54803889446518,6.088522830729726,3.500133848077269,5.997654869962155,3.9415160958266826
6.5936840189374415,4.826145591780373,4.537761553070703,0.4015724755176079,3.194036300081699,3.922596130164933,7.138428847303617,6.986184299079266,11.414693930768122,13.849773429602832,6.830152790934492,3.242145449369771,5.022709391329005,3.2649031448531987
0.2087303944740199,3.479563974622983,0.4047676913225865,-2.55712906636488,1.644766486124989,2.916969703274891,3.066626433430653,2.6777077483325677,8.523812490693725,9.797309257755977,5.027600916645337,1.8935349028342336,2.7323450299443626,2.330563702050152
-9.639406967022706,-0.0019921572616969,-6.227152360061508,-7.797111109418337,-0.0558272338463332,1.264710501631907,-3.5482803336506903,-4.529638051686414,3.316060267611576,5.310816623247657,1.8454872506070223,-0.8999301652465195,0.0623705097474324,1.0327698493190955
-14.194230621414642,-3.035575933977442,-9.306904957733868,-11.007175794751523,-0.9576869451886056,-0.2726462763881444,-6.103220899834797,-7.7056537631026,0.2377376473227274,1.2010480687569582,-2.216652930372795,-2.8588342827847737,-0.7524629678071061,-1.4341989661182892
-12.32209629156795,-2.056056208232833,-8.306269832137723,-12.226234461374176,-0.7165310056381804,-1.8625307466434613,-3.859596493078936,-6.449320481275212,-0.4943808771333757,-1.238351241980931,-8.039264228825932,-4.11626253378268,0.542560611225034,-5.209357168255499
-11.890013788039417,-1.2772681165936215,-8.387262421210506,-12.692133006055832,-0.0610280616029017,-4.276145182632652,-3.2913831682104497,-5.54329836568637,-2.187640360388849,-3.4631381878279592,-11.620747352619412,-6.265361767029567,-0.2693203579927766,-9.889725438889675
-10.70722387585146,-0.6815998410472034,-8.137134332488875,-11.363975849533732,-0.3520523824267254,-6.609440068167461,-2.867979047400908,-3.362908343748165,-3.8556768589790473,-6.436192158018465,-12.857548439997007,-8.922401782592917,-3.847766183351921,-15.744166837415316
-10.712728145697415,-0.2138161726546616,-7.909648537861338,-10.95165666395137,-2.379846883882797,-7.871949590406041,-2.6264826420068714,-2.5507200293433434,-4.269879216775317,-7.527288014485199,-12.131546442857172,-10.217506552067013,-5.802995400155586,-18.17069477486495
-13.013049399976204,-1.7351558463556862,-8.360343887462477,-11.489748897094586,-5.4375334349562365,-7.892669319647138,-3.4812587405345914,-3.7763442892740735,-3.6597461034545367,-5.871233416388054,-8.340098342101188,-10.192727680613864,-5.2441395386935845,-16.742225503057146
-12.247818167972442,-2.1718494971208835,-6.946939876012114,-10.561289336866324,-7.674711085920497,-7.141795425119216,-1.3633067956711378,-3.1891483077523697,-1.7138610081652426,-3.208079206961008,-6.216859333592446,-8.004523790817654,-1.803893705830342,-15.213699427563688
-8.939941427555295,-0.3605571327818071,-3.8159584576856216,-8.65009664346938,-7.59876554312719,-5.483050035441646,3.684702041833464,-1.441809436986746,1.8592275059503849,1.831498017076667,-5.722641373752287,-3.047459234497907,6.007625196552953,-12.44846519060916
-7.358265454221377,1.9139175088560023,-2.3152478921405266,-6.42655302217922,-5.406081033520977,-3.979819762031001,5.379617318581606,-0.2611341046017721,3.5231065641785086,4.491455428781356,-5.487670693687588,-0.4294870641972432,10.860475502062323,-10.667394488526016
-6.786474499703641,3.4047353366100657,-2.189420089160322,-3.558662794452652,-2.85224311565063,-2.90278303751674,4.150620052431746,0.8530984582656694,3.156860990590712,2.0403118135280014,-6.626787303715551,-0.0961989794525758,7.871934195608389,-10.48531415016481
-7.620545033118719,2.144429158134508,-2.2899057657599267,-3.216051563060621,-1.7123678361366297,-1.0400167206600013,1.781950624494627,1.4684711220010205,3.1606953861750977,-0.0203508694533358,-5.117815347529691,-0.4193933037560098,2.3397027553743763,-8.509153190426078
-10.715167221892216,-1.271943959416865,-3.2994244113146363,-5.746081266859287,-2.264226842736061,1.1014428380071724,-3.063826255204776,1.3109679631188969,2.7333148310371493,-3.8560733803302334,-0.7962296119222539,-2.6065793257273184,-6.213345377618409,-5.311505108618501
-10.039381592138277,-3.9413325383696,-3.1900865687307,-6.479316547524045,-3.2398977163892715,2.104954522682588,-4.973327473139889,0.7511138727102956,1.3634246928750389,-6.6274385427148665,-0.0680588407723877,-3.463644865043789,-11.996092263756584,-3.395085164355597
-5.538084545707224,-3.84392317796532,-1.808344020097732,-6.0077918620107065,-3.2606709877306645,1.661141491629124,-3.6314870324541886,-0.4276173984123224,-0.7903478734734445,-5.483233849670612,-2.4209663723116264,-2.8909008723968785,-8.33901920103646,-2.4197973268328865
-1.0520885728923484,-0.5840035548022826,-1.1863347391477,-1.7714317244531603,-2.283656009186217,0.6762439325186697,-3.613386258580029,-2.2131209874703077,-4.242662245885303,-5.716727577475608,-5.718966134042112,-2.781430876735674,-2.594594487175897,-1.9333569013574607
4.7084814260205,2.5049760250939745,-0.9077608165659502,7.450516776744257,-1.5524901471843666,-1.38334305140542,-3.752046199904661,-4.636228273418763,-9.136420949750166,-5.266126232730119,-11.240826541632469,-2.432081879236102,2.8750652720630034,-2.424181799649252
8.206755329824137,2.7341696087858307,-0.3415185294136784,11.566016682384788,-2.05720975139147,-1.9969753668336805,-3.3032652277704635,-5.601631459657744,-10.99845731679569,-4.346688430215907,-11.073572705274817,-1.7778794055948253,5.450901807805541,-0.9511513236889068
8.73861872858143,-0.0699745068574297,0.2513510744106355,10.923985552342304,-3.092326457630993,0.4805608291699688,-2.794769391522557,-4.917803518025465,-9.587029940976963,-4.50443223952384,-4.508819630096955,-0.93797412765869,1.4790592959514406,2.6525244025193078
12.37254754838016,-2.9538483628976224,2.600896275547816,8.993213815430252,-2.5277603514543685,2.7406874344796286,-0.1607217951379481,-3.274904974912076,-6.848958074745079,-3.2965295888479145,1.6094493892359865,1.1967880950663523,-1.5954398409707269,7.053279295731235
18.39800895265321,-2.68432957125554,6.932636122618461,3.552710720717206,1.2452083335724602,5.957736910909109,4.773142571861184,-0.0479319868592973,-1.5975547335002327,-1.959124252950653,9.14341732972436,4.72320433293674,-0.4930704152889315,13.012182728794434
20.453833155241856,0.3208076072748893,9.109018735469904,4.502127437972657,7.485604961984318,9.194806349963208,6.925653624457549,1.8919787671460853,0.9666680341341872,-1.4786079931740743,11.328922274114026,6.172448378270478,2.434866604643184,15.234756671072288
19.1512621254274,4.155769762931267,9.306458655038552,12.583608159093195,13.257344833542556,9.84313795681928,6.428866240662622,2.4208149669229573,0.4497994821744297,-2.0969628114755188,6.6430204549975285,5.548573290953268,5.905299902487182,13.243388680531297
14.511998342216572,5.890761943457546,7.598009306970529,17.76526098096247,15.638612939850706,11.243291082705356,4.914746284783071,1.172649866274481,-1.5842227395213877,-3.422661990247661,2.7798070097513565,3.066927923044326,6.065568045130328,10.260641692549706
5.0683967405847,5.080513482907637,2.940621665350724,22.114774816836817,14.079828922057413,13.0255294154624,1.2081413622871324,-2.7381898184519717,-6.604460819954974,-4.893175080203013,-2.150617849436957,-2.217379735058046,1.933747322565866,4.894482412917462
1.9591924162970356,2.4088123763805185,1.4215497910505852,21.749444893453305,10.778855127279154,12.689823338320895,-0.5869620840926709,-4.174886649946482,-8.220828562394463,-5.956496167766904,-3.491169816737099,-4.299039725528903,-2.4807894976718243,3.4894022026460254
5.528075390303625,-0.27816526659532,3.1011023057706617,14.666720918002916,8.739641825020096,12.399802181312127,-0.2541376005693358,-3.222262241851324,-6.192506716949243,-4.803007404483679,0.2495891752025,-3.0381771472939643,-3.6184293866373753,6.787243901127899
7.659368892005175,-1.048124315098896,5.305243803336104,12.299695263677137,9.283390298907593,11.604648390661362,0.4105163056185425,0.3426282569065577,-2.0055714117730905,-3.1290797661897845,2.993179358796703,-0.1516877815264883,-1.2464421373134875,8.858296459159172
10.773257899437224,-2.66362784494433,9.454055438856294,13.688173701850031,11.187361708173524,8.47436180517471,2.443637009600099,7.895701979445071,6.050707151960675,-1.822415036148718,6.185023134216088,5.905919221912672,2.0671736804983776,11.2323932558431
11.0469577867211,-3.730482579446449,10.369312255063129,13.606976412477684,12.028394392432736,6.884592121793656,2.570568504028089,10.197727825954592,8.035142536108456,-0.3334674624575243,7.214730760420032,8.86403708369942,3.3129374676531977,11.512397795025011
7.204746630283952,-3.51336935178924,7.580008667918425,14.088194162719354,10.320325745111152,5.876464086675084,0.551201191038074,7.141115643328128,3.4940427386671,-0.961402288202684,5.00014459948629,8.483108091673857,0.3747114532883502,8.69352847544473
5.800624421921311,-5.389140619624676,4.921027415645294,9.277718160281832,6.540394057213351,3.083267378682354,-2.7973341643152105,2.254843117944133,-2.084452893207418,-2.382435759404931,2.884018761521018,6.704295896530347,-5.996296425540362,7.002775234118654
5.819755453789868,-5.294561348384773,1.1300812639325168,-1.7791175252329818,2.41874638148861,1.80159537559972,-8.399498078296547,-6.689696341500145,-11.106347153933154,-2.928584906649008,-0.0731016367507293,1.9014908636626948,-11.895461402276586,5.699579657504769
5.415035778953846,-2.77829928860462,0.6307073399870182,-5.33842005032241,-0.5176841364249327,0.929925878752976,-9.277815812660412,-8.779986652543519,-12.359480024296804,-2.831860884668885,-0.638547008048077,0.6738534351974075,-12.194704252815653,5.148774108489793
5.59880272005002,-0.5995229000478968,4.213224052184458,-2.0799670057000577,-1.758887690808871,0.5778119277683487,-5.022983341833601,-3.1780742006181613,-4.542144604338649,-0.2806899290331289,1.8732742249315455,3.307154808980359,-5.841871828513567,6.105992273294525
5.874913335024767,2.8435500582909348,7.682871363858534,3.309747479634545,-1.5663879768403346,2.416609357556142,0.6184709817103689,2.700991383488337,2.2501705197168125,3.6193040901262874,5.326609667504687,7.47664860968974,2.705633671727296,7.508710609370272
6.204438169351993,5.550007779706168,12.242399352534502,13.775119118636924,-0.3652294394276589,4.232151626666783,9.410650185321332,11.532894498038956,10.757702403336946,7.573794802765105,10.756948543359233,14.883846992484116,11.91315346433032,9.74688041415738
6.345707271117979,5.118784728759353,13.160427837481516,16.106482739990838,1.4256570317901347,5.0439609553817455,12.746906943674324,14.284252123951951,13.69205927561098,10.206663632598636,12.72111019607039,16.704476574759315,14.969531014695718,9.865485547490191
6.158925148940021,3.3700876030290106,9.494653772443291,9.27649901850508,3.13438015743489,4.80696750310609,9.714517124740071,9.508154490085673,9.091600900290878,9.911556358040103,10.68134949231183,12.361177080973446,8.978575475495205,7.519235099014071
3.715824649740902,2.169999774105261,5.513191081864308,3.384921668992353,3.808173018496548,4.040731524322446,7.11649231861214,4.811263028734023,6.321065744944708,9.042581773700514,7.4000455423307026,6.646373535561696,2.9820483826521054,2.982542471650704
-1.3314396874813996,0.5849538057416244,-0.1550029083455462,-4.687570835839384,2.7988848888358357,3.258769512135652,2.797477923804545,-2.2615866761505146,3.305533433096762,7.51047378324019,1.3743792328155582,-2.674946792601093,-4.293284075753363,-4.724917309602935
-4.2041777371959625,-0.8310904111437729,-3.30780745740797,-8.484641436534186,0.4905590271039091,2.280548255640028,0.7849502635340014,-4.749274107752305,1.7708699031740454,5.8187748236755175,-1.2286560810557063,-6.762611303852802,-8.868484490665345,-8.703044464646347
-5.1566630972471765,-1.5046618739078754,-3.1397780691190578,-6.332680591728857,-1.6958494214555748,1.5891579031193972,2.1320547159772123,-1.2666405543261965,3.250103929649113,5.84553548645454,0.119371481986314,-4.662544435840183,-5.648406797428266,-8.739558978921176
-4.07264545508771,-2.6503735789497656,-2.7239251953824986,-5.473496677437251,-2.298014766012037,0.4990741246640936,3.0206938034893365,2.966382151022714,4.464135583184719,4.9952927434718815,1.9430013215222752,-2.462260415275773,-2.9478899002768464,-6.82822043007911
0.2403671438322593,-3.024068821017124,-0.8005706881832138,-4.028951540844492,-1.0602967962134415,-1.4094149241141785,4.690017438218816,10.04379579588332,6.338844295707451,3.2888595176357245,5.848045015698458,2.1347235791431203,0.4694986420391991,-1.1611716505386196
2.8946618695003976,-0.8942974284302931,0.5844657314037724,-2.3691687133171357,0.7120838355869885,-2.18274628749556,5.481448985806557,13.042598515952571,7.477857439187074,3.509701366450471,7.762757385355635,4.405207851568988,4.697435420481031,1.9879868244395649
4.088195635908772,1.9125102889149392,1.1133883672929197,-1.4171275046305452,1.1453283888205097,-2.7835986341240013,4.9075662564568,11.042771284218194,7.41546378377244,3.7738369728929313,7.2324978990123965,3.5076928986361597,4.727168738825061,2.4546304558284904
5.350123589306029,2.621687314201097,0.9161664621830834,0.2503162697707735,-0.6071461521160606,-3.6331917184759264,2.5745191740147364,7.603768934887012,5.093404768024384,4.178567856141487,6.675034601838767,2.233676148960466,3.422246953493682,2.313341419453464
5.633445825613444,2.5317137673061136,-0.6914602062969506,2.2357311634064985,-3.5093553584234503,-3.175588388250491,-2.2448450097678085,0.7200465570908463,-0.2122789476535312,6.737342478179813,5.010719773694615,-0.82977545239253,1.9620485369840197,0.0057083300620559
5.243979620556128,0.5289179409105311,-1.4838663660010507,2.5287565410072546,-5.322823579569112,-4.6717281074098365,-4.271277951479772,-1.81135311635174,-2.3236985531280423,6.782533039304713,3.7480602447518767,-1.6545084647243582,-0.9493048248831916,-0.6634204680350868
4.054458711170473,-2.489448146943689,-1.6003529299821864,1.0528646081037678,-4.364345060850368,-6.855715747416329,-3.509087108896415,0.6252468686630008,-1.3363661043198665,5.65415049090768,3.084409836996548,0.113221819490134,-2.443738125894261,0.383616312666909
2.140373801620043,-0.5437423306721895,0.042749258692442,0.0275644670474863,-0.973389129146519,-8.136982739595044,-0.9173630289209974,3.9734362821231017,1.9612885558094468,5.989039772225426,3.502130135273226,3.610076153395244,0.1265514669345662,2.5179924049374462
-0.5253972337447396,1.774446033971216,4.070871827845822,-0.9449942019109016,2.5050739102462707,-11.75078253019684,4.851340003138042,10.263474631060182,9.13468763675121,3.601390891280117,5.5372561571267385,10.01479239229017,2.7168961155934683,6.715743282902036
-4.940154923762695,2.010567399657091,3.1592052908329773,-4.109511381649874,3.2920451345884576,-13.641565221833975,4.8554707958678565,9.370632285913272,9.137702392888984,1.4046295356159542,3.6677167604751393,9.076318599767855,3.087719759761742,5.139945516101876
-11.206682880653366,1.3289016237588818,-2.791683111461267,-9.3043699527927,0.1600414418487243,-14.948813125815096,-1.3262939271397045,0.3002228138087135,1.5004165237139286,-1.416606004821141,-2.2246703081518238,0.1856742043386339,0.5543468611989939,-2.632363244523898
-18.006139421183384,-4.323003764965215,-10.287372892550344,-15.01444323215314,-5.672620513968916,-18.578079941617176,-7.636108052838526,-8.917980372579898,-7.195002632269228,-7.779613756728738,-11.546866269282493,-9.541510869885837,-7.230977967625511,-11.358896531004312
-25.542620318980507,-8.980313197436752,-21.05245164711881,-21.64006939935005,-11.444120996654366,-19.72121912192309,-16.138950721440224,-20.773741541825277,-19.568081824458275,-13.226376057211075,-25.830815411117342,-22.543747494421265,-14.982470049653344,-22.896491812278843
-26.07484697132813,-7.445456114307781,-23.31363366244745,-22.838083632813543,-14.854035616891103,-20.23087657408401,-18.133838692116257,-24.49354091404356,-22.976660047134736,-15.579491866064393,-29.44200649962577,-25.486426779172863,-14.564284699587589,-24.69561423338084
-18.556883073946768,-2.3391470074184584,-15.866232562488474,-17.751116457190278,-15.561808175316818,-19.605160502813632,-12.22162134158981,-18.17995244773128,-15.787231915415925,-14.419706510177384,-21.48382380009373,-16.418164441046507,-5.907965671387585,-15.071297870428412
-12.42251868597279,3.9354672173338767,-9.623441178356885,-15.749227590142812,-14.96093174084409,-15.292257024889803,-8.79348419899724,-15.212797668626166,-10.862604680370056,-9.894362021534109,-12.446336396641476,-10.94910108996084,4.746200916427903,-8.105330700904842
-5.882393032809435,7.539780919098471,-1.7956509372197744,-15.545569537745276,-14.491496414222995,-11.336477735791386,-5.773340565010626,-12.97713741679815,-5.16652005616982,-3.573311936164804,1.4207586542695283,-5.9417473165822425,14.397275359788502,-0.8484959563089967
-3.70421593715462,5.726455299135696,0.365378884786021,-15.780860982006972,-14.10005401860852,-9.21481285432271,-5.821536253952989,-12.735043231317173,-3.967717799000493,-1.799389159303983,5.057985395270284,-5.050893888196148,14.856399670293964,0.9942893950454434
-7.958489440536642,1.5699768663451246,-5.304084622381528,-18.172326284457537,-12.38581266692487,-8.273438925466994,-10.880656895360426,-16.79394429242045,-9.612743356403543,-4.091311595533725,-3.8495187308216057,-11.155876018882829,5.813065846609985,-5.35790301256938
-6.910623101308224,0.7661309495453168,-6.711903415378225,-13.795100982388533,-8.39138363222402,-8.78220972027407,-11.708345442617889,-14.893352776153453,-9.80217745493157,-6.445149720794904,-7.502937582414128,-10.624534221361069,1.4865546244230714,-5.870899723548586
-1.7897880312796368,3.13073961057892,-5.754967561800989,-2.269131646462745,-3.2838390788103657,-9.733826535508513,-9.112546161309742,-7.527165131618296,-5.947788645500237,-11.995052644538022,-9.445669344285848,-4.57757436655267,-0.0426355876668324,-2.1521056860160943
0.3642980124546428,5.431456883323272,-5.194455359245801,3.7067467952524433,-0.0450380956227958,-8.470769518757846,-6.920497881401501,-3.1948763262084308,-3.2332749555845988,-12.680813307990396,-9.168812627706696,-1.671148583741586,0.7525827518774353,-1.5819859986173894
1.3250617310048054,4.876431808999934,-3.1012781674124934,5.468714672348426,-1.0795379458976493,-6.273347286601351,-3.481643185745982,-0.2786968293563658,0.3475612912813259,-9.49417888072455,-3.750627691742375,0.2591576185561826,4.200791395221417,-2.025012048204423
-0.5834378228478737,-0.0989457168316797,-4.262094879277036,3.048435889923821,-5.777024631029479,-4.508097634365516,-2.424297017937346,0.1426537648304509,0.4371988139990601,-8.976778358432131,-4.440680975447696,-1.2453108637953754,-1.0740056117028882,-5.892242118242837
-6.555104272506823,-6.831832401348658,-8.93179827606353,-6.336293164736368,-10.420837200190316,-1.3138261058202836,-4.292166997877031,-3.528008789506877,-3.7888770784488095,-3.60864339487848,-10.750672550520628,-7.684831360030094,-9.26147679794834,-14.359786539108478
-7.31583435979001,-9.625102069600254,-8.691331147683862,-9.106610632863148,-10.861545727795566,0.8680007494861497,-3.48954442338128,-3.01633994016754,-3.42102924141589,-1.0832019775424684,-11.219602972652195,-7.919557883002169,-11.581594677604816,-15.324176039149956
-2.9808716836936413,-6.916042552624914,-4.074527715267165,-5.381252948521753,-5.813871064535329,2.5603570473732247,-0.693219862802514,1.390007702190882,0.8565512264112377,-1.4488712064158067,-7.41303267244152,-2.249175515574413,-8.666203311054751,-8.78899203435247
-0.2993995663664187,-3.0017711986845343,1.3194744757806505,-1.07349464902695,2.0738165457985818,5.958338622118604,3.1051604825393198,6.722570208355799,6.4489244910382215,3.3345865012466707,-1.0895902734795015,3.3075792180903423,0.077071022920365,-3.2529771909160727
2.5168010856117906,-0.2371759841117428,9.16755023637567,6.824368963759376,8.318802827304495,8.20462522764755,8.963432163776396,14.761172542613538,15.162095951558944,4.043612065020374,9.916785805177115,11.018605212889204,8.86446481439948,3.750809275719553
3.8615084781778632,0.2114982219535052,11.876782707396254,9.902566080684275,10.036539031214346,9.861606959810562,10.948826159054796,16.916416351745163,17.149984274266313,4.59886191806271,13.358287711892936,13.174702978685204,9.833518614122095,6.788184794262964
2.6892359595773843,-1.2928605785114038,8.587036783943963,7.345331942798765,7.808924548242974,11.605570322320144,8.744469570353283,12.472689891192063,11.669177676146507,6.9070770462231295,8.643881419964753,8.572352488004665,3.946863148464688,4.320715541670227
3.890461027792609,-0.555398936982165,6.770712003155923,6.440580254633781,4.654618514823472,11.78192551408056,6.692167631264321,6.969262263209748,6.222865307043311,4.292646005681547,5.381100031077405,5.601867148392118,-1.9829863891113884,5.311602444547994
7.0036271528316325,3.2523298137613894,4.651925678967266,5.250642970114499,3.3641633999644345,11.77883273293262,3.4412277529375217,-1.761314722692191,-1.5216982418640894,3.3738804806339227,0.8830203114032026,2.3805452770700275,-5.502331607251489,8.39393342623874
7.750632140520907,5.882571099775344,4.0777243973236965,6.650510483350557,4.641198328239447,12.18495863171228,3.2653118496763067,-4.505983735195021,-4.310768509017258,4.091532244135141,-0.1555813805908735,1.4397561928464662,-5.239170575732363,9.233615651098123
6.752721535840741,5.725228943554245,6.283584031524046,11.83944425395551,7.336985499708723,11.819481261973896,7.038292191380995,-0.0304473263740416,-0.6559343296094756,3.922416943466653,3.886081756859349,4.266386943857388,-1.1249613951709283,9.050459531057417
5.859508943915791,4.486226954743729,7.010010284335481,14.516439899728734,9.971312667816273,11.024299346758164,9.869756221955466,3.974283743977295,1.5913368672947552,5.780193307350426,6.036539549413567,6.1319063276647565,2.2986379512420134,7.254033155639819
4.393448110404176,2.317940662894671,6.960040372369631,15.434882812630017,11.804731790353824,10.053270901417344,12.892361055092888,9.907251733458766,4.400848477617142,7.210092794149269,7.696987755587449,8.021660938862452,5.343165503847162,3.1996490415077
3.5628090156551533,1.0397516366579815,6.500450368600673,13.460331796486312,12.661515754542132,8.841683274628117,13.352587061430356,11.378258856232366,5.314282196889161,6.819339555305894,7.771560822449534,8.052360553302748,7.506695949372279,1.2981799210324942
3.6533631589588342,1.31906214013879,4.930999387264218,7.191948565538904,12.243818199820756,7.728360405223467,10.28028816026878,6.99544397472663,3.0663253890953355,4.973036892315579,5.064025423602112,5.333061621764568,6.271602024358053,1.526313182010247
0.4404570387425636,-0.701175179310164,1.3357887409147804,1.1568398803571769,10.107816705193583,6.7752925098875725,6.664448451903613,2.172030557361686,-0.239064272728815,2.237810778937822,0.5804526075733444,-0.0118835858463415,1.659368673008262,-0.6162250064031627
-6.039737285060288,-5.358925304983857,-4.643520028688347,-5.261778750465535,6.447632396090343,5.67911483033255,1.5385139992145358,-5.012213382763473,-5.70649874636149,-0.9151653116968154,-6.5010457091716285,-8.961190064139046,-6.136534903308327,-4.397317852762765
-7.02111707516958,-8.073581452142264,-6.762930972548541,-6.882075741011658,2.64867617407112,4.967662870928248,-0.1845685264964249,-7.55528746077492,-7.683813950698541,-3.416358607905272,-8.647496941229564,-11.676685781039897,-11.750210056278505,-5.77906778531894
-2.7536086805351423,-7.036803362739222,-4.8734489201352895,-2.315969385553824,0.6377580083494312,5.785463127779643,2.2441271476948645,-4.375979066741283,-5.686769882846333,-2.56450611023582,-5.324857953983032,-7.709979907445134,-10.61912409336245,-5.192756399984568
4.183491987319207,-3.4720547517186584,0.2481725487970381,2.9804259403163864,1.3586028709644171,7.203564852060245,5.706871347210535,0.1784896617872935,-0.7142706511885583,-0.871346745611129,0.2632648076177937,-0.8926860316311531,-4.540129944798995,-2.731666276902734
15.844772565747071,2.5628560532891385,10.343385245816153,10.663524676354848,3.807161238162884,8.995418215296546,11.644665549828606,8.154682704740365,8.942993620893931,0.4003634872115629,10.168667231820452,11.353436822144186,3.6558507156415097,2.5158851523786203
18.962307940031668,5.9028261620060345,13.744917655819338,13.16016616779421,5.703079301301214,9.966101381906595,12.907131251196567,10.897021506202597,12.12572030820144,2.586744802846056,13.244810564298364,15.474054511615613,8.149581986434223,5.250649741580933
12.606613534370323,3.5754207721460958,10.033839114005978,9.167668730711096,5.326492754756838,8.332746864744776,8.739313494985689,7.51111399102975,8.401988901328592,2.612298462954209,8.639772032207155,10.48941142382805,5.111547087701486,5.401103916111168
7.39532899236772,0.5442054785878635,5.130934587766286,4.886389631780012,2.881782971272873,6.082347151745427,3.938816101173364,3.9360235630059455,4.520075226538933,1.7466611510961592,5.444767885788053,6.625540353859654,-0.617606622954881,6.766955943878614
0.2609624565152616,-2.4291276419623142,-3.788600363652132,-1.8382808357662848,0.1736071520386843,3.4671094000089067,-3.372190602645659,-2.062819972642332,-2.125932491830848,2.8832263250753685,1.0748452082974265,0.6896524789513692,-4.216787308469447,8.252773910696158
-2.057131972650978,-3.347707593909558,-6.691213210046446,-4.192108972068528,-1.021633046830599,1.777636769413349,-6.057531285472404,-3.434838317359147,-2.865853363052481,3.233565902183252,0.5239743907469082,-0.6622028881917543,-3.9125008697199712,9.219590223414375
2.3232370431960416,-0.0544760139326701,-2.5123112769392804,-1.0218039960310152,-0.3410605402472668,2.412678614835101,-3.14152757991364,0.8974094213918993,3.58112160097078,3.72085413759153,5.344946408973184,4.259879520169127,0.855406461083837,10.040296739605502
3.653716167598232,3.428331079651124,1.1167098236149953,2.497494794197582,1.1867451242317957,3.111764460034198,-0.4635860635333775,4.578319774362859,7.7788409784988595,5.651543982204917,7.127047221720933,6.434594749857547,6.624890380511595,9.950737593230926
3.755239316988467,6.373608385035951,6.704344026633213,8.304747031925961,2.2860736819058287,4.294892380298048,3.848692996694512,9.44475786602411,11.800670146469372,6.144360193989387,7.173233829220944,7.6188955217567,9.206258330840829,8.855158784960611
3.0403463828496835,6.907746424308262,7.19917948707755,8.907328326980613,2.433762339765677,4.106855103442042,4.215980314205769,10.345934803369635,11.51368610502523,5.8297978755838535,6.445354420025487,6.712605274789742,7.153182016384411,6.993791807234876
-0.0600879199593816,3.3134922368569524,1.2126488714570025,3.2400708108667065,1.847739844537864,1.4017896596170387,-0.4625685335857533,6.064616228206442,5.084844801650643,4.987457619904674,3.495775820867561,2.1496650563727764,1.9851457444371343,4.139379808704863
-1.9061838361846,-0.8940947708387825,-3.721463098070701,-2.644204819728268,0.7992171966408965,-1.1681424763591326,-4.421328684200823,2.852700792240761,0.2742784647496247,2.619411124952824,1.8051359668750704,-1.5753144298877462,-3.3007213115668863,0.2905084315846448
-2.818629322640516,-6.060430929217927,-9.483828755413688,-10.74422597863139,-0.7782417039471616,-4.933530767438453,-9.174868577825691,-0.7020361984836914,-4.229579387235672,-0.0680102623477945,1.2360301804003648,-5.120909845401164,-7.611247794994823,-4.619543181716372
-3.229660944533883,-8.553678312256734,-10.747459141445264,-13.257698241331862,-2.9421629920611663,-7.412481206574908,-11.044478233811688,-2.437364237226704,-6.355559061773523,-1.715174052817661,0.6372790756119467,-6.664982919704983,-7.659022225427742,-5.921948549272843
-2.4170050376622454,-5.591957723490185,-5.985522672346668,-8.87121654167957,-5.194540979524748,-7.225376670325701,-8.947334605584965,-1.237023411192235,-4.544277660552911,-2.0129127288029927,0.7225707883636335,-5.205828586260462,-3.867512718647916,-3.185042427077688
-2.2784581933047163,-2.524583260318267,-3.2444248678407765,-5.829382597874191,-6.537098623170641,-7.705589424281677,-8.034741713407412,-2.332630499112861,-4.277165071372264,-1.8659797725095155,0.3536496260483084,-3.9282382294333247,-1.931244934201567,-0.7215690751999017
-2.73352274591142,1.8875265643992285,-1.0726283177845874,-2.133308383593395,-6.215702320276703,-6.913409727529381,-7.256287269889571,-5.08399148938846,-4.707946976343365,-1.4278841897171903,-0.5091043636490241,-2.1074775261849847,0.0799890142905154,2.5783831504810646
-3.2978239180415665,5.115928070539596,-0.0870332437151514,0.1227116508128338,-4.41074621555816,-5.938495689523511,-6.945818423189478,-6.386757312631761,-4.497906149779767,-1.3131812042869309,-1.1997583669718004,-1.4596285418691253,1.1893101504208845,3.130011614271924
-4.375147925334102,3.2938913537689216,-1.711955252228956,-0.3909947162526683,-2.1489561108964743,-5.921719087786892,-7.9349574310756035,-6.973621129991448,-4.493688160526244,-1.9256456779852107,-1.9590824855580693,-2.595995553518963,0.0354821862259306,0.0064629468509236
-3.14836051162588,2.0072596359664643,-0.3574845859623292,1.4851774077106403,-0.5242086209992921,-4.286998992819169,-7.346698288996345,-5.332360246652316,-2.8552998801601817,-2.484286065129771,-1.5965203858641972,-3.0293921688233243,1.620729808176614,-1.229078486422222
0.581901611008533,0.5319085420748705,3.6330074194209754,5.027964272469844,-0.0013247494922012,-2.549824934352336,-5.404611750509767,-0.8242486130434613,0.5385361025947503,-2.866555390061869,0.0582829563902606,-3.3008827906782536,3.3333903091261856,-1.4879259988493434
1.4142086488597228,-1.717265488189745,3.983863513331854,5.385700598658809,-0.3952323067129997,-1.7209285766118467,-4.1904948329157,0.6797324557032532,1.4464919289240237,-2.8207869949420883,-0.6690989786227081,-3.542466794838396,2.726705917819282,-1.9118008341505084
-0.3214179123301487,-1.513576252142342,1.3570520994632722,3.033815006894636,-1.3504481629524512,-1.3121973922451655,-3.2767169247261894,-0.669608793149338,-0.0212245686689473,-2.9356726205350863,-3.7365653748766734,-3.4061966316538363,1.544371042727662,-1.6188264190917885
-4.371795200698663,-1.049149691781501,-2.865516912689245,1.1589528081879577,-2.6833933489121518,-1.6658736839510195,-2.435450037522281,-2.826660428984784,-2.4086721651228955,-3.1710497351327174,-8.942679735042981,-3.9276545705104975,-0.7854946021458362,-2.676389255763409
-12.029842635648906,-1.1222782693861904,-9.941653593906908,-1.0350318353662358,-4.257624409699442,-2.396265234869237,-1.9940701388069508,-7.113664728336405,-6.68824578005494,-2.865621809914725,-17.266401819357764,-5.076934589647782,-2.7855362345562265,-5.156767335906872
-13.161918768079172,-0.0375934150101619,-10.956137918733644,-1.4747694249576575,-5.69526095285556,-2.481800188834709,-1.3197326252605903,-8.577466379915908,-7.98122972408434,-3.3221184228368896,-19.222622518019623,-5.546276552692265,-2.148520594507481,-5.447232007798091
-7.37608898140892,0.9966262601513138,-5.290281905634996,0.5155608570180905,-6.418098416131951,-2.0151983918344376,-0.4503807309258025,-6.88113515905938,-5.926235557815378,-3.782298468605066,-14.334871485019754,-5.458733399346782,-0.2703263476616568,-3.756964518970933
-1.230186878406665,0.3278475482248367,-0.3180961670883553,-1.3145726789189451,-6.069537512051664,-1.683523587700492,0.1720705294001221,-5.279448096280783,-3.261853172765975,-3.3314036686831305,-7.872658798597241,-4.485415382499617,0.4122983018392392,-1.6306619266742617
7.60971110321923,-0.1297410806939426,5.999218426069176,-6.677658133829901,-4.860311479102791,-1.2431533508933337,0.6430964915582743,-2.585558841969734,1.261040188561006,-3.913521174129608,2.51113783481292,-2.2941402425685293,0.0143956651467515,1.6642710191092047
10.411276617092597,-0.7542059039703721,8.382828342280478,-8.032943617433286,-3.4276650903759744,-1.0563669670201443,0.212394943395135,-1.9564323381404596,2.713423158703637,-3.637634621259503,6.999875351710062,-0.808763855268025,-0.7729189235457843,3.141351272055241
5.783804424639103,-1.7401612685778711,5.410483363354801,-6.163928763676674,-2.335804877724424,-1.1469891100372287,-1.2686177032067318,-3.938354508376868,0.5481648066493215,-1.275775269960593,4.464332784872915,0.0488134933109429,-0.8256259500464703,2.4677253566449635
3.474165556910921,-0.0428351396024217,4.423297471779061,-0.8565098223211411,-1.7401062685712236,-1.0902339390242235,-3.512531963381176,-5.03290110729735,-1.0435882680005353,0.3250342330865949,3.771151747161868,0.5895806676823381,1.3167665602362792,2.3909392815637984
1.3483415348453298,1.8769271614807688,3.977575536169392,9.594677428685692,-1.5146845207439166,-1.229939976834799,-6.780751019521011,-6.023215903781989,-3.268773149851835,2.9663239384481668,2.5410451128901363,0.3652769444673251,4.488699526705702,2.19925254411526
0.4100911354383836,2.434628332656166,3.534801343323612,13.316761294487854,-1.5754397304068302,-1.0976131303986945,-7.760871579732623,-5.478656253604438,-2.9160212677431847,5.578896068473701,2.336528073425,1.0150849247260194,5.244048316925992,1.8847763339462196
2.217951192460824,1.8401979265044648,4.2116449018579525,10.084340353936105,-1.9073127453943692,-0.7169214529907357,-6.187178737463378,-2.74161423217642,0.8082976106479353,4.475569435562497,4.3986830012849785,2.542968427189369,2.28827492271517,1.796791813313904
1.6970424130576804,-1.1617986135685574,4.015955939801049,6.6325150302899765,-2.2302071902044704,-0.5173048699920771,-3.98443107315298,-0.920829177395744,3.057392989794436,3.2806169135175263,4.003677165496872,3.853454180218461,-0.9885276451916176,1.034294108970329
-0.6024895124737758,-3.733484172544187,3.161962496058188,0.2712964023240785,-1.8176185578399533,0.0583219872099134,-0.2813164466884519,0.4043746405755258,4.631036763773393,2.2438332048617795,1.7023155997798745,5.275600802433913,-3.955990144685941,-0.3312067855847744
-1.0342161118581634,-3.382675150660253,2.612763267024368,-2.801348756026666,0.0372959701381764,0.3215587436450337,2.009825375021732,1.8306481564365489,5.433117063315862,0.0302041981722744,0.7838749946775699,4.84796971352004,-4.636268919368321,-1.2983912735345509
-0.2620444864026278,-0.3730981938562216,2.0817724911450712,-1.601231002099608,3.157588712470694,0.1587566949743051,2.558035941003636,2.81684749769094,4.585718435837709,-0.1250333956712391,0.6320104059423243,2.248984271285706,-1.7052176477383856,-1.9602845666539428
-0.2978596914103468,3.979838931646232,0.0055722245485601,-2.577929977351776,6.147254746463322,0.4494921156511048,2.7764939965752258,4.185518760377031,4.38974340108735,0.5092209687722626,-0.0519640542371994,-0.1250213221789749,-0.557284399321511,-3.28400156879824
-0.6784076973209949,7.05630220454947,-3.6599813270975448,-4.217745619309772,7.233960427307826,0.316093331295752,1.8443870656283148,5.899547828781127,4.59113071818838,-0.5953173335811541,-0.8044922728122718,-2.7463031867485914,-0.7011980271559245,-5.137748834600368
-2.3542703879997187,5.9225121697883845,-6.027880545018382,-5.996011175476528,5.778830139190431,0.0844706352875466,1.574067248830253,5.71618076391241,2.912767695035225,-1.2611342689116118,-2.282101166773045,-4.285150251850594,-0.7306406888292022,-6.340473709404439
-5.754430749250271,1.9420983637760183,-7.278227905849957,-8.760761631147943,3.0439180429590715,0.5965425125532581,2.06545145592125,3.5894253367600046,-0.4190710772112995,-0.9171331676255396,-4.680925772422557,-4.216093237260521,-0.6134942566624816,-6.971225138538762
-6.7668062165050245,-1.8629517780450375,-7.16795354979724,-10.864709352083228,1.26576999295058,0.5612512067876949,4.21353482872219,2.818327535948007,-2.4008249457786066,-1.909001123488718,-4.751868031041909,-4.571894226703951,1.0030685904997625,-6.26996569055607
-5.458349458546274,-4.475746115267898,-4.966301578242357,-12.4050359894112,1.6666700745194452,0.4798137948180941,8.638460468143123,3.0849044129575067,-3.2452341665582605,-2.2664436000906005,-2.435342478166353,-4.910522786937321,3.4667313408656626,-3.865921954425183
-4.399756272054777,-3.4999399022544297,-3.52756123576924,-12.240995734325423,3.2203328038464587,0.2914684199811979,10.180599169865284,3.3870334238484627,-3.686061320012479,-1.9374999784888731,-1.4604233332627452,-4.049377511571759,4.63138912873835,-2.292854058876665
-2.7591434565444435,-1.1650435568975623,-2.6688009760287548,-9.88715349725714,3.467009453437608,-1.999514661471992,8.918403737267859,4.364251928417326,-3.066551884383712,-5.257711746641316,-1.2738514454992986,-2.161123670372337,2.6747273442148964,-1.390368211400092
-3.425217898837296,-2.5512449602855254,-2.6467933039485407,-7.082499510972959,0.7840212743060304,-4.775946479035116,5.230089431351263,2.22290600881819,-6.569404814299496,-8.96075750507791,-4.196398094938947,-1.4626224085799706,-0.9058154602563836,-2.1140848510987094
-6.945633316973745,-5.806265493013864,-4.151321609336089,-3.413393572328041,-3.9297586558026794,-7.595269127541476,-2.220633405620501,-3.3587000845928725,-14.569293486922591,-11.69126726907213,-11.195544138173988,-1.928203664677689,-5.553012828422008,-5.165150194921181
-6.55995412160286,-7.794055701816556,-4.049648690775023,-1.2182410409279654,-7.740254302769187,-9.645908407054508,-4.68955400157462,-4.8337005496520185,-16.79854846617044,-13.867556202573226,-12.775602983061964,-1.7512440381707683,-8.021334804911865,-5.425045363667611
-2.6573593013556827,-6.576758800317018,-2.476393740449088,-0.9676909355203638,-7.953509308954082,-8.178043001874366,-1.9289605419870444,-2.644353295322215,-13.838748368164902,-10.08923056157919,-9.137028510049634,-1.3614387260126672,-5.678933966407773,-3.027698807789232
3.5705611878058883,0.5051742050752277,1.3014718212980814,1.4478085800999616,-4.20671353790825,-5.609001351072222,1.8317526663361765,1.3755392718081585,-7.510301525739326,-3.462947088118658,-3.198679906617452,2.5601067740953014,-0.8017864973521658,1.8145186751516749
13.65189535291631,9.803544175041592,8.130362207760312,5.545387356589127,1.337856340121384,-2.6939496872589093,8.69186641311049,8.88886153953533,4.532984959384167,3.006907236527492,7.245946405885594,10.618305906555172,5.832316148911183,10.408060492580494
15.853822662785731,12.967051386971104,9.76707244887977,7.080516745126545,5.665336827767801,-0.6180297863782315,10.176504303037206,10.50169547196184,8.578332601779426,8.436958764349528,10.460043331332816,13.072697986698534,9.14908176470333,12.53769489315845
9.487761644762474,8.775912106056447,6.045449751986904,6.47295128252007,6.913159726021592,-1.815000236069805,5.434677668365087,5.660351695436937,4.014570106104304,8.86166088667681,5.665317509786376,10.177650299601822,6.277730508520395,7.831285623277278
3.263738124879268,2.0777633067686097,1.322431228023842,3.304580207350698,5.198197020683036,-3.414007887011607,0.6111448733925803,1.399164125865454,0.862207089742811,7.778648675253453,2.2648800202565096,5.391589521428696,1.7151873580479946,2.117691864479594
-5.537959067097064,-4.250006062285958,-6.323504175964157,-3.442035084058033,2.004917602594694,-5.07875249925372,-6.429582915107117,-4.43431298268259,-3.9376394619888497,7.141919095498487,-2.410717648142849,-3.4910957496339408,-3.443791015009806,-7.023035431279528
-7.83903406821137,-5.5652768597582485,-7.934053095585797,-5.931310383447167,-0.995653971799504,-5.146041733835691,-8.788869592523541,-6.65591552986754,-4.767835477082078,5.918300430477536,-2.733475106386837,-5.88235772686217,-5.753743766732748,-9.596725159433078
-1.8426472351261904,-1.7634676589315,-2.46752725889107,-4.035065912221484,-2.7410278686445317,-1.8391291003663823,-5.288662107891337,-4.010323520816923,-0.0097846046739714,5.413936658985664,2.9574165399017605,-0.9676819762773134,-2.9489098601320736,-4.335590131746707
0.7389684161572275,0.3861249778985006,0.5717672641712139,-2.0844818148264515,-2.92269512317336,1.866132100015379,-2.6040686236053885,-3.3826570071699367,1.4760683514011843,4.47942600039626,5.4227072832986325,2.3379732209934185,-0.0329547560891173,-1.163803168585579
2.1485446550498524,-0.3761471392736655,3.2261703910840733,1.700656169497082,-1.8048075037379872,6.724008581179397,1.0881735171762228,-3.4092953556977856,1.1370632114219807,1.7445886683606462,6.115785752498912,6.452504330449311,1.594461754780246,2.314586857569015
2.288310121765345,-1.921132223268498,3.773155396829258,3.6784851559438665,-0.0322991022626749,9.8887427734509,2.9403404181153414,-2.8605653777595537,1.7288274666013144,0.6185494482981456,6.1767560352865285,7.044436131862492,1.9344339070926175,2.836704709532872
-0.778079153613726,-2.9453001052292422,0.5799560548890397,3.279438198143989,1.571401450109308,9.69406566495542,1.8794295653637043,-2.707329543586104,1.9474822856578748,2.416221397311745,4.034498646185136,2.581652530150484,0.4403335355904049,-1.2945609717329274
-0.877755476172898,-1.661767919382529,0.6433763223754612,4.040643725194391,2.326540272111774,10.088826738547578,3.054635385052514,-0.868970265458658,3.99994692406341,4.225618555692063,3.8843625774777535,-0.2120124596884974,-0.363744944417525,-2.7149120163296945
1.5960207721642776,2.129806619424489,3.362760740243023,5.060830856056672,2.0491155955554405,9.008298773615849,5.668416628600282,2.722898160896751,8.209917837006373,7.56464576638272,5.649043724632671,-2.6230560781683234,0.6167162756040648,-2.4400395777664645
2.1961942426687293,4.445676841513212,4.004132299043636,5.652897466813702,1.1609489388763556,8.528087594259704,7.080123199928501,4.392438117603851,9.586920564347556,9.569223660602626,5.807600938366364,-3.283916527596239,1.5476191770220575,-1.905367058103885
1.884604280820137,3.499718907150263,3.626785535477632,6.198891785808236,0.4097586849868779,10.536096297699135,7.959288135593475,4.339736127401916,8.361474815156337,7.57343626817776,5.059040935366308,-0.9704194215772628,1.719147748926379,0.1514253280328366
1.253624871835053,1.391111403769984,2.312758987290065,6.504395741244836,0.3784019009123094,10.949467887931302,7.191559482380505,5.0048355974053775,7.466854426971981,5.862246217719164,3.482330467196866,1.4213469406779142,1.3520160171504878,1.2199896955550682
-0.3537374138078709,-1.5285481491639064,-0.6819777243328491,6.532939829336645,1.1417256835858225,11.838377350995469,4.266081063088754,5.724217617216122,5.950345645819754,3.244126955695147,0.4922553172306378,4.616214974813409,0.0369422737743867,1.3121786930557842
-0.1903950851350498,-3.2875836095559445,-1.221711504434324,5.396271630979277,2.284539551987861,11.63752645103398,2.0648685260493345,4.992075885317042,4.591210557304693,-0.3309207428061986,-0.6010015762090631,5.345033128170588,-1.3323820749865092,1.8292600878040932
1.862253712407504,-2.74494999199983,0.7666664572480228,2.945156456729693,3.1890119303490154,7.8131411269275315,0.3111743979230121,2.9691994683997427,3.760373548579389,-3.354293659452091,0.2638380119837004,2.9279761174928827,-2.23738485786249,2.275551621541516
2.606356418762203,-2.21639404096075,1.2771612561767594,-1.2348540968354764,3.343434181559972,4.128050695468271,-1.2893334210539649,-1.3589192238686207,0.3910653766765834,-7.642631763749098,0.8802741025757724,-0.4267076927819159,-3.586913771034583,2.1127175728827643
2.5213789238832685,-2.278174087826646,1.0659420199225127,-7.522574819573808,2.5229018403300185,-1.0111676076060818,-2.139204680997571,-8.45825678870068,-5.445889103601204,-13.004146351870483,1.9585031229833267,-5.763871135807937,-5.428218414063669,1.396573056260236
2.69064921105122,-1.7948138693368767,0.6773887311814397,-8.358548417205716,0.8712777412942598,-5.095382992531355,-2.149975792005457,-10.300716900612382,-7.0980167980655136,-14.814908965359916,2.772633842642964,-7.151384628067496,-5.235748319459458,1.380178756867905
2.606836195189158,-0.9660438251332706,-0.5224583145676709,-3.303934450348456,-1.0575399708550224,-4.83796992887029,-1.0671553487666383,-6.603129418995414,-4.684063274590258,-11.114582944445845,3.0363737001649054,-3.985897733798947,-2.424574604594389,2.0504159250088647
4.408977898062175,0.1922568448385668,-0.0343578376264216,3.788258235282092,-2.3688418806380085,-4.9505928264974575,-0.1367359502820539,-1.7936887224519402,-0.0622910207551505,-5.88498127610025,3.834372865213279,0.083031047961185,1.04627908839307,4.761267138537693
8.354085070577908,2.645715992922625,2.224983263242127,14.876500948386248,-2.145157441125598,-4.016409575522777,0.7104930089057265,6.065642024915598,8.379144649630447,2.370719782922506,4.943879612686545,6.641153570961718,6.032474554882621,9.99896382520066
9.219562681209643,3.711737691303614,2.9376474347593606,18.797795866825755,0.0168584798310633,-2.4671600378952707,1.2504104815149537,9.03108535958365,10.945763531918791,7.692622903658074,5.187078831356574,8.633790893164452,7.920684461388117,11.75359653177411
7.191589473140065,2.693661406249833,2.4820846905295726,14.458610373652,3.573473833605698,-3.125076118545815,1.1613327932884807,6.16017753253537,7.031844104415876,5.036077287736087,4.607023865612201,5.2423947668595865,4.757530776673148,10.063377598134071
3.570154945161059,2.6442981786997075,1.1377667949137966,10.45381149444899,7.111393460733499,-2.6059850127016624,1.0325786030537247,4.331467006224235,2.627243907531821,2.8733533243667813,4.778336420146653,1.7508700937271826,2.837306046312285,5.868387244521999
-2.8590921753598564,1.813365869147024,-1.7783228424623747,4.0006447044792575,9.03423585214798,-1.123365261363931,0.6816055222326013,1.5745048524896,-4.644394243981024,-0.8924812908968722,5.546748342992225,-3.67130166668199,0.0622372960689744,-2.377644805656974
-6.182842490320985,0.6135395812221611,-3.254925557551629,-0.2011487856764638,8.457949831676782,-1.833579342488224,-0.4745785832171916,-0.2270778253203249,-7.452128585591138,-4.560047859462768,4.723814752659182,-6.156902925321752,-1.809351747345333,-6.270758713182374
-6.111497486925694,0.634783400972889,-3.275768540108551,-0.8923331214282758,5.684659700977922,-3.977936616033333,-2.449446750273629,-0.1155091680416605,-4.742987205036146,-3.0744741700235245,2.4403241283603694,-4.803222756712161,0.13739398279227,-5.562139726964924
-5.791100228401303,-1.2241953167654227,-2.6766942524300554,-3.609692051001895,1.9167437429074927,-6.593452888725294,-3.789324335628679,-1.6068561342775194,-2.456724288714759,-3.0130216538013244,-1.5427102445656649,-4.393611741407967,-1.006583496781747,-4.005909761768473
-3.776094774741703,-2.988760675536437,-0.7205080811748839,-7.013574276769673,-1.5379505649517011,-11.132340026948368,-4.524330087076143,-4.078622679084733,1.3445595520056828,-3.72496767394034,-7.796765030113188,-3.623385007484518,-2.581614328749472,0.4415818821494379
-2.608614438858822,-2.2457969042830683,0.0781939405280087,-8.05965164407205,-3.952979386691254,-13.44289604427964,-4.487577759531447,-4.854980977008663,2.5882322752644606,-2.8409756050230155,-10.08027688328649,-3.203026935849687,-2.1536697387404584,1.5229970330692078
-2.5957607856815934,-1.1727369813407464,-0.3528749469652934,-7.166966077006361,-5.3130499406665175,-12.02842195839911,-3.271588987797555,-4.248501082039705,0.3412770384282064,-2.751770062522862,-8.137800159582921,-3.762895178285502,-2.692016925269629,-1.2826496075159144
-3.1371497132474224,-0.3364896419244691,-1.7014502651493273,-7.4162045413288675,-5.952235455884978,-11.068877678897822,-2.288364606809255,-3.8047884326842794,-1.424640107397369,-2.0389800523100745,-6.881701712998874,-3.650354257553672,-1.653544233281921,-4.228005626165359
-4.99330414646736,-0.3314500473048879,-4.648642892594267,-8.447185254535801,-6.139667989694619,-8.340897094954363,-1.4053801935181147,-3.081368919133704,-3.8870285392326647,0.079336750631672,-4.945989631804122,-3.1942522191551324,-0.9555878813095792,-8.887134027436067
-5.2480457432211365,-1.4398788321400642,-5.168398176970947,-8.535692851909108,-5.969631588555835,-5.104085780468966,-0.6681658253579678,-2.3127928993299203,-4.111672166428262,1.4339511442709825,-4.016310898332175,-2.6862063251824453,-1.6981783171851887,-9.65146783452948
-3.880536843071373,-1.6518187449963595,-3.150429817135052,-8.182961719340803,-5.527434718550024,-3.245397408046977,-0.3834795650102938,-1.719129891526109,-1.3960516392255162,2.160217147237585,-4.85442637959975,-1.908829221807576,-1.2920368632963766,-5.813399694846484
-0.7447698511796805,0.7429754410253355,-0.4532304404568323,-3.9059986024864175,-5.022284914426002,0.6217218383080174,-0.5996836201726741,0.6432620881669394,0.9664756828507248,3.3782722198360577,-2.2219356010599127,-0.5864728480071307,0.0269779064968706,-1.582448038381148
4.969858900609043,4.49309953090785,3.893727521731316,4.868452428280195,-4.670806249494601,5.219243809882846,-1.503395993589668,4.803439347636223,3.807162487461564,4.279417041853493,3.5755153507938044,1.336224494452743,3.0950604415935867,4.51378342819271
6.386686669760651,5.414513655183933,4.92976905838175,7.635876859318401,-4.450018592835329,7.340157426727587,-2.809975883961428,5.581014191464276,4.303535486451903,4.373688739406925,5.5166670592826055,2.029277967523099,4.972802960806396,6.713016948562873
3.302150386004937,2.310789038427832,2.181136829615198,4.596718981107292,-4.049341245977164,7.516603386380028,-4.62424707794891,2.994859357868409,1.7469179572690845,3.648089193255486,4.140054411763466,1.423283134255338,3.428418753794254,4.112677865354448
0.2414607029904101,-2.106068342492656,0.2404565334308788,0.5829481599851104,-3.1848150091614205,6.68070271033828,-5.641123358830238,-0.6155413837358441,0.3041543501424424,2.1156598037787324,0.787523577689967,0.4289724313677512,1.7503853505744498,2.4688284678598977
-4.338929555047316,-6.6438519505090605,-2.0377384013899342,-6.7163735152941975,-2.0358984602069263,3.8176074161846976,-5.714730410748777,-6.451599579312239,-0.7541681276364279,-0.2607131173175665,-6.08083912652551,-1.410689694396005,-0.7670041274951341,0.3092354948640581
-4.882864546566223,-6.484915137356566,-2.360757635381544,-7.9274251615264255,-1.327497565975142,2.5526624836262224,-5.3462860217481065,-8.197640640134924,-0.5341978875251581,-1.1714380640070732,-8.05906608340327,-1.9791044443165304,-1.9672149367383869,-0.2695973526973561
-0.4377536620957982,-1.1097324589874726,0.1216114132978161,-2.0376240557196423,-1.8124688289288848,3.61088114764007,-4.142622300524093,-5.231143263637577,1.7772440901437712,0.2095252807602827,-4.758705676933354,-1.0665873449348149,-0.3772752646651183,1.6828751523553738
1.6561533814222291,2.2826321183826943,1.3875589625073186,2.217832005047699,-3.4863335233047383,3.313410807289461,-3.918150951208085,-2.692394420938077,2.824364682938678,1.635288401754426,-2.4647405291297537,-0.4419054433863283,-0.2836454778681544,2.081302605022573
2.675414152098765,5.014059592224383,2.098966287774787,7.0425858217925565,-5.267031997559244,3.882725404012803,-4.769394816968876,0.9623215828267948,2.9429126895812194,4.163216831778164,0.686470373867447,0.4056500272558163,-0.331135624373557,1.5681411243543857
1.9855956561795989,4.652130009985656,2.402410930174798,7.206570128609171,-5.627798068410713,4.2007141752697015,-4.379516887904251,3.1963000660014287,2.818794044141082,5.1161440819797,1.2301988621169249,1.0235094232894957,-0.2464583760692696,1.2034335960005458
-1.767391341137278,-0.08564936757418,1.600518369865506,1.0225557852072198,-3.856196914083916,2.844721774548183,-3.0563757573392487,3.214441523515931,1.8094149267795765,2.755445902194431,-1.873837313404412,1.1694530388631383,-1.2277555878130468,0.3595282446349176
-4.0456875434929644,-1.0331391986289111,0.5286634133668795,-4.827179940192683,-0.9004760381042436,2.792741976005795,-0.5752991050645259,4.04427472447539,0.5512237552016476,0.9283129835720424,-3.338826927785075,1.4324310632255606,-1.1807260813692766,-0.0436617687673207
-5.273872148316894,-2.685839076533936,-1.0533071409786483,-11.98400019411065,1.1018652743289188,2.3888781679327664,3.557235216539796,4.90282440083229,-1.048758752699327,-2.192305082435236,-4.100842240540047,1.6313594431003855,-2.184767346185911,0.0577257302342389
-5.561505850059098,-4.199425184679583,-1.9223951766871272,-13.953256811005426,0.4713691578065608,1.699466726791307,4.644276457358759,4.302823313303669,-3.036777749693715,-4.475284035123123,-4.668819071737313,1.6234974095650097,-3.5420407930435167,0.0409654725275435
-3.950367716437997,-1.4672768938141134,-1.8872429515716491,-9.204230181700163,-2.462924596177741,2.825506231831996,2.5327444107096686,2.4579881901088445,-5.321508219623534,-2.986202889876599,-4.192673622705245,1.4450712972987778,-2.234702762920848,0.1077623092372837
-1.3141686401767658,-1.821145505886943,-0.6599040395408509,-2.9957076604999644,-5.3297063669113385,3.5730453927451427,0.6287426264814849,0.745021118669996,-6.287881773441885,-2.340185642231339,-3.6848828619294647,1.9534922552283285,-0.6296521819636898,0.5541368097188568
2.753375760161975,0.4482627909096609,2.230689788477817,6.751810879647604,-5.453616651831445,4.412308359136239,-2.1003387594892104,-1.0260277746891782,-5.734831063260128,-1.0249307762229054,-2.950767462119175,3.209273683395981,3.37367733061841,1.3537143521971498
4.871015589113215,4.701879970618233,3.288834133702248,11.456759297489343,-2.0449194802399324,6.0157093452681,-2.2745240787363814,-1.60338725621039,-4.608463592547143,0.8158406524892421,-1.537728794648623,3.568486236699496,7.29974972811241,1.515035877850479
4.721227794495113,4.003965979020266,2.5130159349867944,10.0159169989677,3.039606849257622,5.92885511577714,0.8143334073481995,-0.5702252717052843,-2.433880377386715,-0.408748468520713,0.4667175989328111,3.1388027245318453,5.879198034225886,1.01338862391684
2.2600395586310214,4.196045267888207,1.092042686594445,6.986470957346159,6.7368174773868255,5.6458883297419415,2.1352790754586595,-0.4768674650193782,-1.8109450300433017,-1.1362896819986583,0.2215545612028446,1.480453470401349,2.8898681528208816,-0.2515714064584737
-3.6287167328710286,1.6396616309932524,-1.8122817701975087,-0.1051964332098998,7.268675871903111,6.233620369965996,2.4757275338837514,-1.0054107413172684,-2.9927716139893485,-1.110455425773587,-2.4795452808052363,-1.8491439255336624,-2.198324795055034,-2.5838182047992646
-5.175860503215588,-2.774152290845258,-2.435673563209251,-2.595258361097049,5.535951927567724,5.278621916475869,2.80316636819612,-0.3203524316548303,-2.751147265807264,-1.8660540952405185,-2.585707809135481,-2.5539392295613097,-6.193175268491524,-2.806308312178144
-2.245236468812182,-2.596573905921105,-0.5350494748521554,0.225895690003083,4.186402476405316,4.129717213441596,2.286476583801708,1.2517566196797234,-1.606174994403471,-0.6373347827737397,-0.4963142788093465,-0.5626589195552263,-4.187417423304645,-0.7946972217397894
2.7788426614528534,-1.7498897206704522,1.0859901363633435,4.6226910684688445,5.212603868090441,3.57004284383995,3.229872349272032,2.6781150746579048,0.7473873471777149,1.4337499779375822,4.904243920865996,1.6572484215520742,-0.4033998139740264,1.9667656114828385
11.858350402849172,-0.0711388555404562,3.295715683076663,12.933790393417697,8.250742688663761,1.1431492946071573,5.704344485502318,4.196086666648553,4.938957380189004,2.551147729536769,14.911486035929851,5.078149008557187,3.6196964017159607,6.274147821861535
13.35036572338332,1.3006332148706303,3.361247128263801,13.995015643269348,11.044309056291851,-0.6857495855097806,5.602031066652499,3.40164366596447,5.334198867309398,3.335426478482137,16.30727476186685,5.019465620418648,4.719903997170336,6.499850655265352
6.512345732073215,-0.4126010187208072,0.7206001860625061,6.9749717530288144,11.482931216819836,-1.1515019654365564,3.149235193631933,-0.1222530188092276,1.7739063328846787,2.89850703280578,8.76474423193024,0.8645703291046757,0.662398228996608,2.107679067344557
-0.8277005625409167,-1.7776714901663049,-1.1065680038360477,-1.394139608193876,9.23716809624241,-2.9277301580076145,0.8053845385664943,-2.018373393834774,-1.3277683649966,1.191060265321752,0.4203906900144792,-1.8421903677868303,-3.529674011910678,-2.2895948815607707
-11.465850857481133,-1.980379880940196,-2.805767831832651,-13.920136674357924,5.606964675171826,-3.975268492750192,-2.197257077706532,-2.7400494780174984,-5.160074746406233,-0.5954956076188171,-11.72591219319451,-4.151086858695765,-6.309045572377083,-8.066228654532482
-14.534528801635926,-0.6990904145287867,-3.1852847258227324,-17.481910866610225,2.082992341463381,-3.817564974295985,-2.2914185735672263,-2.5116774485238382,-5.225316940790198,-0.802778109545297,-14.66697105034214,-4.412806457650649,-5.261016099093571,-9.404380352409804
-8.346371411682712,2.0636010794230244,-1.551181747621283,-10.478554961780608,-0.7152013636408578,-3.9534181526528007,1.1530777807351875,-0.4108598914851984,-0.506923246103836,-0.0423335732795686,-6.505840119674678,-1.5284571809229357,-0.2342686930322882,-5.218691638331436
-3.9786788828812583,2.307170638983927,-0.8008042003336489,-4.442053246497959,-2.773575223244448,-3.214705502093513,3.1478212759257187,0.1880710310788989,3.0988113680226066,0.8328150834722141,-1.9942148770216648,-0.8621394328417753,2.614752442478628,-1.980888561956056
1.312998562823699,1.6911072529982274,-0.5335820503934394,3.90804047518653,-3.8116370249720855,-1.4228244341655631,4.504902007364651,-0.6199853184761772,6.772713904054335,2.989372190720524,1.9449555294445815,-1.9245457183299937,4.516169080432707,1.8319585834828436
3.905299769950422,1.0254110436241235,-0.1937965726992598,6.757018562786855,-3.2040800635970603,-1.2897654114895167,4.700817621611416,-0.3264658367167605,8.046085820375735,3.095146507006486,3.744310876957169,-1.5314492394969534,4.247130232535294,3.373667319455213
1.958345105940694,-0.6266033111153839,-0.277254858747975,2.0076533822901976,-0.9892186234560232,-2.8748404895177293,2.773409560756889,0.4760995825876517,5.729748314815674,1.4361999601364013,0.9433999726290084,-0.5313685557073875,0.9775236823410074,1.4529366085872633
1.38040610136478,-0.3208420784034821,-0.4577969473944123,-0.9763264570385154,1.327372191216983,-4.094907770712716,1.3717430941943098,1.2901963461776196,3.322345091938008,0.975003514208466,1.3740902584709416,1.4007530751079602,0.974604023033438,0.0503344964307483
0.8393249615117037,-2.116784736535105,-0.8101896414260259,-4.470181086810606,1.5668408187328453,-6.550492444809268,0.110130251599724,2.4352831491177027,-0.1329641556834387,-1.5515631935013394,4.140782110523558,4.730869617938783,-0.1512690145340499,-1.832820878573295
-0.3351286647172143,-4.874380350686746,-1.0969550018831131,-5.522956433589277,-1.0526699417751473,-7.8463085234925,-1.4197976903057572,1.7759976018402877,-2.5400331988430254,-2.8205108177592795,3.478616001504108,4.648149686466127,-2.312505492513723,-2.966050442639496
-1.397689530740696,-4.229280333867148,-1.2675335586197076,-2.596304486136416,-4.60667036613811,-5.691172388617434,-2.7806181792997413,-0.8921849023367505,-3.301329228758525,-0.905470571996892,0.3689181423839064,0.9753791812720528,-1.7212103470780074,-2.729593792234343
-0.0417268019943964,-2.2488895707176626,0.5000177705533524,1.4714409715304464,-5.619155653625755,-3.912812236443392,-2.309262819364287,-1.872279449768464,-3.0223258490344724,-0.7644384530035222,0.1158013912504444,-0.6748072043564616,-2.717954018477566,-0.8750082010574808
4.145797005466197,4.493942456148573,4.485299220997787,7.989271831400915,-2.053034163911984,-1.3117956690056145,0.2825417388095536,-1.4851737889920174,-0.8801049031642139,0.8597679618581958,2.165310612429695,-1.154900630036241,-0.7142666447559566,3.2762483280611674
5.832471680665534,10.338559792658932,5.828935291405253,9.975184780165476,4.524032968596639,0.3319588116557346,2.0984598140064734,-0.9660412211954318,0.2384241822519108,2.4987086408098325,4.024837881570837,-1.1446268144387075,3.4886745817349394,4.575362379647888
5.386828513306683,7.992093029899216,4.704018210791916,6.731016355343096,9.787514833385156,-2.4368005906966608,3.49178278781283,0.4034337043101028,0.3629535597996347,-0.2276444071036111,6.65607004378927,0.3673588543133526,3.587068425685697,2.977609532279188
0.5554018897346246,2.3951984862235185,1.2009091729382453,0.8041813303678308,10.003529728032344,-5.370890206852663,1.8101296791222043,-0.8351247938809041,-1.2857732725574609,-1.9898763917337243,2.0247881650083914,-1.5491902893241616,2.214608221932263,-1.568974504753386
-10.16157197465719,-7.335804122315302,-5.923707890611828,-9.841178777676872,5.001828905276904,-8.990604856330593,-3.817862775137733,-4.989531273838231,-5.543635406633445,-3.8619094456635232,-10.872745501747389,-7.054986453402501,-2.226275435529619,-10.509487712666989
-13.775014303673276,-13.608634131302775,-8.641159520478633,-14.31303623063381,-1.8008924900197265,-11.29930446706181,-5.966565800584905,-6.527880012859174,-7.23026015322028,-7.138423827174278,-16.363363033274297,-8.645517645263189,-6.717597726139319,-14.223760462839772
-10.418979849700458,-8.51479422962792,-6.800816732776835,-11.968341634221847,-6.237313490691586,-8.864871125701749,-5.096981503918011,-5.994166598141346,-6.506552540167485,-6.669520818261912,-15.617519011450517,-6.977565788633664,-5.128811452815211,-12.56240697953749
-5.220090326776635,-1.2809901235844818,-4.4289923865835386,-9.57393344716251,-6.526535350296379,-6.275014245844166,-2.082482545556501,-3.680484738856143,-4.230530308020509,-5.983865618065332,-10.569794416422011,-4.069983921003013,-1.222225538203659,-9.465558522033035
4.795013107931774,7.183664053626622,0.3425283543422872,-4.49545160878679,-4.137483032355757,-2.752144412987726,4.7686631995656645,1.6116837965347768,0.8335837511159284,-6.945645121076048,2.266974287448449,1.594229732418564,3.774976844433358,-2.619331105188878
7.979249108890426,11.858249382762915,1.703150584451247,-2.553118372320317,-2.031754500262959,0.0781290227575071,6.791967736382656,2.975500535282007,2.2769849202500305,-5.358090410703077,6.169986020222148,2.8235051999323657,6.907274214712819,0.2771931572192321
3.3841799457551125,6.447896427728678,-1.0031141043466898,-4.713666493298405,-2.153183480884084,-0.8505480995658157,3.79404025845454,0.2765638947076505,-0.103467735555014,-4.750107015209438,0.8098359075784535,-0.8541759943663074,4.484250118605829,-1.348042083464838
0.0086069211903905,0.5784561332425292,-2.891604205887688,-4.732595028538271,-4.276956573355903,-0.9914062199396864,0.2688936699879906,-2.6431237327549093,-2.8187212675301736,-5.292596624784214,-2.9931337605727006,-3.3982985704518627,1.0408385712064665,-2.6211129986028525
-4.8951090120446095,-4.445215115371737,-5.378967934132337,-4.031269629688985,-6.74897753605114,-1.402651922325393,-5.785802774143663,-7.348615376626189,-7.367832992599762,-2.659046974118928,-8.84731261251915,-6.405457356192606,-1.755785258513913,-5.421568291161586
-6.3898864712448775,-7.1139801835312415,-6.123860187701472,-2.460465384549655,-8.004572890374005,-2.0165640399528453,-7.205779774317899,-8.061223288905994,-8.484569286325172,-1.7711920664492835,-8.620500117588593,-6.6150497456344,-3.3513173063104635,-5.454458755237681
-3.0519592641746107,-3.77468420618459,-4.352121956600334,0.8931088723248823,-7.49964509363568,0.1763050784707721,-3.142871000732363,-4.006336155301892,-5.511674402208659,-1.9128728486775488,-0.5111194788505394,-2.927973922097972,-2.3424597766068764,-2.00769898488448
-0.9893207277935308,-0.6908914750659292,-2.9679395017749663,3.563311653345282,-5.646977056246315,1.902925284008895,1.295705856821786,0.0361008791937344,-2.710979521689715,0.4207641993066603,4.421315452982795,0.3518036276306416,-0.7377962025962947,1.8379956998046056
1.2409671742234825,0.9503157785836076,-1.2365840238889425,5.793689182824343,-3.279444137202006,3.207326951125914,7.987151412854644,5.566157196911061,1.263155002230249,0.388953587142707,8.182941770006746,4.250046441630952,0.2970574915723788,7.290933518913453
2.5463184229064537,1.9721669083828828,-0.1738020348477265,6.454859038150969,-1.2299456240973567,5.0597581905224365,9.593365051805678,7.353106671106417,2.7194903978160383,0.5283557837446832,9.01364409521736,6.100713206286186,1.173047202089154,9.459277175438592
1.9879898402773024,1.254536653985577,-0.2448023907987504,4.919152815558526,-0.1188607529824041,4.828285653195447,5.03489331019526,4.407814111975803,0.8793314101374763,2.124350479798065,4.85449248487727,5.056693959747814,1.2181433715629564,7.696530634841959
1.8301300413387869,1.1947272325211251,-0.3406993055845691,3.038754915418796,-0.1635631776175432,3.915856200936667,0.0053811291100615,1.453686143851158,-0.647035805167162,1.5432272263614872,3.095822189817596,3.584735900233737,-0.3933052708931086,5.668897481179949
1.5300426886554148,3.0042973290275423,-0.8640359178910443,0.3404789188845183,-1.0310009627524008,3.656418879198029,-7.498477566224506,-2.986673256557988,-2.906476702066027,1.8943718915940797,2.922211490382188,0.7543431748526718,-1.947991190469388,2.0672976838079227
1.5966456367947957,3.733427547656407,-0.5565190978839685,-0.938188106893708,-1.9880370805902523,2.465663642082643,-10.149127904636352,-4.464981284965495,-2.924382015253972,2.469589008743371,2.9000631867848545,-0.5275475754373962,-2.7032285744309177,1.0710928351814013
2.3652494221149705,2.2490582244346653,0.771689397298265,-0.3457111150725287,-2.401676850136601,1.0425002767760003,-6.786132331818759,-2.0854499266276165,-0.0139174643643589,1.8176824808579504,4.3967711416958,0.161122710152417,-2.3843524678493586,3.363353723788531
2.498974334882449,0.0493377665766837,2.326758944269495,-0.0187411999123763,-2.2051959096053064,0.0641574689034795,-4.426515242146638,-0.0459966007388914,2.9369674864660453,1.9961275185896004,4.510353740849736,0.5681214716405627,0.0670159864212258,4.712880094945247
2.16935921041609,-4.431616730603043,4.469980840755463,0.6866935911697569,-1.8557251359971296,-2.1333052098007546,-1.1657615043778533,2.9130085340167584,6.809658478481599,1.461321585696523,3.282004495508683,1.4756145057321275,1.818364224586879,6.186803126557806
1.965805375904031,-6.934889223842616,5.342250161409875,1.9186516190641287,-1.783897859308999,-3.1392878910478665,-0.5358934880964284,3.889964973826789,8.195816991113848,1.5301949667992187,3.0777095261798197,1.615740952290848,1.9514968070320249,6.286323063905378
1.686929842479821,-4.225965170034251,4.7441390024482,3.4805881597798294,-1.890678501085297,-0.9868075740123364,-3.730806918955038,2.167317241239817,6.468145649148067,2.8090331464207448,3.4127084797148437,0.6912262125020741,1.7622917550672414,4.309359774815058
3.464231293849298,-1.1635827021720564,4.580145032768228,5.696603726442852,-1.6382937221512175,1.2885800914345436,-5.079636010016592,0.7107244682899153,5.070195315946998,3.5581641297203257,3.885122178481448,0.7178777594710106,1.0899427152644092,2.96425025873592
7.575609341823347,3.965979327424682,4.42726351097067,8.559150530670722,-0.6642022535426411,4.776058548124675,-5.583544198817401,-1.3404381971109274,3.082349826898577,5.563866539847303,4.84322084925243,1.413686369788849,2.794942412001471,1.757670143621745
9.561331543729194,7.338095836872778,4.323609751639345,9.493545658925518,0.7301010043726865,7.517381803482256,-5.141481124105587,-2.008383614164372,2.648651629922396,6.18507553064996,5.053621197034686,1.9515057455244067,4.856197292239493,1.372368426657688
9.709969911451774,4.413644137409137,4.557339757772128,8.312413844862915,1.7693504431974283,6.414552173633558,-2.77694835649873,-0.7808199442279458,4.403173806044269,4.956692210726838,4.4528784900800105,2.637591269150843,3.709060980223133,2.325292747044716
7.042600833835032,1.5202604849211283,3.48999824542431,6.450833229740086,1.9352837679833124,5.401716677305602,-1.555914377926917,0.1275604692262279,4.533539385755842,4.758079370090133,3.603923043434328,2.07002179565415,1.4449818422930103,2.947341443278365
0.3838228383806371,-2.5266748254523685,1.1085235089689176,3.2265003033957216,1.5276335327732014,4.062954452116996,-1.2547198220483278,1.2966191000106595,3.5685737996792195,2.742847858998825,2.1982795491511844,0.0339813098646023,-3.8039464212155463,3.5305225586675
-2.912248642214725,-5.6799798079498025,-0.1413927222155498,1.02020069898474,1.481084069400929,2.785057850321881,-0.4286878906173731,1.7092722575134265,2.1337177973807373,1.1557400227112231,1.0714038693538208,-0.8815592802094476,-7.864061216715683,3.3330997096244377
-3.020558010473199,-3.6521128108268552,-0.4621785486027662,0.0821100421113378,2.566825111902173,3.8314672182320506,0.3826374664101848,0.9933669688346288,-0.4461464004328138,1.34041820888265,0.2884731033037522,-0.9121111830607462,-6.008967292172757,2.0004703350015736
-2.1302636233044616,-1.8784038399216696,-0.1978568412233832,-0.6135807819320691,4.684801922075462,4.473918009599595,2.4872759150769186,1.023454756908639,-1.5510833607766776,-0.352536579482022,0.0751758428488863,0.0636405624018097,-3.557991321087852,0.8273790645405674
1.4440168926452754,-0.0252099048514873,1.1867017002084288,-0.3927915434340445,6.859445711050413,4.882855543739805,6.128004487096157,1.5213771283472457,-1.0965517631580088,-1.2754338736850013,0.7122673748627975,2.640797609055137,0.2666309476271045,-0.4499449396772376
1.733960598813136,2.0555267640554487,1.944597503224989,-0.3307119220132444,7.9270766263290895,5.565205427906681,8.152047744274798,2.150305495049107,-0.5497074171113973,-0.8797333118765385,1.1460882335479836,3.477573219343737,3.6481110206228986,-0.8877319769452245
-1.5361535043510943,1.6476603269244188,2.095330360925668,-0.4300354766022183,7.34053437144173,5.29595639195869,8.715737977002053,3.2260606042530924,0.6911030986875958,-1.3029417943351422,1.4946646220919853,2.5926222864110198,3.0390600471125846,-0.1921066842696351
-4.29312335853884,1.1382618702800196,2.1398610231250044,-1.2643145763819847,5.488557517797335,5.384487413011384,8.601388214957971,3.6190922892835617,1.161779113230791,-0.4634664055063804,1.1922430914234348,1.2139900715916374,2.473150173430636,0.2592874549180625
