AF3,F7,F3,FC5,T7,P7,O1,O2,P8,T8,FC6,F4,F8,AF4
-11.054161805377433,0.7847599151029514,-8.419437988921779,2.489265073425925,6.902655479195499,3.7401317674245504,3.382215238743981,-4.387198010620633,-1.2012587840165123,-14.878198882583249,7.211261332648362,-9.39171256852167,-18.21386679626004,-15.18306583653893
-6.896185291847055,3.4179275392741624,-5.4480324855788,1.859742409609787,2.8662090053857368,3.726414357653724,4.938432780544668,-3.1235826268225217,-0.5754794820069726,-7.834298648124357,7.545231522142945,-8.271838486512026,-13.426934812211632,-12.148485645927552
-1.891654443726028,4.398301919642832,-1.3241555402617278,-0.4999404711588929,-3.388516920061809,5.092362333617235,7.114824736403823,-2.484523124009076,-1.246124749378542,3.028408125991536,9.776229211664898,-8.594363319870578,-4.934513929872267,-8.13327797572086
-0.0160281487406267,2.900655895370069,-0.731122740783272,-2.270503677624116,-5.965116185008435,6.424646156702355,6.9261361749911,-2.329558346957196,-2.8461642282965425,5.913175533214697,12.971770372625102,-7.86413884307543,-1.5362887913207846,-6.014456413390496
-2.342053666623771,1.091241300795056,-4.655211524261322,-4.006352164802954,-4.1847921267751165,7.114663643193129,3.738508007318438,-2.01670110930851,-2.418805222335815,-0.6539029962458194,15.204762015962952,-5.068001673918838,-4.208088085549586,-7.080550795512219
-2.9282818783413287,-1.3697819358062886,-7.072819064732645,-4.546434950298433,-2.747961887890242,7.484776309811856,0.5302240519158807,-1.073857847484355,-0.2170687915809442,-4.5258156279662805,14.989164196092329,-3.560967105644056,-5.323787378274949,-6.334559173941918
-2.8367267624088384,-2.5184339232613446,-9.17773982925982,-3.421781641424249,-0.1564036864007032,8.018188061475971,-3.540923081459946,0.3968505119626968,4.347451093488541,-8.485793518988828,12.511506126920406,0.1008806257383064,-7.01829933848308,-4.716536440972515
-2.0018303931724666,-2.324543710993698,-8.368572811250804,-3.218925604905595,-0.1991685301382675,8.591320551663095,-5.0655484764815455,1.8290866546637687,6.789610184287652,-8.730569916251133,9.439576184162764,2.863359515480986,-7.422712446893324,-3.325809764453057
0.5960824717570027,-2.747794415625332,-3.4127423529940057,-3.636187805772138,-3.7001327486877047,8.425179693640327,-3.366105483606429,2.581443197561061,4.010663446231873,-3.1137405514745646,7.396055196629479,2.2647201792394145,-5.466232768080754,-1.4681157794277355
2.9577385466737915,-3.631684377516225,1.0829986806989995,-4.3400019912163135,-7.956453796627971,6.70145002389631,-1.9294985822811277,2.2516082413118426,-0.0588087858782193,-1.5121349774643285,6.510578914056861,2.969355088108702,-4.805381559164318,1.6684187426228825
5.428455764297567,-5.426183531770231,6.022839713098304,-5.828535091225013,-14.154610472014726,3.273608463314,0.1901807218831517,0.8037212927946165,-5.8198358900879885,-2.778541935544932,5.469688677448083,2.137589778767208,-4.779357384702009,6.211459696862556
8.407301630545408,-5.180087451697533,8.728369894329022,-5.827546246059616,-17.210783527071804,-1.00478685501316,0.8316551468830187,-1.38225355067512,-8.207999729387485,-1.852848890265245,3.0863822838610417,1.2493387806802236,-2.775637256287995,9.7111302753646
11.617937253570592,-1.3856405401590748,8.203005263366883,-4.27954435863037,-16.55749057397867,-4.486465965312105,-0.6357864377317457,-3.50177870256816,-3.98569436990234,-0.233959824256613,-0.1057021656555008,3.3806992319227094,0.8743080655568358,12.247930859190884
14.198165483489408,1.9573951046622569,8.736872309625037,-2.226936441527779,-14.008459110931945,-5.442990359398529,-1.2495307402064777,-4.524309675122392,-0.1286707864176152,3.973139029510972,-1.892434784723747,4.14881162275423,4.637892142720292,13.257281488903695
16.029550954719546,6.176179632175578,9.492843380793856,0.8713143547025449,-8.054094786430984,-3.1014312982078174,-1.6275821768665344,-3.716610659784113,4.220612660481846,11.581954638145875,-0.2549409081085869,5.013286909635705,8.932139594195972,12.04508652975128
16.97754270202779,7.242933601882371,10.177768035408866,2.556012726673303,-3.8998602049081423,1.5454318879900697,-1.2424326799616745,-1.2386153476271955,6.004018339504784,14.606362145310063,4.52415112798716,6.25618936282118,11.056169120960234,12.48744146237785
16.705982687137094,3.079270562793337,11.44257795077798,2.592605207990688,-1.703663271742745,5.984212069966961,0.4104444175487654,1.7330747971741791,2.2599048922054754,13.151355499959385,9.561899969626513,5.107215571311558,10.524318873091548,14.432658346248466
16.538061386242923,2.0261651152938307,11.230304804442731,2.4488221623222994,0.5521725641897712,7.803886538317986,2.221720877068317,3.65638961365498,0.5994383989607666,11.524814581160294,11.412037969298748,4.058064279575335,10.834244188376644,16.7567186829746
16.375033483826183,0.2572714759360353,9.579663919602469,1.476470149821686,1.5933533093751109,6.714716252495425,4.484622037101404,3.667461246426388,-0.4284521323654956,8.025470492866242,8.788784001689983,3.0800546302076,11.32992502977656,20.31364185147966
14.070825729200838,-1.490780075362965,8.205734731730988,0.7583678079571959,2.074940247587763,5.0654255294628,5.469241061438331,2.1691499265537324,-0.9861278532237286,5.701185299183933,3.540748949972325,1.5541617380335913,10.670764152864084,20.08565803746028
9.704225063795176,-0.0276106624468804,6.75961255212365,0.4375396230984855,1.896757461866876,5.7943160657739305,4.876532672410682,0.4284471220992074,0.8766131918487439,5.109594508059086,-1.050741682660421,1.1465747467079426,9.304197352864128,15.720826663480324
4.628133004712509,-2.291779231487911,5.315248386997242,0.2572251170791396,0.9674980195575444,9.109826068986152,3.48046163910261,-0.469199447599415,-0.4317152378398185,2.4009219530078054,-3.091640445722728,0.7681173753691602,6.517040284744578,9.046256455469846
-1.5802806085434469,-3.606387984963005,4.164526764181834,0.54673573989561,-0.65408879548479,10.96097315603835,0.7179801574448327,-0.3677781379067752,-3.021354557194614,-1.7256732617927113,-3.398992842366809,-0.1176946510649859,2.0845410688067303,-1.3200897349746672
-4.383983413273414,-1.8806927617110616,2.490555527813449,0.5991219797507615,-2.022330875663813,5.411629719248916,-0.8175147551352722,0.116428563806501,-3.676862540343639,-4.293919070563674,-4.194544083983903,-1.0265785195793962,-0.6264199229844596,-6.549430666720769
-3.1736942998881337,-0.8601540403961558,0.3804331447207911,0.4639310264915005,-3.036623325851845,-10.313002898530538,-0.9766823910533988,0.3401647645055625,-2.863008083047096,-5.653827197169266,-6.623818854086184,-2.4199482674536403,-1.5771021313499134,-6.024483255141567
-3.4802539917071877,1.8825701535137207,-2.6957891774111697,-0.2636214835976171,-3.354716706036118,-32.18791503666965,-0.5246925526135725,0.1175531076634168,1.1445333791238197,-5.76962719147759,-9.651776727516737,-4.094833931320025,-3.469644935682572,-4.026953682579677
-4.271211480952096,3.0168707858141883,-6.958888590417151,-1.7802596345730712,-2.615818334634636,-50.69427754807353,1.247026827497895,-0.4772925639014875,6.232670046658619,-3.969553938331573,-11.373056631242637,-5.74352646469203,-5.625224500941477,1.769470522853254
-5.924009864969739,0.9729396478271688,-9.224571717450708,-3.1508424534149184,-1.1884083720482883,-56.734061962299606,1.714122036417398,-1.5465997440030943,7.656550252822272,-3.088106974839621,-11.245466847192056,-7.042154830971913,-6.743008426774338,3.1031893809171
-9.41333508621615,-0.2751423843544611,-9.435759869958137,-4.502670863949692,1.1960663175591957,-47.86123188874706,0.8026458681591785,-3.327912533597779,5.036252884743089,-3.039974292816904,-10.836220562625696,-8.015644482980408,-7.058748704259382,-0.723034746032809
-11.264223073774552,-1.3295147329379031,-8.932040567246665,-5.489683393209285,2.0532106652456847,-30.020664428785707,-0.4442119793403927,-5.623949482065766,-0.4219494261977294,-4.267280175808609,-12.270548188082223,-8.930767271779514,-6.520331193694197,-5.016330314781838
-11.733354954646236,-0.8127184541325295,-6.9349574496844655,-5.895385447817794,1.1936179624097352,-13.454091315823591,-2.6654036836116,-7.45201121463,-6.674778756224514,-7.531720098828534,-15.962445661489744,-9.459341257757172,-4.860433123972792,-11.903624015870252
-10.965176533001417,1.3540466609942916,-5.512554852548479,-5.435727864937832,0.7180691236963991,-5.941099789981175,-2.877104130772268,-7.574113421686,-8.496145053762536,-8.694878447957853,-19.916206799749425,-8.452213402269962,-2.716357220764931,-12.67855291271451
-8.190239618145267,1.472717474310461,-4.807164387544541,-3.866703171077988,0.0496714832216543,-8.358529608159238,-0.847140524075424,-5.577914104984884,-5.226620838512263,-7.885397597233201,-21.284079021505818,-5.454863274204928,0.0025466625664003,-6.372632197961215
-4.367766742385413,0.0543769562705976,-3.295861435967037,-2.99760412490289,0.7261980605192484,-15.387994422690308,0.3260698154012173,-2.404731616327819,-0.9084839814188486,-4.859895457403609,-18.689299105847564,-1.2195475569388232,4.069938061312967,0.2413065333516242
0.7899911569773297,-2.2564009596847048,-1.4478297860775136,-2.785796970511889,3.1579641359608197,-20.14436947124974,1.2642915882738608,0.3487153099960376,3.304974682943964,1.460072530278732,-13.231636853316356,4.6643369316527705,9.450535080551136,9.36483028870841
3.3159579589182138,-3.664915150836364,-0.1527118556928141,-2.7127019093985463,3.99905330521232,-18.9013126404733,0.8159940994309414,1.7517661003247729,4.501334019771536,5.050569029609925,-7.476919399078852,8.229920740364747,11.253772374468332,11.6228235841192
2.732016334022565,-2.0991900322212085,0.6513207995219946,-3.1973335485723418,3.544252024459328,-12.704382896273197,-1.641894086383087,2.1625342320262404,1.335044115956784,5.969022131163898,-3.5439568547587545,8.132206443524254,9.17749792373153,5.449094646649156
1.7038015529237671,0.5146436569208189,2.107704571566234,-3.177728710177476,2.8842535440555825,-5.476241583658276,-2.0901480896083786,2.54091941555986,-0.7567555089378766,6.796925642992496,-1.9312905392937108,8.28910143007897,7.462775428330919,1.702224311612329
-0.8674570442609751,2.69677237171759,4.098061211535331,-2.6360109088823656,1.379008203028864,-0.725165491157783,-0.7650955483914876,3.261764663544217,-1.6384468900356854,6.191225541861413,-1.7567948346987947,6.498297477849633,4.999238626187631,-1.9240032604232404
-1.5081850523576483,2.4228491719620897,4.449655302895636,-2.329595737242593,0.8746718712509305,0.6003856784197668,-0.4398092215819923,3.781800291505669,-1.961281677405524,7.367747581515582,-1.7990108946348728,5.201087432052697,4.689197173785526,-2.500456485911836
0.2388374126095711,-0.1426059842418371,3.195176176150294,-2.047393570035682,1.5159871438089545,0.0167795248582129,-0.4348335311268438,3.527140960858808,0.1150988340968501,10.618871987375668,-1.3323309679868505,6.392489717287728,7.3748294876801825,1.9353970642396996
2.6142859791430397,-1.211884063786264,1.1925126798134518,0.4117531160742286,1.9209494743866,-0.1289676419494432,-1.8450403589065167,2.921742328303824,1.782691266647416,13.994653408992749,-0.3042098732545009,5.626072385895197,8.32690623275992,3.436364902718565
6.622450238270544,-0.7165916926590696,-2.0667968554509795,5.182993029317214,2.5186975923920225,1.656116780831721,-5.184981470867144,3.230390254466309,2.97364467515071,18.30215080399888,0.912311394681482,4.9082660116116825,8.302667154913056,3.0199525538175176
7.854815196263534,0.6618074565253518,-3.0014472571475475,7.4985769693406255,2.899159358284663,5.323612914546978,-5.786587479286284,5.20034691553405,3.521669361618122,18.155243604969204,1.8080013391966112,4.992440817751483,8.00651060049615,2.6087101715495145
5.957512781481476,1.4493004192922196,-1.290458403111142,7.57248626320052,2.883557923735808,9.681345450367296,-3.7389472241723833,7.935897625845288,1.5985332272399877,12.92585350700135,1.966739547327787,4.058138552601234,6.65389814159464,0.8400637481218118
2.725641769044167,-0.3194400224123405,-0.694905233040944,4.641905564200622,2.4974176850905967,13.282542511140573,-1.7992562548163178,9.3657787717575,-1.1618533404997289,6.00601979148201,1.2984445640019393,3.7213835257751486,5.365061342801662,-0.5571554908167743
-3.049277269654063,-2.728121471607836,-0.4368452295943887,-2.5819015583975817,1.5460222147186464,15.121404934913258,0.9846959780186262,8.037827452400128,-4.637282758996545,-4.088273809667654,0.1843291439052485,3.79843915332151,4.040441849405537,-1.595583949070014
-4.633653825929599,-3.090023548443546,0.0390541734593629,-4.301247081849842,1.6656112798736176,14.813427083715924,2.5027460496478384,4.522855461921474,-5.571441048557071,-7.265753885984415,-0.6950877902738863,3.476651801061448,3.1098727180369155,-2.113531191687981
-1.535955212077898,-0.3602811076789833,0.1925385382472836,-0.4469554450849272,2.912494121601511,12.423912249323951,2.302628175956277,1.023925430263791,-1.945262031468809,-2.4107201054378486,-0.8430067081234585,3.4275668422740275,2.839215749607296,-1.678895479833967
0.4591558748666186,4.114312696576327,1.2043372413186804,3.555179689582004,4.058522200537915,8.367215284873286,2.8861393332851826,-0.4261934684254118,1.890584346942592,1.748344685270566,-0.3275832152088878,3.8202024427594186,2.971942444661107,-0.6932732381090121
2.871360139139154,7.948824360145316,3.079546554644431,9.877402689435636,5.459788897834511,3.600426001063401,3.704255229114697,0.5566508942985076,6.420515544384634,7.714038667368405,0.3681715359840831,4.263462062534748,3.749367374453771,1.0932514472199466
2.484196149196586,7.3742010591155776,3.04985081433482,11.026524380296063,4.426426353310389,-0.1965689732934379,3.444641178650416,2.802079064268768,7.539082617214415,7.85209636292876,0.8936525243232616,3.255540128250189,2.130960485717166,0.2497704978326914
-1.7680365126404671,2.702291377446658,1.1398305734688294,5.950131767328888,0.5424596779578208,-1.070351731916232,2.3406287717371925,4.79600324094757,3.138953249240539,0.4049535937482184,1.3031660327267218,1.229819009210603,-2.1184018128299638,-3.527194893108856
-3.128058644025118,-1.829269868533001,0.1265675275332894,4.079063214078979,-0.9519893579281232,1.965593584457057,1.7482477363920197,5.57165064821803,-0.1443083553612263,-4.941882885994409,1.629470308417179,-1.1406997123200058,-7.703681792723336,-7.406267367926036
-2.3412068058134463,-5.787104644288505,-0.4669999680914175,3.780142774914551,-0.4935523409177272,7.739785559525357,1.5464789001031367,4.595310523295786,-4.030567526350705,-10.221955409877731,1.2574264417981684,-5.097349665566379,-15.468162085662978,-12.220774355500398
-2.554333911800035,-6.107830789480166,-1.045455776212042,4.081732329647381,0.2547519812727873,13.11283913769216,1.122263155896003,1.398410890451336,-5.729467046529527,-12.57020487794862,-0.8951802418660044,-6.561225670028621,-18.419966464157337,-13.668741911002872
-2.668454792682,-3.4017123509704894,-1.1417723401163895,6.551525092703266,2.324674236707766,14.985387819239412,0.7348950737057731,-4.0105405047586205,-2.97616440605174,-10.21330586372537,-5.142445451130524,-5.500772897362552,-15.967615332525732,-11.001727660174389
-4.915350106747274,-4.027776877947497,-2.836707477412579,4.877355780570693,0.1424883850340761,12.778132505947305,-0.994289148111363,-10.191990709508405,-2.9696983105499952,-9.526015854185754,-9.911908444483249,-5.367377436674972,-11.524901889718906,-8.936071458669193
-9.815671565763427,-5.4707734335810105,-6.213601376752069,-1.044288529997455,-6.764029467430654,9.137321545507026,-4.236987491840061,-14.230611125662136,-2.4122072995066826,-9.442331656155272,-12.30752402130563,-2.650912308571681,-3.18179625057938,-6.360988398781391
-9.811807395606476,-5.394212505192098,-6.834215754077928,-2.1652040415188347,-8.34134232664154,7.864730105159237,-4.876687144529207,-13.479701743652685,-0.3559613964643274,-8.539240485712158,-10.435721079486523,-1.218446303889368,0.3469892336680096,-5.187595854595585
-4.99877273014935,-4.00289818134126,-4.851906956792408,0.6869830088107566,-5.341231359600898,10.623494051863103,-2.9627065621009856,-7.948606661327073,0.1059063410633927,-7.7703399617461155,-5.500136497318696,-2.922431587343364,-1.6773753196061003,-6.268706042392475
-0.5286540791203364,1.4079990992832774,-3.445371262482121,4.518695979308766,-0.2112062898840248,15.36398399576744,-2.2279919621504005,-0.9545950173608828,2.753469731479148,-6.810138796318536,-1.3379011396033222,-2.320180394710833,-4.906786643546962,-7.55074359781757
5.111785819053552,7.76518234196032,-1.7871236587233694,11.085168922466142,9.168703276713236,18.03269436795268,-1.9371560709409557,3.0926887728688364,4.473079373810384,-5.720475483561716,-1.2770580008984729,-3.100291137177388,-11.673734109229118,-9.79414005189942
7.50965583562226,9.339294828510504,-0.6849401780657395,13.007390521567558,11.338026756173264,16.09263572679228,-2.5966844130175675,2.147031620417165,2.11978733594846,-6.419747896176433,-4.977527940489221,-4.301119806526378,-13.933036521195415,-10.844587891756706
5.62303565682404,6.756175727862724,-0.6494515262551582,9.648422092573693,5.60452517863212,10.635221993323366,-4.889533640097492,-1.869330979520183,-0.6247546718073209,-9.093176752811669,-8.355257487155423,-2.3882799738641185,-11.000206587884556,-10.376758281485545
7.574581377963369,3.7623442274746632,3.1370153867116395,10.072016943421358,2.881983978516381,5.1875967952682425,-3.581645163325437,-4.876769369679051,-2.0566408168432173,-8.237595769327049,-7.019061605950698,-1.9227563245773909,-6.594343385802356,-6.431807831525953
12.43688267024099,1.522140022012419,10.690414310356514,12.857044474611136,0.7791271750506243,2.454747182360049,1.367857194001011,-4.253170651593072,-1.8149605723307356,-3.933600196607182,-0.297880659829798,-1.5168234294886995,1.4433991186683406,1.94724642734816
13.708278411230538,0.8899514334950611,13.323772869418796,13.855568025483072,1.4532932171988462,2.1070311675309963,3.8470238263112817,-0.9406380994616949,0.7876978607491779,-0.53792292899096,7.80885766394213,0.0903380735213366,4.503286956214415,6.240223110891695
12.422999274018824,0.9576930922066538,11.481029556981564,14.345334209228607,6.794759917696887,1.5636986613453372,4.688025384890873,1.7992013335993322,2.530283350921993,2.9914385568279718,11.738064617645067,-0.9267838683715964,1.91777206233111,6.680808155444472
7.762213521573303,-1.085771524238441,7.066422410696771,9.978681251779667,7.77867005121818,-1.2085168318915818,3.005069364481316,1.634606816781245,0.5476950407238524,2.036395388770329,8.894846659876631,-2.1754587801800827,-1.2277929994302217,3.0792714429217494
-1.6364142235628445,-5.547462155727344,-1.9088569038417524,-0.1930060780143395,5.049811858185208,-5.665692552813146,-2.532366369465648,-0.7170761854128354,-2.5366535626860625,-4.510907502212851,1.766968983733853,-2.454605038357358,-7.1084403438031165,-6.7985330031237305
-4.783769721942603,-7.729923417065377,-5.181867427151358,-4.861351975143292,3.1692336327069164,-9.266070701304589,-4.138893796434899,-2.380490840975101,-4.270172766275625,-6.461950149200855,-4.0463113476431545,-3.327414132012758,-8.400801699407195,-9.29201747935908
-1.5080122845376316,-5.637981006253887,-2.275504054281842,-4.565161340843622,0.5275105383092051,-9.919748107948813,-1.982385427226236,-1.1814075299741431,-2.8616643288944594,-4.648388331065894,-4.126247823017467,-2.21966394268153,-4.194633008830493,-4.311798912405931
0.8296385924673861,-2.7465994203099893,-0.9634820673155134,-3.093888459276994,-1.3668339726163,-7.90642248754123,0.9728865025939264,2.303110859145148,2.304975753344543,-0.1402792289166334,1.614270526550102,0.1717313309567912,-0.7878579862179123,2.305617887657419
4.591854333225301,2.047275618935405,1.0158331236961573,1.98613978294179,-1.9663251703172,-5.548938693381894,6.450492010839073,5.307977058511011,7.280783215592684,9.287231071837024,9.16701257559636,1.7050477902773258,3.646288258029271,13.742691104619515
4.622991002689951,4.984546115580018,1.0137104072656438,2.988710217158836,-3.993117131604737,-5.1073306816921065,8.03158411961233,5.346446480504024,7.812620843072678,10.857079190723692,13.530945059819167,2.565423226987801,3.907038252549647,16.19630930036206
-0.3187705784433995,3.1314185452054684,-2.113013766074033,-0.5779456665431163,-7.065700030412336,-6.897529011976791,5.198571764640004,2.2634820417074337,3.875975141558862,4.184351342525146,12.174299902784975,1.8704974015859648,-1.2252455463581955,8.426356430668443
-2.5040876469871507,2.131167800810635,-2.342161324063526,-2.744113949403207,-8.954188702002192,-9.240545761124809,2.3195609157882995,-1.804184464680907,-1.802418199041365,-2.7402257946448265,6.44320431798321,-0.0385268523327828,-5.327148725809642,2.476887664205892
-3.184306754981256,0.9139596939715708,-0.3454016850173965,-5.221638149729967,-9.950491353212891,-10.082145437746185,-2.173745490275781,-4.251045471854892,-6.297482177395837,-12.798314902592567,0.2253548399523479,-2.122804690341435,-9.809107593584,-4.848292770820755
-3.2353945291870194,-0.3812018069556515,0.1750858724221574,-5.9119013347551,-8.402834962311283,-8.708192826332965,-3.2248712636497183,-3.901704130479861,-6.042837736863386,-14.122033181480068,-2.911435929744994,-3.1102703875749587,-10.473906977688342,-6.729197010869179
-1.348423072477302,0.5038723832915626,0.0932084988052698,-3.921921683118663,-3.664127670038471,-6.106890565678244,-0.0053244117884471,-1.5505522754454306,-2.047430076640083,-4.907734967680622,-2.025294969654765,-3.126383344776746,-5.946762988388917,-0.9625817372371954
-3.1008784932680933,0.2949771629887384,-2.5914449897444527,-4.481610797338277,0.2135138439452091,-3.8849031807161074,2.507824899016303,0.9512141990073788,0.4653167521676231,1.1270743829052403,0.9615437375144216,-3.1187558275548373,-3.616645490484368,-0.9975184681724903
-8.623811921126325,-1.005615927425708,-8.656591613729951,-7.109583087624855,3.6323404367694674,-2.8803423984932,5.622186001188607,2.097964224922552,1.005325462467824,6.798288809803364,3.097687192214396,-2.4792806686251945,-2.346600698421692,-5.194170814442636
-10.203232683452658,-1.5258559567636978,-9.852252027410325,-8.458883542788179,5.410267474148442,-2.679941712866581,5.756676754367475,1.6057155931674103,-0.2141253153488258,8.191394328389984,2.85591776479234,-1.8748080267266225,-0.7857414098612214,-5.839761295733646
-8.625458251457978,-1.482181953541304,-6.2941877636177965,-9.337599324238544,4.547231681965312,-2.277659103870905,1.9293344989689711,0.3660193240092502,-1.858450245112353,2.741439328443588,1.3087143535886296,-0.6699726670393114,-0.1576820830458316,-4.879431115498968
-2.185837944383025,-0.2239796861045913,0.1415693171313329,-6.652978513462049,5.7309529486098265,-1.1212345987293428,-0.6773875090539604,-0.3221784089546036,-0.2564455003095612,2.6941713665413505,1.0837516392925202,1.6266318799796582,4.309660035541353,1.947332846296851
11.002189890567983,2.667431335402839,11.47618038005866,0.4141943592038436,8.560226711360666,0.3823990127961014,-3.0352838595592084,0.2540718708043719,3.3658846934005138,6.877775533357772,3.914180282256828,3.9817436308697456,12.841156737819142,16.210375984770383
14.720566347319254,3.784810492665297,14.793473936010727,1.9796495532714755,8.343558127827945,1.2314227681188674,-3.638075743061488,1.6045399611907114,5.069263252277286,8.24434612249534,8.826489405145747,5.583932876968776,15.781694059965709,21.13448197681231
8.818296027907646,1.140446509146546,9.38471045126975,-1.675716919244069,5.639230573414408,0.6739458068136388,-1.4752382214398196,2.298281157926228,3.082350731972601,8.719934360849587,12.614297356740648,5.199954247795636,13.549114946650317,16.994887822757356
0.1231520235789506,-3.462520408492206,2.130226444215636,-7.404699087827958,0.4937739338674772,-1.1394085940415484,-0.8982966780352322,1.104401124103283,-2.0599814145992177,5.329613624915322,12.372012970646807,3.968143741917397,9.41395285388948,11.970000001911348
-15.214392391517729,-10.132165555698396,-10.1990458413009,-17.460326940897126,-8.105139304077953,-3.155308444298939,-1.4006611904911077,-1.7719538876091496,-8.685847024110664,-3.1668396911115204,8.018519863514662,2.489231998603869,1.2509697073823391,2.4214260702665635
-18.649841135298928,-12.775096399945507,-13.629511795066342,-19.77785664066979,-10.460267520513217,-4.072658098212773,-1.098783162396073,-4.496520183714281,-10.951684633752954,-5.059915196602918,2.596311809287875,1.6341829864808632,-0.746660772224464,0.5746900403781359
-8.560041618886089,-7.721070494181764,-6.665540165102915,-13.503969976170506,-6.112079312920157,-3.214310126786665,-0.6850043523866026,-4.888884361340154,-6.729791260261415,-0.598244802934677,-0.0279284065378302,2.904497325367377,4.195542043976984,7.9217175519705725
0.5061900727515677,-0.6988351638087307,0.3990371639508456,-7.870215364783844,-1.032093199335891,-0.9900091778906486,0.8720945117833743,-2.2475188411294225,-0.5776459401331244,4.169373030241468,1.8368034518088008,4.510504488470723,7.568439209589521,12.983984462987296
13.00607881247486,8.388052366351163,11.132014419563884,-0.0567727029513102,7.102911697880255,1.4335678812695507,3.8358956442223735,1.9269525100676144,6.1278400935617565,11.708747669447211,6.543102107506546,6.062970043506147,11.701708213807713,18.695655088152733
16.493976088349882,13.60528751541304,14.714298697222882,2.2307365165139714,9.267197736685665,3.0305859032664264,4.352179715929827,5.095694088261744,9.177214569392264,13.848197162667176,10.684753472842935,7.076277670448189,13.494602474384946,19.74376957665936
8.221232010175738,10.911453376399203,9.246051137387608,-2.744972480102577,4.201463412368682,3.648609715506924,2.432149922805828,5.747866792780534,7.083652449624263,9.443381343853776,11.909214339819142,6.517041229334147,11.603458743293595,14.10110792963684
3.6612439311648632,9.189913732199804,5.064345327304562,-5.430916898692123,-0.7512240643725784,3.9618014946526583,0.9266254481610984,4.464975020169357,6.176235145027718,6.983530183141942,10.484304660347227,5.77408179761594,12.370202843975616,9.842339327333956
-0.4498358870678788,8.226769648012828,-0.7235330774049168,-7.86815387091235,-7.980229101432926,4.750495378827627,-0.9344654572883068,3.030433205413182,7.276539263920269,4.5091445360148255,8.441972623282835,4.802788021129136,14.91795909690224,5.285846767591195
-4.197185903725652,5.828792191717347,-4.232234456328846,-10.305097115902353,-11.897268238617494,6.223070433333757,-1.837698728610274,2.5447608344415373,7.133483584691188,1.6470170563406767,7.356022382491553,2.724561147712372,13.309416671211348,0.1305992639434894
-5.233560789855627,4.078236076638533,-3.897054240495023,-11.3294528454956,-11.28633324932628,7.949883020130262,-1.2862376589868287,2.4368460852685763,5.159162776210086,-0.4282460602836846,6.866510577218678,-0.2798642276018278,8.151922928439294,-4.4398768830648665
-10.787852023917178,-1.1704776923965263,-5.667797462146906,-14.36162061864436,-11.214315329243371,9.269898684208163,-1.892772892449011,1.2786760155463357,-0.3982861798040301,-5.159881787807792,5.123069393452268,-4.47709969748882,0.527714276115686,-10.468957431956762
-20.43947865800325,-10.569619120114345,-8.306793581759695,-19.11181688612341,-10.05030929995071,9.625888606569903,-3.30956889252954,-1.5277027467937812,-10.593961947930069,-12.427300656682316,0.5162139450802696,-9.914162569800002,-10.812572797155475,-17.653830620624202
-24.23140490265342,-14.56661755757558,-9.686227919166662,-20.080480276051727,-9.06566194811071,8.63050998271277,-3.4013384288467146,-4.925769318474903,-15.61036134141126,-14.563534582803715,-6.876838012493083,-12.11502355692195,-15.39245884215596,-19.528603357637053
-22.8202996101713,-12.023911820521963,-10.479541603240117,-17.43152137823461,-8.82759532139299,6.207097830533025,-2.4605884941740754,-7.011917115808264,-11.867877294841108,-11.623241649789753,-15.156607149874196,-10.736008770903542,-12.514377319727648,-15.77423379640566
-20.736347107049404,-10.309042951035352,-11.589146303427256,-15.374177464126737,-8.509664428434716,3.030617645143772,-1.6875706420989538,-6.606622087335647,-7.291325405181841,-8.472153206642806,-21.60834396702326,-8.516981100995332,-10.992512384773915,-13.443305268462067
-16.005726299775695,-7.382949481995975,-12.83772831923178,-12.877943336181628,-8.632197801095792,0.7583645608725549,-0.7572082613122865,-4.084846393578911,0.1133043147998257,-3.484342724520283,-23.99753192707952,-3.216199173221636,-8.45262767275361,-11.25065585010005
-12.504119691189402,-4.918056745431587,-12.046182992441365,-9.405491065007956,-7.630276449174069,1.2387540863736302,-0.179573650123809,-0.829602608523828,5.157542947863006,-0.2307840119085602,-21.443943333014083,-0.5279468068253742,-5.921840021078196,-9.102956960854796
-10.806711907311604,-4.580588263640824,-9.173401287650307,-5.503003577163174,-5.433661326035526,4.766832080257867,-0.1721758962277561,1.969741694184342,2.4635433218873843,0.4797792938877279,-14.647363074146082,-0.3368009148228527,-4.594132547833592,-8.222866062672464
-5.806656613029736,2.180978892241897,-3.429733503731058,2.136341202292648,-1.5457215233227062,8.81127957255267,1.9874145956720684,3.9784942195735087,3.0211143617270464,4.140312514106726,-5.552266886633086,2.1632526598755724,2.1055611562693457,-1.835754203759858
1.696409238583643,13.838347433568488,5.909454369553033,13.73966358134703,4.540114620660295,8.867238409009857,6.327127127657989,5.37233920200627,5.450362163637792,9.92725543657508,3.345717971978007,2.310614795956708,13.99392150610859,10.143697584399082
5.150786269733754,19.16776029077098,9.131291597115968,18.225884750269756,6.00557450320826,1.4960750429821543,7.226878358514712,6.093659568016969,5.057257692852363,10.861079468331836,9.780616017956872,3.201285190264998,17.553281010015503,13.701677052178344
4.833253215051208,15.957601360486786,5.8728743108312695,15.487164689685796,2.58041061796718,-12.549258786813178,4.8783907953588805,5.631014862164605,5.27777006172543,7.258535570307663,12.314439286495336,3.687449712048572,13.078623692374263,9.290017988391249
3.772338101001568,7.916902285457644,2.112442038576882,11.34545846594892,-1.5906081038635027,-27.81765729697823,0.0751876335036479,3.589065731309431,3.32783815748694,1.851214478236141,10.64321445599955,0.5710870717471458,4.893091386159596,2.2829311250615723
0.5615502648529588,-4.821361004929829,-4.435046000123206,3.2381198548113144,-8.125813922864516,-37.15756196064882,-8.568178762257066,0.4180676254243298,-1.799146260106057,-6.896348484009661,5.667875780913197,-0.9057836454191328,-10.193410443444572,-10.438961414083783
-0.7309535343311565,-12.227081658645965,-6.377872967820524,-0.4524627518700913,-9.63695642485016,-36.25654610695897,-12.446337824171234,-2.5551406620621,-4.093531419887479,-10.12727557535848,-0.6707919530300461,-3.3442742655835778,-16.37424504032706,-14.867005160752694
0.3743471176617373,-8.77516559914624,-2.596822479029262,1.304429162128537,-5.135388149064536,-26.36709613289453,-11.232103108351364,-4.000408265216283,-2.3586419747009586,-7.024216443562204,-5.985440020631352,-5.614538642070201,-12.614599484185694,-9.808836745382925
0.5866027680039482,-3.6876063497211264,-0.5777593470039635,0.8040232641760067,-2.463032519002968,-13.192155676713377,-9.52138953212352,-3.6595514633355313,-0.9489643884136716,-3.795090204434583,-8.535813602679276,-5.48564476929827,-8.153491759996662,-5.746335080840607
0.9179447726235458,1.1638110429584272,1.5171160407530553,0.0764601757596068,0.1364881814176597,-2.890736844285735,-5.248554452646679,-2.633312134380254,1.9193904280418328,1.8030826169197856,-8.315448948200427,-8.276566280372272,0.9390186983781412,0.7108627162564387
1.5989497260456962,3.8700689787136486,2.212628808535793,1.3739061133656023,1.1977577336808949,1.6936541706886594,-3.808905782522889,-2.5254079869810973,3.8353324120735337,3.6690155551027073,-7.1855280787921005,-9.35870468825066,3.5198949151139933,1.5111696980284277
2.328803021230273,0.9788075822229314,0.3550312394756573,3.97044652743391,-0.5843691526886656,1.904886170136796,-5.854872058849162,-4.103372285844751,0.4444276903896378,0.7487545725852043,-7.578523818674276,-7.9827590888803694,-1.8625760575100097,-5.128326258864003
2.734880304930612,-2.750176681774517,-0.5435872299405382,7.986163421398038,0.4531445572468581,1.0857012676372235,-7.124943024036608,-6.615254990990797,-3.915969172027989,-4.149333578813095,-10.550897748070154,-8.795508551275525,-8.185096824693366,-12.215299361150064
2.718551471363392,-2.651594643275893,-1.1093372932671168,13.745053550693802,3.818235559253827,1.5497493512972258,-8.972210988746554,-8.377227146234482,-9.446039542267645,-12.946954352418349,-14.794618226935846,-6.390935931680704,-18.50017646806824,-22.15128149371409
3.096728104428078,-0.4227072017501097,-1.166220070020058,15.575026709026858,4.861688377074031,3.2256319689455326,-8.656524885834003,-8.147078349376995,-11.717732918285591,-15.785740175899209,-17.57617193283117,-4.008473016383636,-21.114580566525994,-24.2617525309139
3.778797762206828,2.382848465332823,-0.1203158392476807,13.077351391868357,4.354090814538298,4.65432259061518,-5.5012048734008285,-6.106105627304192,-6.025060811622258,-12.007040526863076,-16.865447881673013,-4.484401297368487,-14.660744160806216,-16.936661548067047
3.0881078211134865,4.508345765533828,0.4150445640454194,10.521475123829596,1.9839739207334937,4.898922095139717,-3.029159093213231,-3.623740563529987,1.4992483161634969,-5.399333394115664,-12.819800571198764,-2.114140949599107,-7.367388665313056,-9.062296687696309
1.0251977110584078,2.283923366492382,0.633138572474459,6.541995893285012,-3.169065147734861,4.410978676935205,-0.5100577460773585,-2.073899836739211,10.732062358250891,6.702272197265895,-7.438513340942098,-0.4784121441238546,3.840748399458385,2.2511737589008254
0.4550025299741828,-2.012317400162949,0.6729373424363247,3.927834049294123,-5.129271849069498,4.228911747444292,-0.1457480633942477,-1.7984256618134498,14.473143531586146,10.420762368284398,-2.947001888241601,-0.7432701070153138,6.885123694925932,5.939585264711937
1.197857964105242,-4.180525068334839,0.2333790962433898,3.367567060314138,-3.858482241634492,4.585919620129649,-2.704216116840368,-2.112810630941115,8.278339410785467,4.814368610993035,-0.4991833714889369,0.2021535395508482,0.0292127961645009,0.0916197322576573
5.487378829825629,-4.141956682348763,0.8097685841941169,2.526719787487224,-2.866318614832408,4.449000346709967,-3.757825014436796,-2.2245968740318665,3.180865502732968,-0.801561182596068,-0.1332050558317576,-0.2150826645824389,-5.017691056585236,-2.7118082731489284
14.255319568266833,-2.199625528319233,2.432219195920018,2.277859831996552,-0.8569979846242903,2.456177184924976,-3.8733806058763,-2.083314982178629,-2.6544741638193194,-9.778490416612373,-1.4707638631208482,-1.8047073507935496,-11.290142873708977,-5.2389848297117245
17.948905912963387,0.4598966035940623,3.41177905456814,2.946313392574278,0.1644028522982158,-1.6626413846119918,-3.5770874079370447,-2.32250255144684,-5.904673917213651,-12.115705270541834,-4.061493802646615,-1.2953140392590552,-11.825509577691134,-4.535900777255677
16.73505716288344,1.4114150488089408,3.997712660618769,4.4395255777504286,-0.2529936886095039,-6.504095233170531,-2.0387093387698902,-3.4195302384234147,-1.8540866736144204,-6.123440652845372,-7.073376879315832,-0.2103548427016982,-4.430490480842958,1.5666473796667275
13.774270617381353,0.4037105524265809,3.95230168221403,5.72443008858129,0.8323279052067537,-9.791367904710937,-1.9158981702562616,-4.996951148023953,-1.321826700573859,-2.21977324699311,-9.09641060720124,0.3129418889523901,0.5998229968329616,4.465802871218389
6.848119038030939,0.8360696028563357,2.920477751449888,6.773373557528692,2.9627018657211472,-9.932653828231045,-3.1824963139464657,-6.017241783894702,-1.3373384586710029,2.140064750861323,-8.803398211180744,2.2989611891034856,5.2717215498027965,5.215182788808753
3.91927570849709,2.089471172377397,2.426308641894264,7.155643904911663,4.023346623455194,-7.14543413812941,-3.282943364444926,-5.681783769107622,-0.1500120619009921,3.2173787060533714,-6.104108064884985,3.374807420418203,6.80320057750851,5.969437875793314
5.437050119214904,2.5618284808545475,2.368891945520968,6.516859811958309,4.340609931780099,-3.3125191053353404,-2.647179258711581,-4.128332222413219,-2.263085963494563,-0.7682897744345212,-2.579495578347592,2.980814941107782,3.262852969808412,5.235918888048026
5.342696135364301,3.5128776713922454,1.7924816800873815,6.647075658219805,3.5722277745128457,-0.681176105862205,-2.144318691475525,-2.253536946767469,-2.351256595194413,-3.3081647373205865,-0.4779667040129416,3.734685196648126,1.0122861415722808,5.335767239135111
5.40219076149296,1.592250417533139,0.952680180068744,7.40624084527905,1.2543504869640332,-0.3575170774946539,-1.3903902242936337,-0.8891479755702401,-2.427380164800574,-5.680266857800906,-0.9561197877223684,3.6724800629047407,-1.083953090461428,6.309947693226644
4.026527519061766,-1.6503970452339247,0.1630095234266609,6.8907796134907295,0.3285452177830985,-1.6942149033142293,-0.3717175623333783,-0.1641465986933079,-3.356994303221793,-5.337717380504375,-3.077049351193722,3.234832736326501,-1.3279184034447518,6.77382933883139
0.3791060428083205,-1.940816425985724,-0.6714338468152673,5.311108737560764,0.7519694733750122,-2.9908072582290863,0.8683300129693922,0.3985501026960047,-1.809299802136129,-1.0019167972179115,-4.450815155714828,4.15268111426993,1.5046596959629506,7.191218263001292
-1.9132890199799453,-1.688112531786377,-0.6994423581002202,3.21345770168789,1.6957125910388984,-2.8978412377753777,3.265710040731186,1.2927835499622642,-0.1777932601615152,3.4046365521028195,-2.959950584780813,4.338726375886481,3.80981353305428,7.645288943129541
-3.319343433675581,0.2074293910279755,0.2122479127156156,0.2332148220692352,3.854484098934317,-1.3696589900398166,6.913529233896543,2.614412097232238,2.8231821467436027,8.86363160328632,1.8208443643822108,4.300679843241391,6.339265376872178,8.022295971219213
-2.986032650490382,2.444859761946116,1.115015968182716,-0.8519358906194736,5.568020686296932,0.5644971898962403,9.500857151563082,4.16092684796044,5.2153512701927065,11.404626672219411,8.443528063359423,5.210853359180257,7.242016917301987,8.141521613706196
-0.1131772436693364,1.068251197282921,2.221822209877504,0.1989918065088148,6.826969377019896,1.899540186411082,11.103689579848677,5.773719414482329,4.508722411300999,10.136459269412034,14.47996232984481,5.563413523299688,5.800829207846024,7.9641767173458415
2.129209464136791,-1.507238563395097,2.471985594668022,0.3867881901594491,7.837960892082716,2.5868505508545816,12.662079984327796,7.459954428666865,4.39829161840747,9.370959357787331,17.702903131835747,5.844813537929355,4.313966282253519,8.122810236864487
4.0891166372971055,-4.398101427926352,1.6176056057200252,0.3032047211915056,8.182791680909212,3.484474827847137,13.671655209162338,9.188600135990884,3.0612409830868432,7.9742047364428705,16.975566871421403,6.946826890723308,2.1238653199172037,8.60444247037726
5.494441310686333,-5.418489556496345,1.2131000705680834,0.6158226865740363,8.775739894805367,5.420072318046067,13.642168230597608,10.660823153705802,0.528719436606264,6.623180474473108,12.719250380719146,6.882336024649471,0.8822913220832256,8.14858971010861
5.662518460689337,-2.683580189930744,0.9891071249976356,0.8999535180030481,9.52997659553599,8.225754711225004,12.502898688844969,11.34031071918449,-0.6733293347584297,5.910346352712534,6.89310825897503,6.03068024430157,0.9964442600876756,6.793900348108315
7.750752980121883,1.4465011039795757,2.126897610446728,3.1820727037682266,10.829796158832329,10.60865055680222,10.861623708732903,10.715295725561113,-2.5519339866646824,3.456907914378848,2.2636955436497,5.624710618383007,0.6609432306014071,3.739414968977314
11.634413460856472,6.0580362159142345,5.019412262650523,7.643188833516986,12.902666045123858,11.0428841286782,8.579737610933563,8.58345155716422,-3.9849029484332337,-0.5061951678887944,0.9849556038691674,4.012427960918567,0.3556582887374157,-1.4297274347015572
11.671443295903938,6.65418322987666,6.34381133750848,9.263227924301278,13.099387591980133,9.059771891308744,7.984000652311963,5.249447314988405,-2.762343788725578,-2.125126920687331,3.220702432790569,3.2578897654218526,-0.7508037970319348,-3.868223566973472
8.064951578069174,2.307112907714138,6.301410980929859,8.178069244248682,11.380897949937946,5.928686293970914,9.4022297694592,1.6222341669572788,-1.0765108394809455,-1.5120524738313748,6.935675167714665,4.328664968114829,-2.958437016588793,-3.537027938224974
3.182527782643624,-1.5231695411481077,5.619925731969639,6.3317763764323045,9.731249870591087,4.044688266141856,10.323973922741672,-0.917655165714362,-1.136905220785626,-0.5318685023646288,9.299220915312668,4.517672905011099,-4.783807516254892,-2.564430699631349
-4.2059516812357565,-5.976780090048017,3.5743139969940967,2.600964830489813,7.599125590844949,5.259945481221614,11.324621657749642,-1.0920017895952316,-1.4973722849425433,1.6520285247443518,8.758602623124856,5.657966225913789,-6.45664718676293,0.193933722629826
-5.878027058928236,-7.095870507350541,3.7116752693849295,2.0055976535220723,7.513949624678109,9.339275881436564,11.64058525368425,1.3702307986894553,-1.918787455372169,3.071090485039303,6.089265833458512,6.454816988873585,-6.04843909519392,1.8494368145966436
-1.0149190856585772,-2.6158169408477416,6.19715846486771,4.973701888075411,9.976841724417191,13.871640781509026,10.831737584592044,5.169257016171256,-1.4332811638883098,3.4711321795545143,3.5325142213517235,4.41274485631422,-3.089049096645394,2.1617267967890106
2.601605512935876,-0.5284795863972265,7.695117414243588,7.200751693740185,10.117795506350657,15.950995362031096,9.457636422620444,7.973420183173378,1.3200681029634105,4.606331786945421,2.838502789553587,3.029619946451568,-0.7077899072810894,3.906157422116722
6.889284801093935,2.4610762648281743,8.91884353062864,9.845399511278282,8.40607753292444,14.417890902859304,7.136960660502477,8.00638098158485,3.5823681572179225,5.998121890896219,3.9910731963350656,1.310366540027706,1.5722020337986609,6.473019958086254
8.35198314786217,5.407969256543149,8.801867094887507,9.867886593860083,6.8333436481449,10.793153110001729,5.508884672978244,5.509130050542396,3.52332460207968,7.513534423561841,5.646056590275403,-0.4667606423747494,5.206984740985129,8.915139420508893
5.576633587507489,4.015126548207556,6.71239117639673,6.427400077136888,4.528104309746375,8.032147791852559,4.661492919452094,2.6875558062675253,1.7198099792303936,9.346707446160451,6.645795951267907,1.4863905558322343,9.76152067384106,11.55536863963822
4.966986815006282,4.572458899760704,6.799926658123275,3.584374923091541,4.716650495103273,8.124026893256568,5.479966394236183,1.952731981847526,-0.3131655901431321,11.724580754444128,7.064630003117935,3.85672293660891,16.928430197467105,14.040413624705709
5.48299867533278,3.723140208742629,8.864669864362034,0.4771445446603929,7.814744593204958,10.609473699496906,8.548289097224695,3.888715663326204,-0.9133163032885394,14.721893940203714,7.907318350025777,5.950821150926346,27.06452384481017,16.2240906679828
5.142882356609414,0.0420552012675955,9.311021319007184,-1.3655852199173415,8.297968107635382,13.245879782287536,9.882469082959808,6.7962494348836735,-0.1737084655042955,15.689607275794716,9.990003650440354,8.652067477112686,30.56735116963152,16.801605382986004
4.882236677482,-1.382236798762248,8.790778048156895,-1.176668749860086,6.700453051679666,14.092931246188105,9.658047044086144,8.276742712301195,0.0440363471309437,14.470318033156929,13.192174908625274,8.6657845632529,27.10718524860126,15.470949072970283
3.5585986827604943,-2.809210906370452,6.030107479308961,-1.5749805831423551,3.981414891984311,13.072092710911582,8.249220343890162,7.383944084342005,-0.3952952519160846,12.929259668987529,16.6432877820938,7.824709351150944,23.300753750412436,13.569778888291198
0.9837758947809376,-3.338373129972665,0.2510302775711864,-2.003031761199226,-0.9875547502469936,11.675942264908343,4.703037903471121,5.315582948935372,-1.7066707003600796,10.42841016031762,19.36860034915005,8.152107838689005,16.96173730608135,10.690509855874303
0.3568331756550785,-1.2659382105369366,-2.180922424360462,-3.020647603563396,-3.132203443363038,11.279586973618404,2.7390508540248955,4.0608858639772585,-2.5845556081927303,9.455082726417348,20.639113183827508,7.233046845220267,14.549303627143626,9.22614969381818
1.6220304439903577,-0.3056335976446916,-1.3818715407933788,-5.067419550694282,-2.279943452399194,11.729918850546513,2.3097440459902834,4.440086809165166,-1.0367903376948506,10.417811809847038,19.910822085249563,5.712151406445778,17.323756900844067,9.55219043214033
2.6002920517321497,-1.7517437827131075,-0.7522498989661573,-7.301993006857977,-1.659712419071496,11.48730716143034,1.889602405139232,5.506056655434101,0.8002838678274847,10.354483717455102,16.87374250623555,4.655173500181783,17.072242557264815,8.888155973514257
3.9249661108748617,-3.305690216602965,1.042946376061666,-10.019997849622705,-0.1328216167138378,9.076579188137272,2.2948769266335547,5.786453401691446,2.719816443862488,9.862132248609466,11.920524889380602,1.822536164512751,15.380938703298812,7.815056397659183
2.7238334380038105,-3.892067695811124,0.2479082132136306,-11.692904613014512,-0.2579895009917783,4.441645763412192,1.2006945321262803,4.910958329823746,3.086364958807634,8.239394189861539,6.552478256463804,-0.8066151051345906,12.797595081974404,6.383997364692166
-1.551836253728984,-2.588725878685895,-3.7225222454585305,-12.116010151299964,-2.547695214444914,-0.9902901137070296,-1.597164408097351,3.836746092308271,0.7519187377233632,4.941807577140996,2.916504491525526,-1.4115254258382854,8.035576833651184,4.168302950410956
-5.696274029011217,1.230606030802563,-6.114128672266354,-12.121786229643714,-4.396597603836048,-5.45840686587529,-4.264240351301797,3.4942517970178457,-1.0937032015474717,1.17894712944158,2.400211025952933,-2.9158856661099635,2.418529792017851,2.8939981197337192
-10.46966395016108,4.490083370796576,-7.764265747299498,-11.263658058762331,-6.494751949790967,-8.094518615930578,-7.343309484171127,3.4568171814605577,-3.17119618722162,-3.404642340787109,4.336310598018265,-4.22609254751687,-4.424374386473951,2.5364715273526435
-13.22440206753932,4.598780493999238,-8.708834710116468,-11.43277791330607,-8.614247057467955,-9.208699877647112,-9.585128117920249,2.230662992879733,-3.3984793516876977,-7.433417401767887,6.120532382578759,-4.816539104208179,-9.246396496403417,0.6895899321432222
-13.24679330191001,2.742030907399417,-8.121342216136966,-12.793396541797286,-10.417347463414352,-9.668131718739554,-10.665069215391036,-1.050493898349437,-0.5718835952540562,-10.6539939502346,4.953374215797666,-7.000648112595994,-11.61243151163421,-2.4434209515223317
-13.823965233007105,0.9786962292534344,-8.568238080929977,-14.150736206299335,-12.511813163098893,-10.231390897000106,-12.279607445349846,-5.377548039727328,1.0544258451025277,-13.811424925580855,-0.0810048093037281,-8.98538818666305,-11.32423054379773,-7.292553680199353
-14.178915226432984,0.3462286923600796,-9.890911535362036,-15.98586526142656,-14.73533998402573,-11.467677633656589,-14.092478741301766,-8.555788711798385,3.7718761761955775,-16.468073605361717,-7.325179330021026,-10.172004744128238,-7.21881617289102,-14.462780701037442
-15.88336653233659,0.4719322752849589,-11.617195931699827,-17.760657575415305,-17.997836448909062,-13.995680988356344,-17.380058297016276,-9.291296170612029,5.180988611461309,-19.73639420373149,-13.860890910018847,-12.752372186024209,-7.719593097578968,-19.84680509713149
-19.54593190316542,0.1133774655525939,-14.290504150075162,-19.36623126751381,-22.45547727848891,-18.3561602616346,-22.54327051098149,-8.586257717608593,2.6035655607426658,-23.678801703711446,-17.74233491426046,-15.322650226574297,-12.9546401436743,-23.47825817768221
-23.62895263447323,-1.6437188196970645,-17.397227009825983,-20.657620290515418,-27.54758750953546,-24.39512201281168,-28.004176102096665,-8.956740795975739,0.5497760458798521,-27.93904476405228,-19.327503885024505,-17.48919268928187,-20.27917108476015,-26.848503086222703
-28.726763376626877,-4.343611037106874,-21.054574217115658,-21.428862260803257,-33.55350519099732,-30.84325705156385,-34.17187141418447,-12.136919861751895,-3.7171161304526734,-32.808225220585285,-20.69837095814635,-21.071326692333333,-31.80525288150664,-29.004994071617748
-29.873832286024268,-4.274025837307372,-22.139481420893837,-20.43242667772321,-34.37063230815451,-35.73855345861006,-35.603191093533326,-17.424983537636415,-6.38948572308094,-33.516854051453215,-23.75223822174342,-22.122264622404725,-36.47811682628817,-29.966760319519445
-26.49433939314218,-0.9832775021457992,-20.27814427310911,-17.37673054974107,-29.37991779994737,-37.42801965990213,-31.546642259192705,-22.18422433253058,-3.27432746298005,-29.6428843592203,-28.547454019979742,-20.342696484005245,-33.62786699650023,-29.6127178125528
-20.775115536022376,1.7044931163801924,-17.27046996839127,-14.528796759848907,-24.116313446691827,-35.24501116906311,-26.609933048019148,-23.96146072559976,-0.7525866657534541,-24.45738222945361,-33.17033438758693,-18.956109290008357,-29.57896862181797,-27.68337075563806
-11.246184024797053,5.045232579584161,-12.21716949228212,-11.59597363153947,-17.096108857473688,-29.42892522606172,-19.329469578942724,-22.282280800039477,3.4642401360322896,-16.730762200245483,-35.1487661999473,-14.758528324108688,-21.59403448696104,-24.044475622810836
-7.032191537073613,5.521177442623604,-9.345667965699104,-9.472425414916088,-13.60895639748774,-20.816764051647237,-15.408427205889748,-18.678935415215868,5.9495072959014585,-14.189349326690758,-33.28493472893435,-12.035426510028191,-18.40629770998909,-21.42442564421752
-8.821408478080233,1.3925782006663818,-9.06630906142861,-8.70630168616363,-14.878499601576811,-10.93953564124286,-15.858084618522106,-15.221398012874523,2.366069780568995,-17.82604257283795,-28.54061365585396,-13.11432814991918,-21.09814701282853,-19.949075336256083
-11.354725865567248,-0.1592511668029708,-8.579988782780134,-7.489887278333408,-13.499945786264153,-2.1817419025951144,-14.83744092416747,-13.027477835631284,0.3983945239419263,-20.637128620760784,-23.363386572950816,-12.161549359886106,-22.24916659204936,-18.41615606351528
-16.977351745138638,-3.464929123491524,-8.97804439820627,-6.187300751991344,-10.825734964750785,3.0039940932498563,-13.855796794450422,-11.927838542375298,-1.877068535752528,-24.580480094579357,-20.001397723154923,-12.649299041637054,-24.038691977770718,-17.533476971397743
-16.513502931984416,-6.4242308180992005,-7.961584019732651,-3.932878013418211,-8.03352683277617,3.931638926052358,-10.796844559497115,-11.194230848066956,-3.4425573709701665,-23.324107343907304,-19.06023654368673,-12.589411155369476,-21.939541537093927,-15.620561592233662
-8.911494139232085,-3.5376842655677105,-5.149473075541742,-0.3629090125854447,-3.993380771981464,2.932786486738107,-4.710296426433985,-10.336620470599716,-1.222939569165595,-15.41237148780439,-19.300022110110177,-7.964198353092508,-14.695288939723865,-12.576392787042408
-0.7877866258955734,-1.5675024071473505,-1.1564085495681382,5.252083482718088,0.0375101852550728,4.071681288947759,1.603431930619203,-9.191966338154554,-2.040791764060491,-6.728967907079454,-18.67844317378601,-4.3199848721560015,-7.689194399310971,-8.238085105441327
10.244475960509202,4.203872939056828,4.766890306619581,13.42089458511219,4.181360501728968,9.512375329400374,8.92276461995843,-7.467397579802567,-3.727495317192114,4.638236321771166,-15.743409212564174,-0.0206893695029555,0.4119071661526428,-2.092049087637521
14.791218732062177,10.151864942697149,7.704175506267009,16.910312233387362,7.416199000229958,16.50870767971601,12.649358404550728,-4.534824293760929,-4.152192696879951,11.35964105517332,-10.391327075019827,4.646664895971917,4.605717356521665,1.471423756748574
11.437700945156692,7.629122737007395,7.421714856955495,15.487514603653375,9.405574345068596,18.3080707348803,12.011397322373089,0.0313193365414168,-5.383782902417445,12.186549832917938,-3.6969932543104136,5.678613738982268,3.6842139766299553,2.343725721417565
9.084526771522784,3.317536040527358,5.903428537667383,11.611115494376074,9.639404399590036,9.159973480014528,11.815186979331536,5.599671195312318,-1.3534901146643237,12.3975671793956,2.7450779988326524,6.772735072691213,4.52543063834041,2.897230728660763
5.313521192044285,-4.815684143269378,1.8745211637322765,3.3941833597572724,7.592014708006562,-10.302264001710435,10.86014512616503,10.310338723640116,4.557634993194765,9.854134704422927,7.428222681190391,8.075866952439958,5.805361942962822,2.105302936728332
4.393315573053286,-11.642248870479785,1.4290453461759367,0.2404932078135516,7.337431389219454,-31.97398220917309,11.227593974328956,12.139884337175298,6.932718156242435,9.88574199182464,9.371161983629902,8.079723547746735,7.297999039947638,2.5031060402057026
7.817758354296865,-8.787884430797396,5.013418132271317,2.72132049097417,8.836515600457425,-44.90938115351337,13.760832179128675,10.57157768047147,7.864546355101261,13.245722162822336,8.55341868224636,8.500370397335343,10.100293224314704,4.427077404394619
7.927215947469818,-4.156782893704146,7.267555330113891,4.226710795891427,9.43492116209748,-42.39180358448103,13.215593048181196,7.41404564199142,5.72398613599191,16.20344650306152,6.257080209806047,8.432090096816628,9.67391306956276,4.777561689584653
5.872381736280366,1.3082684420918742,9.54651770867912,6.955282812284775,9.95665254851541,-26.13033445245462,10.062111459403566,5.760922698056064,4.627845758611463,20.202369291991428,4.814043407900578,6.899814644646283,6.052995804165136,4.091873039351316
5.823565170663157,5.153466392237416,10.477673390948462,8.796819423609692,10.01396004750782,-4.615146272028098,8.349443772269868,7.617653923210529,5.001161755274446,20.93572306553573,6.40941290223457,6.09576614826858,5.003864631247689,4.469275372350207
6.784687340483457,2.5679289970620847,9.208340807364234,8.958687845987685,9.289919493256258,12.753130065580407,7.329096128717549,12.040939478414415,3.393811269628796,17.770789123754568,11.442601843223688,6.551445832509941,5.915914744549423,5.57759006009792
9.666843917987654,0.1032024440819535,9.949678634432248,10.351562713011834,10.64113947811332,21.200142903324767,6.392463416792116,15.477511420620417,0.8893833986084716,13.51033115522824,17.719905022535002,6.623585626882603,6.372337729257164,6.555466321194602
15.219404355321744,-0.221456014263948,12.32582178622715,12.331703415326531,14.109951865638797,22.089096581428077,6.208354751298257,14.314839197185826,-6.752609526353004,6.9393182253338015,21.486978797616217,7.142103464520351,7.396501451292847,7.738845898954266
16.66233749802622,-0.0270983479331995,12.465751725923749,12.479316590639376,15.838445728674516,20.22716507678613,4.5195992428177965,7.792990669474653,-12.243990935101024,3.269355845619238,19.93970407682413,7.538654498402349,7.323837075791532,8.687340448536146
13.935111893950925,1.6125964555761756,10.899648564085153,10.958851157156442,16.241036551622003,19.80451474211599,1.2700190160960922,-1.0395211815403256,-9.741225770388189,3.1016400846038445,13.448987069086389,6.775673441746526,5.8600968432610685,9.290126856835528
10.39839459965514,2.8910884680703943,8.248921954932442,9.687506325262872,14.493996597994824,22.072106419286317,-0.9714355898275032,-7.237957643380747,-7.538086526836946,2.1068280665654973,5.641708513516059,6.3110721999807256,6.35648434828084,10.91581740133508
4.494657016652715,2.4552434097401066,3.775891791159453,8.247479011937925,9.667788108744384,25.75995682443746,-2.575281375194673,-7.4348792370674035,-1.6600318000464267,1.5893668703266015,1.01577642483862,5.920674045322756,8.569896311039864,13.53390003797694
2.848385171012898,1.622081641785433,2.413337261615637,7.842666949873943,8.21757029860162,28.96345783545296,-1.5976626577683068,-2.2733609968389263,3.850210083189501,2.7266953724823657,1.7904707383399057,5.88554188349447,10.547368118954422,14.648692456187517
6.193811227026885,0.7963390034971819,4.447113416434726,8.904492677823098,10.065449843499914,30.623797130794543,2.6687977854025435,4.100699534233188,3.1154592070210407,5.196233386575869,6.454894341533942,6.92868851435508,12.876494599203346,14.36502844003546
9.856165867628944,-1.208262740854069,4.651749873876722,9.269681107531731,12.233690758087237,30.750019070272085,7.077915042400451,7.161809645124325,4.323773580695556,8.46385037747502,11.187884855357902,8.140233327861306,14.347825480586978,13.458521645384527
15.56110649577331,-3.9071085319324688,4.003286349337563,9.28037539890399,16.140798263512536,29.78635204085905,12.237953555737652,5.35519791794683,5.422652251940055,12.681142892430191,12.95416065578348,9.83332012303371,14.612545799833326,11.366767271207538
16.02659738948003,-4.60760939863702,2.854352538119716,8.685374063895258,14.909785437872497,27.919081736390208,13.960316700128782,1.0579211251173817,3.819328359980681,13.33069561176703,11.673188533136996,10.406967462930714,14.039280533666536,9.734808059930277
10.208688439185355,-2.6343074701441616,0.34408740218848,7.066493579430616,7.802274977969253,24.77146898287886,11.310073083252352,-1.5723460865672614,2.277145185674007,9.869196683217542,9.708728369937036,9.080382456015414,12.154525986397044,8.633777307375595
4.863051514300117,0.7542203199693893,0.999326268035502,5.401283214442298,2.1109312847393773,19.58588464675646,9.222463857034372,-0.0481365556368569,-0.348626775761193,8.240670391145233,9.332467149980438,7.675154860019902,10.450285367578594,7.328162450947252
-1.87528631655124,5.566762009527153,4.938939158881103,3.4970771724618293,-3.700084362659575,11.874726407365312,6.524351225350973,4.560982398985219,-4.181907294623593,7.485850195160418,10.601254997992774,5.184771205523898,8.897518585739762,6.218776878370282
-4.641782282142584,7.370445152356821,6.029721232933516,1.5986523120518574,-4.794265998634351,2.290764467937489,6.0906249214529415,8.787209219051729,-5.120267708876697,8.228224328405188,11.586519359371554,3.6524212439684502,7.918995097318104,6.165437645902761
-2.099376871125776,4.278148564238619,4.939411517517084,-0.1234835356513273,0.4636195829267883,-6.970059776184769,8.890612613145436,9.811472903703208,-3.5084277336761343,11.628573901307291,10.588874096347649,4.100481304472715,7.938745631897576,7.282031787815632
-2.218312446229794,0.7060807818138695,2.5073534709436367,-1.7694885726384275,3.237267739094359,-12.954593723498457,11.343608644166954,7.691437106112739,-1.385318332341508,14.297436518166329,8.062408534283072,3.8390835672293706,6.8036257683936405,8.172963301955297
-3.636180421212975,-3.6425169002920463,-2.5155643843930937,-3.192571098696517,4.836901829635659,-13.773214698172488,14.387004179142384,4.952809481248968,2.092427885365156,16.678870413745628,6.30026958188661,4.426706611382321,4.6511983830459736,9.019353524639032
-4.755972580673295,-5.9714601673826815,-3.951284606215733,-3.694886437588732,5.315022239188799,-10.125729931812009,14.769707339301036,4.149262652307105,3.4895406589902698,16.539507608695025,7.162622909792148,3.9542269903481215,3.0181783136273106,8.505456836975904
-6.812304589980872,-4.241468246417572,-1.6099505128148748,-3.141158832889833,3.0188535036937183,-5.069732744357097,11.731061684869823,5.688061137791863,2.346034020042974,13.004579096363246,10.0702604665699,1.0565982098024789,1.5562400523762367,6.212586613679354
-6.0360354076498846,-3.504194208863913,-0.8111985798875476,-3.5529776895514944,2.397589145358749,-1.9692925772904035,8.00220262670122,7.72853845504698,1.8143743767344065,7.2345949526617295,12.252104939682592,-1.119360837239033,1.3252962576783602,4.139799443000994
-2.232336039708381,-3.2854957230868758,-0.317364936184526,-4.858613818600721,3.041568035471923,-2.2636843212499684,2.5608459118072986,7.962792843718381,0.7324752496238738,-1.7564602296112184,11.079575537339874,-4.463814358094707,2.673522014224342,1.8930255732666363
0.2239286442763665,-2.253354972409657,-0.217436270597423,-5.001549125761186,1.6408770166286155,-4.905268344176815,-0.0832235152443068,5.527400554852353,-0.4342677899124896,-6.760157264501211,6.350799792055211,-6.089195188850507,2.4346754521069296,0.8001067284686743
1.9949037349906535,-1.680570369289578,-1.2993686625312717,-4.290502721378736,-1.2058029673165849,-7.730377184449072,0.6828870242819747,1.4795995689517625,-0.2341081497618042,-7.311322078275923,0.4747001498549963,-3.442407160143508,0.76295836380682,1.3149150634869935
4.15636885133996,0.6197245397393293,0.8728625823905071,-0.8959234689512726,-2.9479227228676392,-9.278044237721376,1.0293082468172885,-2.2541089442462887,-1.6304711631746966,-6.496947459759935,-3.51730117064208,-1.1324657396358535,-1.4746738471909016,2.579484361411507
5.9774813021104025,4.698477003368625,6.338417682313085,5.775071423278537,-3.9295573291635497,-9.449273029040905,2.130410212352055,-4.291728709733595,-3.4887456475328227,-2.391173307467856,-4.276536874548304,3.067482888174547,-4.973898025880339,5.119006126725108
7.531992935677316,6.072839925952094,8.63909546703595,8.627916614599107,-2.9962183093512547,-8.842088177872714,2.653871350162368,-4.407644897720978,-2.0393390691920503,0.4754215338908045,-2.7938347085462887,6.521528869198296,-5.583804290126466,6.5216223016053325
8.74313965652386,4.484306177992697,8.34158135088402,7.769917296360435,0.5182591212574377,-7.885702830128423,2.085348872987449,-3.152296808692155,0.781958422001561,1.889649145803159,-1.085757059621299,5.338693732602082,-3.023422358595978,6.6186274251967845
8.938653351297223,2.855173238479489,6.3927679981967165,5.720208060889285,1.3518041840186372,-6.701956844338049,2.237537797201481,-1.1636615877857768,3.059927709627416,3.762042700256151,-0.3222197985680335,5.216713968615927,-1.2270159985106528,5.470248806029877
7.99264129207482,0.0399721807758396,1.4020752767412905,0.8348636000853239,-0.3490017960258726,-5.472974705766678,2.683666114699818,1.125160523502755,5.626587388353873,4.9843638169707285,-0.0669713150824709,4.605329947998169,0.69400810564415,2.333532267549613
6.953448689803206,-1.9143664745047264,-0.637110255028348,-0.602746294414125,-1.494817591350556,-4.528232523750127,1.8743577885866052,3.3172765667486743,4.484882375096538,3.873141314852921,0.9237148436371444,2.5755616317782826,1.0033569721467843,0.5890359610754071
5.664921859392657,-1.519367860608999,0.3909197951023039,1.8286965627333085,-3.130658671796044,-3.97972114678776,-0.1080409914885767,4.87765597585733,-0.068651686497225,0.1495758179853663,3.293356486744967,2.825676417920901,-1.0624571589110634,0.1701419659298002
4.797820801293268,-2.1832407557218008,0.666844115562973,3.3320733898798105,-2.2922307902494574,-3.537787796723517,-1.6615933633920488,5.308613815742642,-0.9974896663904178,-3.679169964259113,6.34009589425543,2.100708972933874,-0.3513911603173996,1.0753802111802269
4.620644820484992,-2.854759836247456,1.4821157981787507,5.342245143397413,1.6036088088513447,-2.9622574797418046,-3.0290411571432965,4.525215524454755,-2.375600696810157,-8.037627624366952,8.415228668329892,-0.2919500554189029,2.7848565786361683,4.181471502539702
4.496259568601469,-1.6734350208495723,1.5087141902423584,6.647087259079853,3.275217700281435,-2.648920548595949,-3.55404451175698,2.995043797629597,-3.583176854104773,-10.034732939565115,7.985774577209119,-0.4856897201524944,3.8504355244991615,5.414424478795618
4.693340888033519,0.0410255187133461,0.2796061824712134,6.612841894574468,3.295645764516166,-3.430315347215988,-2.853980676244721,1.4541430183993374,-1.8727830162836103,-8.924004109759197,4.571208839115323,-0.4865482601107004,3.5932365011698293,4.85144281031499
3.85691554321134,1.6293627646850568,-0.0380408179348392,8.398073460216851,2.9770680190623846,-5.498886253894922,-2.9067787081516334,0.4691445359857518,-4.098564145012897,-8.440634029479662,-0.9140418131637612,-1.1569994738439324,1.5406707110874909,3.222052480363388
1.8342336203372829,3.649562390598503,0.1990630711803352,11.69216210676881,1.325458239681059,-7.567862771511246,-3.524715699387418,0.2339016599422247,-4.722807010544793,-7.751252771488983,-6.473083287545974,0.2720938971787776,-3.20768205589044,-0.4580080378945008
1.176227634673107,3.432139143415793,0.0507463999032776,12.595918751725572,0.9027715290659352,-7.468369551331005,-3.6746891897045217,0.6563064877139153,-1.6655263116418642,-6.598892625374712,-9.87366546599162,0.2653263886212078,-4.2564035125463775,-2.02683426807248
1.6903206533179485,1.0553287212861964,-0.1962904896733094,11.388405376714523,1.8005221802439837,-4.007416204525472,-3.680969945601244,1.4675936761655803,0.1517629515506208,-5.496067961427902,-9.771581729112537,-1.006185477731935,-1.559012464175592,-1.409036829335948
2.0892480171057533,0.2035986922759408,-0.6854362748500552,8.356022371371434,0.5649641637827305,1.5719614048257524,-3.373659531081516,2.195273535386689,3.471735632602365,-4.143420752982824,-6.579003350095115,-0.5884298559063187,0.291365576535083,-0.1652420614939855
2.8397873405889382,-1.3360401730195408,-1.54828365259317,2.578478493867199,-2.433701818919357,6.132220861294025,-2.621548612177948,2.213535899270473,4.714215023134366,-2.691966438528308,-2.3977261465627784,-1.7546005004908414,2.602464290368887,2.710027460273741
2.188604395480654,-2.3170565610606806,-1.893654233918908,-0.7022179482460463,-4.983538986568072,7.037049215816234,-2.770338884470352,1.1307179936370462,2.189071803863478,-2.702374379383433,0.2324117365889311,-2.643103859555901,2.6678751042304403,3.464931519014322
-0.148794818867122,-1.4439501436001412,-1.731935397575156,-1.3781320759525384,-7.611110980346641,4.413874195313648,-3.850932387435684,-0.6974395988424267,0.7297125906817077,-4.360950979422931,0.0703779400473179,-2.1781923059917845,-0.3324479725842639,1.852089353681745
-1.4915643840971609,-2.905280792273534,-1.8719419093856184,-2.2240295612521988,-8.075470830656908,1.1990774302731673,-4.560137950969525,-2.158396189090689,0.9048840988222926,-4.734110762659893,-1.9493273063990928,-3.3027322406274457,-1.7778628939011814,-0.1081210400840747
-2.196768398848532,-3.978351179849641,-2.1587184583673475,-2.0346783092382017,-5.808272828759614,0.7666982875036759,-5.153191140646871,-2.200131361267637,2.772557246576452,-4.071234029299141,-3.5685795620485963,-3.611054828908389,-2.3600883068283838,-3.355851017694102
-1.6582533314684162,-3.048636664146368,-2.0110241374231457,-2.0509211647334524,-4.028093401366974,4.135028318500271,-5.385503912401696,-0.8995101915105588,4.637268993759099,-4.038610483006054,-3.21950091766897,-3.323486629764906,-3.1362307889672416,-4.807556312366143
0.7222493812447474,-1.7402705576002115,-1.5081956231195022,-2.4871063677022525,-2.137187845663297,9.194869997408473,-5.013039264080068,0.3047950579688416,3.5576805534185527,-4.134992307861279,-1.4879501075690618,-3.971851093902221,-3.3501540581610683,-4.126230282931052
3.737700792555188,1.5807585292367456,-0.0466147972643403,-1.4117372661309304,-0.8137461762538405,12.616148978755202,-4.993196611417134,-0.3138383396308857,-0.0124909517665284,-5.078228152237373,-0.6483814275084114,-3.8048208897666456,-4.077560892381004,-3.0792774130884526
7.758814676160985,5.199429010050049,2.560904208817877,0.9588403207670618,-0.6640864985905166,12.674434645431958,-5.22841647749051,-3.200673653001957,-4.245713957832234,-7.135587178396124,-2.580121104409372,-3.550634639747664,-5.326511927007293,-0.8340001657986029
9.133677474235803,5.721173943089389,3.2146043101767905,1.1895882365768449,-0.0690320522814549,10.455871428255634,-4.271273954243826,-6.900062358713324,-5.700894137881648,-6.920765300727137,-6.903204955132958,-3.900190357078976,-4.572266579350642,-0.1025090880006596
7.386484388915663,3.678586785594772,1.867988681693418,-0.6640767303580936,0.629382564468285,8.496758924142778,-2.1746922798669344,-9.05900881276024,-3.842689892129187,-4.416105733619857,-11.049490969931687,-4.166609948359573,-1.8267523474409768,-1.1697216225779157
3.5461777842609408,0.9451823595318564,-0.2696427897650513,-4.675024220573153,0.7526070982831783,8.35163293693877,-0.364414805369639,-8.229737809021138,-2.6224481797751005,-3.7467805304073223,-12.249780015257093,-4.1713219788087486,-0.7762042820129751,-3.466039020550938
-3.560867633393551,-2.2367997132883586,-3.961934846857423,-11.793437673102092,0.4623933632701089,9.4747599983021,1.3934519351073693,-4.900624655097356,-3.1601718014709577,-4.388968369254904,-9.676429088289554,-4.408783257140209,-1.0984413084570006,-7.818410832420885
-7.401215437043866,-3.62067454428944,-5.041519929347767,-14.85489015543695,-0.5011254149294405,10.308685623821075,1.6200005239345494,-0.9255063104680944,-4.347706841452549,-4.029458313362528,-4.891971302769475,-4.667230666122908,-2.1210253141565114,-9.808154922526992
-7.704752992702613,-2.3763615806615443,-3.177622002366849,-13.681765419877088,-2.278672045374479,10.18203975244544,-0.1062891828661822,2.005290106610067,-4.643305927161017,-3.2886653324286392,-0.3658100238544506,-3.240747726337964,-4.626396242713241,-9.30528604543583
-6.246338372483046,-0.8406088844994141,-1.3296426046442755,-10.459032113307211,-2.384277666675852,9.907587048353848,-0.0620874144524714,3.4361544149760634,-0.4764201312086508,1.7016333076823902,2.443848019328744,-1.9248627419771696,-3.029902955915912,-6.5236966683553534
-1.2744259332081125,1.059597039027464,1.521255184257408,-3.34269187777027,-0.7078298830391658,10.52504047977401,1.4910242525711757,3.943971164613546,7.677323881417284,11.65925252868229,3.730446941463967,-0.9818295312598276,3.000637254966252,-0.2088272703940097
0.8607432261873619,2.314949553654541,1.8206721830048975,-1.530726852394639,-0.954236449595401,11.719653278561244,0.7336762521937794,4.11515177226168,12.082510052819345,14.79523762744609,4.39314446580936,0.8026241629192186,5.653505649537773,1.7859897599254184
0.0186532370931159,1.457952296445233,-1.0317680708733834,-5.523433706185403,-2.7506219942549346,11.79882929986558,-1.850572741260784,3.829644614714705,9.466361065101625,11.362935566933563,4.734560210661089,-0.7140840072992951,5.845902350692832,-0.6861519459122594
-1.994128484457699,-0.3467081732114291,-3.708222646166413,-9.989797929993458,-6.924774373790305,9.371918293786784,-6.77892185531346,2.501610541513571,3.033017071172994,4.7389488424716175,4.206150269672787,-3.4414584535153896,2.333599465439133,-5.325352816630379
-6.773956569455359,-2.359606653912204,-7.159545444407983,-17.163801436382446,-14.384269633300436,4.972965711789616,-14.913082884304268,-0.1017903528077912,-6.033339982701964,-7.861229548404421,2.355434237130656,-4.643144506994365,-6.666109625158292,-14.125665190276758
-7.610945574181228,-3.3140614571226017,-7.864200962453818,-18.16491853812824,-15.62757872793287,0.8647549501915055,-16.964067719288693,-3.368939158571478,-10.32709253635618,-12.612504853280669,-0.1809376117864349,-6.281051392032959,-8.93773220455104,-15.951691142096337
-4.224186950969535,-1.932644841570486,-5.095389576608206,-11.879586069890808,-10.409552787935128,-0.866017439235236,-12.59016204368228,-6.171986612430437,-5.597017854444521,-8.720349717437443,-1.8376626112796397,-3.901275974417723,-4.547753400190278,-10.15561580945682
-0.1346373657235832,0.4535515662969381,-2.0391876565976235,-6.197011881164901,-4.317339850161612,-0.0859262756836862,-8.788614142948415,-7.668077667336351,-0.4797446069432559,-5.416934250913879,-1.4215737320980493,1.1685017419969836,0.8686045720082118,-3.1284857148237446
6.265767469602139,2.617542654572896,2.3358554659878226,1.0961728465868037,4.839450481480467,1.368004701849502,-3.5166608894695397,-7.819808310710577,3.762563216558719,0.5537121902096789,0.6688698613408279,4.645398694028726,10.040698313320329,7.875703651971941
8.237784829666687,3.3462865017689203,4.682024919427229,4.394604279770598,8.58912783906152,1.2643911664908902,-2.1969558848114934,-7.2400010991163795,5.603524250117355,2.1496042836103566,2.5336224756105663,7.466343495649307,12.037897477435418,12.171096707152186
5.029331036460055,1.9735879551715496,4.381994065650996,2.220114984468182,5.751706822391862,-1.456949352881546,-6.171262439076675,-6.628791871527139,1.7163670856158126,-2.0523615679250296,2.213752902157215,6.825637567416401,5.706673198406437,8.459525665068977
2.517241417304755,0.219586968351958,3.651935052130149,1.8717154168212304,4.311373008201545,-6.413322938248246,-7.270020031271456,-6.349823265195677,-1.52260336500119,-4.876307060796783,-0.7079321877362852,3.869871009392408,0.5717263925978321,5.73414922101875
-0.9404839231508288,-1.0933487152348529,1.4755046521574289,1.7858468291767726,2.1394203353405974,-12.585455864523649,-6.8459392682873625,-6.403153938661381,-2.802628448258796,-8.222411178221465,-4.696980821451212,1.6816447269152228,-5.987511535887459,1.3066767593233752
-2.739224589075913,-1.6012309657147938,0.231861656840148,1.478851277373231,1.072168220738945,-19.030722029175703,-5.839014706845268,-6.610468747407187,-3.1533706227595637,-9.130435873568397,-7.375536656505379,-0.2040840200796141,-7.812086263481005,-0.3728444738841547
-1.9321297848264365,-1.025613348684993,0.1800033383281746,1.9902910907937903,2.27172490361628,-24.83694827671197,-2.8857329161863565,-6.739257576128984,-1.2990337339063809,-6.4303537241301685,-7.222964664563041,-0.3042581196344716,-3.1417854841347754,2.085397237524729
-2.2354602855951824,-0.1205972709783811,1.3101955288329068,1.6495612839643492,3.891426067061062,-28.809741801296493,-0.3956935822315726,-6.547084870738733,0.8153735113107587,-3.047356613147798,-4.5339428542239,0.0636723473951469,-0.4778647344846196,2.884228876440636
-2.83603900168633,0.5709884429752251,4.390313266374297,0.6698969000837166,6.821579715484246,-29.74614404022801,1.8346216861833045,-5.90393320850233,2.334575430698895,2.1284016503301637,-1.0027328579556194,-0.6551088922900061,1.9170265929985408,3.3452186096191205
-4.154754778986364,0.7355807557631067,4.579707124155548,0.4263529744141849,8.245628998665978,-27.311374501727435,3.5322620533902587,-4.981810374375435,2.827568916876011,4.598706474215175,1.5694432080844989,-0.7300704880053153,2.3605769626718542,1.7371027979441305
-6.770879501309939,0.1709587075962702,1.827247493728959,0.7609028823436118,7.916466519249633,-22.55888789413469,4.171467253730153,-4.242414754869117,1.8694917640093147,3.7661481696199286,2.36191190404796,-1.7605908716474503,-0.6351418944010947,-2.928126641507556
-9.944769945295198,-1.0348847895506488,-3.0344517577522376,-0.3440016628238098,3.504602094365323,-17.28340659015298,3.362964305123223,-4.046987005575981,0.3488876094481695,1.372036804470212,1.700204862687446,-3.490474770520417,-2.795867933071075,-8.09514345875868
-14.01142358307964,-2.175378814718382,-11.27246887493658,-2.790322184623099,-6.120428733929893,-12.623082933435388,0.6995612366673037,-4.166031209868921,-1.4706997409276443,-3.956869659201317,0.4488658489369228,-3.702659632703561,-4.922625742179213,-14.489652513640014
-16.828057901101165,-2.279500084933976,-14.47102970210754,-4.281190571296811,-9.540237001119332,-8.281238506181545,-0.5206231389392229,-3.7508325498936097,-2.162764188968969,-4.257374489560327,-0.6614467757386633,-4.475603858995751,-5.756505953183306,-16.95864915884092
-18.18417571307164,-1.1805588811775112,-12.255150352890308,-5.0979387474352285,-6.889589542022086,-3.251994559519133,-0.3238113060230116,-1.9824173654801431,-0.8335974639889872,0.968347312816334,-1.2455989453407468,-4.31284817392948,-4.493285896439512,-14.71369820795773
-19.999302783238736,0.3699684266966055,-9.573160228953483,-5.355418996437336,-0.1921907579208348,2.6154190539198705,0.372181839857805,1.1088562416149972,0.5815562509449566,8.024868579343085,-1.0987077316147005,-2.1413932810871774,-2.850528038651497,-12.475324236710383
-21.76482018618618,1.9575231608347043,-4.416212205226143,-4.576584046514742,13.420339467228194,7.872631383126308,2.3650966694979663,4.480754254358272,1.8595275614258835,18.988121793630768,-0.1082558343299728,-1.1410044261537289,-0.2297756600421208,-8.86649872906035
-23.8384941906747,2.8402028601102565,-3.5078826566028525,-5.249520839807947,16.8744319687881,10.48605087133417,4.02097488698051,6.854305502191023,1.8638049425975944,21.54892585577841,1.5316567020630485,-1.1493246630502554,-0.4458874851183145,-9.283849369025098
-26.496264085907683,2.63916581924397,-7.766449671950861,-7.403440474206254,9.47428583708994,9.739394909749024,5.36773897058455,7.767477525677053,-0.4201520418720502,14.609713839594985,3.093565699682504,-2.20818853360763,-3.995399324287961,-14.7864447444653
-27.647045118264572,2.2684451328631443,-11.748360495775476,-9.32860213355132,0.4272410912878898,7.107884932796804,7.573944342803537,7.893598904691436,-2.3735542993443954,7.218131648813231,3.540689642984239,-5.144242986561805,-7.468669007588605,-19.71977175146445
-27.31001725435482,1.7569260383971304,-17.21216544604798,-11.542229671828512,-14.37702548887749,5.077445605094944,10.353783391389124,8.292834930929569,-3.908790570300216,-3.680641980747748,2.242040547275919,-8.318774079987481,-11.841364726022888,-25.557505901587312
-26.23617633643924,0.835107254168763,-18.335813406791683,-12.426534010450146,-19.31503720711885,4.909348412434705,12.794064066764186,9.336501317492065,-3.6372928822008017,-6.870556569618633,-0.3756843836609675,-7.96519640810759,-12.491316028498106,-25.05047995727636
-23.93941408341916,0.5068472734776062,-14.037033940102454,-11.631342406987528,-12.570079516357888,5.490266120719088,14.967124006962573,10.403729992552435,-1.0419648407042947,-0.4498860017903492,-2.897448398554665,-4.657114598332526,-8.564845082884402,-16.754307131820234
-22.073703059600565,-0.0037273235867883,-8.662558473948744,-11.152560228789444,-7.685766744150639,4.449366442257546,16.722151819211078,10.66602180349783,0.9361236008528144,3.5519262064301858,-3.791399292795859,-0.5895146906818886,-6.415723738533574,-7.50458399065297
-20.743758965231866,-1.0998532995272834,-0.4889854106798025,-10.565535535627266,-0.8230426691098487,0.5477710332035022,17.81536825245057,10.119896516359583,3.155107594672636,7.989509478649539,-2.4362951066518512,6.399616586311102,-4.958348325405518,4.786181714678133
-17.643298417001475,-1.6589594080867798,4.041243850939494,-9.50753084475607,1.4244994679492915,-4.917754298922269,16.78959698674867,9.70583356446449,3.5118361798789297,9.121103368903102,0.4978131517857393,8.96843966246385,-3.241862612465136,10.420573444931694
-13.036622745627504,-2.730297128308509,4.077414988231333,-8.24322943665585,-3.150891818076248,-9.054427042677624,13.316802788139777,10.262898385727029,1.388305311467478,4.900040664653268,3.555954658500206,5.735807385025631,-2.293697662249423,7.738435089484758
-6.562194365018932,-4.865706161905965,4.806462859717446,-5.447004986954563,-3.5890088245783063,-9.813906501285148,9.38462855131425,11.335421272648968,1.264952775585502,3.234728902156601,5.412691506789921,3.817189084876288,1.866964895119388,6.93024317591959
2.3090991115935062,-6.847705171146544,4.547750959372865,-1.011999113804604,-1.695312909952985,-7.703033513800182,4.590281095439448,11.16150920946841,0.8775613021786944,2.8527788790990103,5.514248502677801,-2.120360519557545,9.380775711333902,5.471693156482348
8.608157339689113,-6.719307790640786,6.011421444906757,3.1100193789857604,0.8377509360529782,-5.241820550410663,2.038248017891331,8.110387616531966,0.4880969741099198,3.198611393215076,4.16595753715044,-4.692715388375156,12.50432463025032,6.645907752697272
12.214612206565038,-4.2523095607301,9.93493435894517,7.139071721579074,5.781624646740115,-4.717002010962105,2.361264758286947,2.370896270738207,1.5654749919526194,5.615377718271616,2.258662078903779,0.4161303372458982,11.591083515924698,12.135590119262918
16.747198967880536,0.718029774724958,12.518076386602337,11.0203922786746,8.832942169534293,-6.246530398082895,1.4903980787811404,-3.724631585606872,-0.6644708501192358,7.165527119113344,0.902003884453558,2.9393913802899654,9.935007736957909,15.094856054232563
21.13908616083981,7.270282938823536,14.47380721711828,14.330814125069248,10.000882703822326,-7.769122941582711,0.2207076911507999,-7.222895234565524,-3.176106725175174,8.09823579784695,0.9980207707953532,8.727794436642789,5.909365952267975,16.584320273701245
25.26926804014521,9.508305953882324,15.245084572957127,17.074484896490617,10.85530763568533,-6.821736359782565,-0.5220912295424105,-6.727404492034548,-3.104134987762288,7.994547238577256,2.722318064244879,12.823522249557756,3.8256382817216537,17.623612875678344
29.52721043462505,7.261374411478719,14.14826435880222,19.005231806614024,10.436419464537668,-2.526094236981669,-1.3024525487011382,-3.401895306544916,-2.4046074774711146,6.190561517386956,5.16066031635177,9.133304955092534,4.140823006426608,17.078111636476894
32.45346272241816,5.522895856542252,13.464083862933595,21.241744151011726,10.210991918138806,3.758288139703685,-1.4307280197216732,0.0125384393913714,0.3121950171984344,4.620573664308545,6.58612857140902,7.871772572887289,2.693152305176998,16.227313429644315
34.03688173557201,3.592351056057342,12.913812697284548,23.74046849190808,10.223736003405582,9.41379244677033,-0.8614038948777176,1.270998848417869,2.407731133212032,2.998885708658727,5.541680644169057,4.55818204482276,0.4504458954213539,14.890840985175773
34.72293901781227,2.228339170824297,12.264021228410153,23.825751673676745,8.343377137548394,12.243039225336728,-1.9503718880847407,0.0668667362408719,1.4721265908548062,1.017223918752771,2.108657088956491,1.1156366940437614,0.1848225464751658,13.581583444521296
34.15932825285238,1.5240318406879323,11.940549159283332,21.50007654034649,4.743664813797194,11.62534196288911,-4.746525670681471,-2.1605633059524365,-0.3455319878591729,-1.006600045160989,-1.736777329907632,3.659665458348699,1.586266302448031,12.55646553047759
31.84754735876155,-1.858853714783557,11.131945023005734,18.34776374375492,0.1430607345003785,8.562122696854976,-6.347542686177577,-3.609010353986872,-1.485160404893764,-4.134839773178204,-3.2753460277609427,4.198662361921483,2.44753529753271,12.19701689906997
27.65989992920039,-7.312337803532609,9.9192017435046,13.780151679404131,-5.881655303538476,4.858687411847546,-7.1418568970605625,-3.427045440082046,-0.3632304299598065,-8.395261632068049,-1.0462900108033857,5.01140649779608,3.187374310429396,12.824730393835068
24.17472465748465,-9.54092777083525,8.61155003847752,11.478616410644708,-7.776546871152945,2.118424495145547,-6.131286859057032,-2.0698506761108284,2.2230233584703365,-9.517852530173268,3.865021674764472,6.594028825608997,3.333575673639196,13.093201667141344
21.42843097824869,-7.101755691346527,7.078797902762199,11.931243488798373,-5.001625321054572,1.1245596626900909,-2.622089281527005,-0.729937164319665,3.4858222902104994,-7.362522612910237,8.432411487106373,3.913089652984346,2.4424465234303785,13.16612874763363
16.795742489294184,-3.779188389895569,3.5146822831281583,9.54537125977633,-2.379720041631052,1.805593878739577,-0.3459099372073048,-0.4312418185109798,2.2101360111253165,-4.2047595973595016,9.856482051220622,1.7586514856875657,4.306284046668414,11.629569017421046
10.745158094130206,1.1946783222319377,-2.250433249775335,5.030124276575637,1.4404399269246038,3.604760494771819,0.9711689134589164,-1.3231363892708998,-1.6291632898238313,0.9985818013566068,7.599518104248489,0.044326642604022,8.949079228787093,8.068150929503501
6.7998765223176765,4.289968005739802,-5.152535337574806,2.4677030151659567,3.1738660104267296,5.894841796488116,1.600716321487709,-2.477477968318553,-5.0602059682196,2.491554897590358,3.622639828474542,-1.898431389837636,9.908155955790152,5.252450500771676
4.854412936810767,3.348355720998664,-5.280197710362988,1.135125199467755,1.9240042367959516,8.164223246967046,0.7112166493701999,-2.3707138330534328,-4.8360460457386445,-0.3557341995077088,0.6410225052599339,-0.5319185219181597,7.576206531383613,2.8413334674863098
5.798732863146417,2.189881614061338,-2.967109527649857,2.429423832813024,1.3955196299208286,9.9767816946858,2.316610749595264,-1.953973519164265e-05,-1.5821947332798327,-3.6766911451435274,-0.1090730541946971,1.5500523310907564,3.827836579535158,1.6996426654472063
10.674918038395546,0.564789679426118,3.1157103017940413,7.260695114141396,0.5983504493829481,10.939048355534464,6.444658029916622,3.978698710372371,2.981953312610755,-9.000484342569592,0.3072912573809585,3.4804041959744927,-2.733231228715125,2.480529281389221
12.39389311889379,-0.3123081670654685,5.402241955717725,8.131170183224077,-0.4168216666717484,10.862191730318898,7.391035814380737,7.14361426612498,5.703979024000167,-9.449109242260032,-0.2356232106469233,5.086251446892937,-3.868614541451474,3.323721033213208
11.065295176285984,0.5537968539012907,3.773912739295387,5.147089845887639,-1.2106556412348433,10.013517687061318,5.673027455335508,6.814601824920092,3.953717183264613,-4.130222894153334,-2.7687583483756555,4.673985143587763,1.0176646939620886,4.637350816667473
7.740636803465865,1.543833483290905,2.2171338650461143,1.616492874043734,-1.301641780372657,9.13772740633139,1.0152507820708472,2.353671765082451,-0.6723512392361376,2.91009155343774,-6.089894422650816,3.883136126159888,4.472122635306241,5.822940730204837
0.6484625593726113,1.6074920529457897,-0.9883100080697867,-4.12255168552785,-0.4209616760759226,9.0659664602511,-7.915744554362024,-3.694511004366357,-5.370408196454747,13.624855106154794,-7.667583886354375,3.0613193578753304,8.31604406268046,6.559460861704396
-2.506218485891491,0.3578613901421552,-2.2613111667212364,-6.207845036998066,0.0783900738297839,10.126770822732736,-10.844389251226804,-7.041988427478817,-7.414306841009062,16.520067829086166,-5.837200751258344,2.0405252113100736,8.122630760823165,6.279136682896869
-1.6403975865532778,-1.4804729185402783,-1.100683853538275,-4.050265563631965,0.3658502962148375,11.82989949894914,-7.527028849045085,-4.948812781676016,-5.5449382921614045,10.43167643848081,-1.4346923146641526,0.6850542931948144,2.4099225554632544,4.591192568000683
1.2303640903255948,-2.16157338814558,-0.9810569103314564,-1.0294515343393986,0.2047139599520577,13.12537984368079,-3.739569439091749,1.2884263320823963,-0.822374384301797,3.2416521719663134,2.527326857798135,-1.430447480460354,-0.5186598911489786,3.098548946414472
8.027526461140923,-0.9779964280817772,-1.0480225014306044,4.411999326297219,-0.7002157880513205,13.09297311340502,2.8858081900972974,7.014034545354584,3.626716412928738,-8.039533918240597,2.9686672782188293,-3.896393865222735,-1.8126237818645816,1.5691627342609205
10.077111727391674,1.314903173626505,-0.8288169753068039,6.117157460341344,-1.4104283399489477,11.5841713902801,5.436718547051592,7.840512130025246,5.968442765734284,-12.181841941386857,-0.9154270510760892,-4.553380245358692,-1.4022507768719927,0.6959331114103864
7.020145375872319,2.848612562098755,-0.7398779700008816,3.4188342465028603,-2.0563392849625526,9.383455112770076,2.941811485009019,3.316767253557924,6.352590665656451,-7.575172039838623,-6.8053802688014216,-2.120217990128,2.326927621880164,0.8498602543254983
4.75211323033626,1.5465942858558068,0.6959806953889441,-0.158684495882389,-3.73117910779426,7.782930959030651,2.4954296044427795,-2.5526292638836825,5.053120172082608,-4.488914932086925,-10.577257279619486,1.4012394470941416,3.981021142731685,1.6560487684161092
1.328405763913471,-1.021392633783819,3.565324227505691,-6.289986141797089,-6.371961852218617,7.815913024523812,2.4421794344190646,-4.552484975975656,5.563300148327661,-0.0466696402919963,-8.986561373854963,6.444696377461344,3.892308234724032,3.4713511008904776
-0.0399791210780045,-2.770197542615692,4.174794524826212,-9.022271821521976,-7.1194615219241895,9.585673786555429,2.1188469906181577,-0.6205427438262348,5.6630068870890415,1.1734671082778043,-1.9573145832381496,8.575737297318518,3.661759178881818,4.469582210249688
1.5069553721020112,-2.54634610739976,2.589142084365164,-7.739182311318532,-5.956358440960136,12.105559542305093,2.4599923850914056,6.362295847598018,3.2470182568657213,-2.468145837465599,7.120115727765588,5.414413105957686,2.203683125145325,4.578114495197929
0.2363817499838713,0.901381526404616,-0.3601055320637839,-6.112539232913583,-4.155262902245844,13.83468137016751,0.3860389255189883,10.888029868803804,1.031220457573187,-4.949911133653033,13.44099389719944,2.443661158710212,1.2264024090091972,2.2643132913655104
-3.1393152217245928,4.208731646333366,-5.583303120941783,-2.5746282169971666,-1.031705160612246,13.67843822757535,-4.1493242735914935,9.27102983296824,-5.537705494687764,-7.740077515402549,13.923061767988004,-2.8330304754302675,0.751285832020222,-3.1672592962701938
-5.197141379653307,4.1580790384947806,-7.53546787225203,-1.147597900381751,0.7926974508635932,11.815410057746629,-6.51982512944529,2.4835585850182564,-10.803047392807446,-9.641003161365516,9.248392118671166,-6.127866769702304,-0.1051456497464407,-6.442264485838507
-6.748314243617126,1.16743461645373,-5.928634040832566,-2.353792694871681,1.0820035265111638,9.657767749769857,-7.097243672832033,-4.877261453303799,-9.699424235352884,-9.751751556192737,3.2638328637579974,-3.066699800336332,-0.991997775068628,-7.848043659208276
-7.444444923186143,-3.879171181119692,-4.019632915664672,-3.7629662549993226,2.0960685694822243,8.769125448883923,-7.2156467500259,-8.373942277410215,-9.8761292081785,-9.363392751922277,0.1231997202093673,-1.3495929907374316,-0.8737520766842939,-6.784310364966835
-6.718611790013243,-8.506170223366624,-0.4646618343785921,-6.479924614584926,3.2284424769574955,9.419859843393482,-5.927762026855389,-6.931140351487834,-6.640511361883106,-7.826303782803183,1.3445774796822365,1.717810048893546,0.3092645560329761,-1.9044528788577495
-6.619719994103821,-8.489305042223865,1.1729556166667814,-6.823205512420157,4.459079999122346,9.979199005819858,-5.368674923188508,-2.947517858461396,-1.00947670154244,-5.38460177915528,5.0538985400147,4.273028991381107,1.3846883201006508,-0.8794170853250751
-6.974843263291101,-3.872050959741967,0.3917947018387092,-4.385749495204942,6.06360756043595,7.92274317052733,-5.609514066178467,0.2779919180645365,0.7202222427580962,-2.0139186338216715,7.881649875855839,0.5537220246523689,2.5727275138077417,-3.575463819518936
-5.250928617685777,1.6472145328793413,0.5565975228233128,-1.0355442923862446,8.878891314398029,1.9716425473749268,-4.373051585173071,1.1915269941481093,4.457197321632515,1.103948713789378,7.788561835543611,-2.7225934101880034,1.542166889818971,-6.912759593230496
-1.6377414358916742,7.908447866709701,0.7891867562876836,4.24999051962919,13.114745800891887,-6.293090536135452,-2.0212755610887303,0.4924261752858641,8.75797167558312,3.822604473099149,5.449544609491856,-6.136309132306653,-2.147736047345157,-12.589578819380716
-0.8362225786955649,10.101076418315367,0.7541986190051594,6.057629352532546,15.024364409070127,-12.955678558370543,-0.8408585014477346,-0.3906971428181904,8.352639742086524,4.981660897111513,3.247793203028792,-8.875237261601228,-3.819307426629995,-13.582305751638222
-2.719403956058115,5.966696371128969,0.8377969035012985,3.9077066049250666,14.58936374928062,-14.51463893663612,-0.6375980977030407,-0.9416677042158595,6.231390854835,4.047531854276621,3.040909420622956,-6.381541987882169,-3.8867624428502654,-9.265800658194095
-6.725874125799028,1.9568419402855943,-0.0112717491948636,1.521573741031521,11.15159001890272,-10.959814307178782,-2.0879355528049306,-1.722836161308667,4.373935793204719,3.918891952326145,4.741560087274173,-3.155434919744261,-1.1612130405950811,-6.394502206696818
-14.05388201699878,-3.1763234701037044,-1.815517206025621,-2.463939587703238,3.590603898669668,-6.572086095561435,-5.809339486024205,-3.25761143915782,0.1549872521224815,4.25728812269906,6.769054094521657,0.5389077356481515,5.536388848966265,-3.413459925250919
-15.662512568634256,-6.319963560960723,-1.5394815240586246,-2.668010895025324,0.6804517513468691,-7.3085117133078015,-6.541667234719964,-5.093561220109045,-2.7343130741746537,4.567804806346824,7.668572582546382,3.172778977785903,8.170207595676512,-2.097076748413903
-11.14112320466436,-3.7341254429602033,0.8390808701406457,1.7084054511175648,2.499622978629118,-16.362864650221027,-4.276614908566452,-6.088557088060384,-2.303746344966308,5.395684344102727,7.299677477611461,2.958171774377099,6.900261765592666,-3.608608906366409
-6.319051853668494,-1.2528344381081753,3.914370594875472,5.186124665539874,5.535130830796078,-31.24386685622385,-1.101976039591492,-5.54109377669106,-2.9393189890988154,5.491841437657869,6.612629202732254,3.1955239688452632,3.992429188640633,-2.127852585956525
0.920867782274447,1.892446929188506,8.40549918337128,9.104769795824811,11.881788913797402,-44.84113781838544,4.220390518138341,-3.939622557915328,-2.139853238780871,4.884166356470106,6.412649888853135,2.605310117458644,-2.430503632420211,1.8542211338174712
2.459683097854764,4.0727490435555165,8.887887248992875,8.79030830374291,12.440307758481874,-49.94670472165021,5.547448458899726,-2.581091151340132,0.0939838011916162,5.160234345041374,6.379463764468767,2.217683619372286,-4.567565254610861,3.390912245308318
-2.9484241624342866,1.892517518033888,4.819673385432885,3.0242210943356875,6.486215893492629,-43.974263056872026,2.3673029945134645,-2.456730333699511,-0.010445249067339,6.173782311065719,5.283287805539388,2.049940501083045,-2.0429537754325238,3.273460154938047
-6.6788084278531805,-0.7118591512794084,0.3892842653003337,-1.64096991052922,0.6822984556440127,-30.445254543665364,0.2977754237878499,-3.4381537816798726,-1.1798527104668286,6.111889789123205,2.2057660112879702,-0.0531291434271938,0.3125070514834623,1.667036240212194
-10.7361412333181,-3.530618375779448,-5.770993045284893,-6.476309310983367,-7.156955564315406,-16.327958186476685,-2.042447431395653,-4.430272834873534,-2.8336199906183683,5.151503108830171,-2.356049301380768,-1.820478316507067,4.31956273214769,-2.371386963738623
-12.883265485237208,-4.783031001101857,-8.3467693562298,-8.655991801861088,-10.727678001796065,-7.411480431868306,-1.7350728465940168,-4.272434819027701,-3.876132384472808,4.082884248764514,-6.552654802841246,-3.144525167034534,5.056239204299821,-4.903489612014574
-11.669301645137478,-1.6904157641236328,-6.420164348019159,-6.830598559022,-8.790317172376051,-5.096050833418396,2.286049258666268,-2.595728426096421,-1.7927928675525244,2.572615232487318,-8.447808006920674,-4.128703667924636,1.715445054538902,-5.978967702776369
-13.128652163200035,1.1444604660543576,-5.743135686788281,-7.069705795842963,-8.537323316402125,-6.539075408958258,3.536975088821427,0.0153716736743803,2.109069186702817,2.978370375296959,-7.447220907843487,-3.9774446082874473,-0.6527254231409885,-8.186206959415957
-16.519128406654666,3.719666122294081,-4.9552210419908205,-8.49361043288584,-8.332883332062929,-7.451362873840143,2.714090877947936,2.5793995861466925,6.2106826756804905,5.582663424236284,-4.691798692713384,-4.103706144977959,-3.2867874562039745,-10.757730433273691
-16.81116849254183,4.787186335723133,-4.781609865237686,-9.290296001897689,-7.958405092544432,-5.163508757584033,3.013447660866408,4.456750693030834,7.055567213691303,6.218816517775287,-2.1290747375028296,-4.052992518893928,-4.759505458798272,-11.07630441107197
-14.691107524985624,1.7069859258859592,-6.093586242870054,-10.413397038285693,-8.420586623286631,0.0710345330712556,3.3899619389251567,5.672242133987428,3.0021893521496863,5.265619698177884,-1.102153204900734,-2.965070467502427,-4.249723861523191,-9.163753354121024
-11.518146728351766,-0.7358785927757927,-6.12876170298884,-10.767764265866132,-7.6289397807685,5.909719258719996,6.380455822572835,6.650240196032666,-1.6888828640795923,2.132628906974226,-1.5946748625653375,-1.5710619241581347,-5.435438201512369,-6.950995803700248
-6.3775132241258135,-3.328815696900975,-5.240726522871844,-10.235397895609706,-5.805826476408956,9.809388131377547,12.57928123014151,7.708791416643395,-7.037972746546606,-4.181633175252972,-2.5549698190409007,0.5967437817570809,-7.883194133698039,-3.8791770093116793
-3.78026904745501,-4.815202785651128,-4.2394507892312685,-9.882883239570615,-4.78559673454685,10.577642019013332,14.987161679705071,8.797596341324242,-8.785597889049138,-5.717260635850621,-2.8049239182481287,2.161824160190069,-7.996871808226163,-1.84127926455298
-4.082166814705061,-2.449002302145343,-2.674548928344369,-9.489126404035556,-4.343317355416865,8.839229162605351,13.88673167318614,9.639009258949406,-4.526426411641525,-2.374438266594903,-1.7798748786966456,2.444754439792521,-6.153874422406484,-1.2564979521480977
-1.6408792691408247,-0.470696337008358,-0.5306620480106096,-6.778651427710171,-1.715022599757243,6.464160653508388,12.266047693347426,10.01008810975013,0.107906045901934,2.335779015496793,0.2259138198701133,2.718244316272406,-2.364312064321648,1.6863248020775785
2.6971339202042706,2.446743590948839,2.2070080133816914,-1.68514334676153,2.986877721388017,5.430037426197412,8.656265886254738,9.83471695233175,6.660677605689336,10.297480658714306,2.2021436561368706,2.3610113119103366,4.18502636495758,6.634676344426335
5.362223928866284,4.606528230549157,3.5045394204760134,1.5138327380982508,4.939656674842674,6.686135686653606,6.297236494274267,9.052942000706365,9.743839800377073,12.327957865126772,2.835651132486448,2.0958574582387453,6.387111065388036,7.847434793821457
7.0718342132588266,2.9290388928367377,3.186047021753607,3.0647793941172337,4.369082879381674,9.570610894625869,5.536566599222257,7.518205390598949,5.21326680189437,7.575493075036968,1.1912294816365765,1.2935619186987968,3.954007162238968,5.58325241215415
5.932837589387237,1.4310832667723703,2.678063691157467,2.7602524302379963,1.7858974146387012,12.17664461654896,2.7969130790755434,5.10742766536204,0.6169437048274652,2.8698924802995798,-2.5514970388383365,-0.5636310939279564,0.5510039181698037,1.540578428222399
1.1184891609404832,-1.1548420289302157,1.4567982484914896,-0.4783257798679027,-3.98764632770734,12.584648923402696,-1.2497197008536889,1.942502091123535,-6.231213558933317,-4.062847936999474,-6.87750198147563,-2.2624216595952147,-5.566631106805592,-5.586197340542561
-0.109383038421812,-3.61424109341708,0.8297530242219988,-1.6461188899250263,-5.746402783885544,10.218175431409907,-3.3502807771885155,-1.5164198841303742,-10.22673340358509,-6.910861340150366,-9.68396397688566,-3.622403159041172,-8.040720470124636,-7.348461965318579
2.026706437269276,-3.008338634275027,1.0251633947866028,-0.8900178404085609,-3.2666748428945627,6.308141739258093,-3.774959570758657,-4.590311972420003,-5.176671170125351,-4.44320781338698,-9.66695826374838,-2.953024520705918,-6.196154399879183,-3.132506782620723
4.9667706022363145,-1.5206668042306168,0.4550656589261837,0.6874657803038772,-0.9240427280272,3.019053960001604,-3.159371860268735,-6.6037229169654665,-1.2228775300942298,-1.9989742041301568,-7.287191249634827,-1.1711928473805289,-3.5983101089832186,0.8326340293503066
10.321020954689146,0.9542401260990012,-0.5708536868648915,4.244492332425895,2.927253685159951,1.8845144881006772,-0.7788814957594375,-7.096796714656943,3.947954693437435,2.24168528535547,-4.441232708406055,0.3073660168751817,1.4755680806393954,6.567581897252341
10.24402520034681,2.840641579725139,-1.7085276213344227,4.986464979474618,4.392999861037024,2.8378891137689664,0.1894962018647417,-6.0240648399334376,8.403401448113499,3.4949861018710155,-3.0412146720380875,0.8303595775146627,2.6986230086446588,6.615606961738291
4.117683285417743,2.2252604289369624,-3.181215234104892,2.764134715545411,2.7928994260085225,4.604780955960273,-0.3588383984937385,-3.913364868066047,5.166059617160725,0.8641967180744894,-3.676146058119468,-1.6213196667444727,-0.5677063894944387,-0.3588760284252434
-2.8035901445841094,0.7296338970608272,-4.98059200396051,-0.1352567833069137,1.4830354294981418,5.965988581944252,-0.635387874029288,-1.8144325580290896,2.67965423387162,-3.198502737242732,-5.444080480705228,-5.149227101235467,-5.273383922109165,-7.720780858431298
-12.459894236080473,-0.67045878605012,-7.122295680705991,-4.854139731013123,-0.5966798785445435,6.62058152855322,-1.3742836104973628,-0.8838901814172289,-0.1746621375463498,-10.211406063480684,-6.992580967946992,-8.800926360791976,-13.165583371191437,-17.549296120479855
-16.100608511965852,-1.085095189431935,-8.446731274086492,-6.872485759312496,-2.1765515323445106,6.884584825891675,-2.467409404333821,-1.7566042359835592,-3.5634872231171197,-13.382734545200524,-7.764413415296765,-11.1499312974118,-15.623080196491868,-20.4117619027118
-12.484853374218208,0.255479630422623,-8.851391624847523,-5.74136292418461,-2.8196131881099507,6.737065628312784,-3.825053012519358,-4.144757458510718,-2.2701821843508005,-12.232169196298509,-8.337288502820229,-9.939698736609522,-11.928070384694072,-14.721823519077171
-10.028014987934323,0.7106113278932882,-9.0023519931252,-6.287042750238652,-3.978919529972948,5.429742407394549,-5.172769141231657,-7.0069408600361385,-1.0575057536483543,-10.1380656052393,-9.607612366212903,-7.9807023052841854,-7.807471927117706,-9.215088886803194
-6.521222451136335,-0.4377720102187767,-8.584889208926112,-7.533879588224232,-5.247135083549578,2.2463241091514448,-6.4345609430003,-9.167390109528483,-0.6760799381260952,-5.3373698448026206,-11.62354583811873,-5.47891290473352,-1.1014645928646387,-1.3335376560551029
-4.37830623552453,-1.281480128481013,-7.546605529611103,-7.824218188423448,-6.812449488923845,-2.324831233804275,-6.660760923189519,-9.914222348059129,-0.1665325274506705,-3.7417902210100022,-13.209866204489956,-3.131523790084265,1.1281993266106711,2.0105948360867805
-4.893350147359537,-1.739468292637364,-5.884886168139426,-7.765245298256152,-8.849739985356104,-6.344025282488147,-5.629101594854918,-9.20832061183198,-1.222133090530824,-5.880629286451666,-12.838690920280492,-2.857550441944412,-2.1882699183381478,-0.8146769768340918
-2.8812006256716405,-1.1194221261510482,-3.611222473963528,-4.5894383398616805,-10.204830891814694,-7.626413157691303,-4.754966801668691,-7.514195342077357,-1.7438341840201748,-6.517154812730586,-10.039563018811265,-2.226230076760104,-4.053552853312247,-0.8131558725925617
0.8777597353384186,0.7604257863427886,-0.6961187697098429,2.1520116453211378,-10.89275347707502,-5.471353463023043,-3.7871764430772896,-5.488417176121402,-0.311599488340625,-6.992746257365363,-6.036680016820078,-1.0324212186035084,-6.240673563218146,0.18753465943843
3.1571100639583007,1.7699611498509165,1.292741315205929,5.342941094588369,-9.654532851316524,-1.351296527067568,-2.8562243805539222,-3.688531984213597,1.386264224613588,-4.987303104555072,-2.895655348595895,0.0199011571251482,-6.702660930254981,1.9857245351446071
4.575800529526787,1.2027114768124885,2.2077103843538857,5.255854290124107,-6.053180037913059,2.140494641608356,-2.2194103284748263,-2.336955932859695,1.6410913737854238,0.4187414639339228,-1.8205787033209333,1.6846069484526671,-4.324846142454907,5.968781509567364
6.530248653497034,0.5008406404906655,3.630526715197529,3.7296173772700367,-3.374113735435368,3.2219380766558103,-0.6727322906911087,-1.210623716806623,0.9734211415797416,3.9129716200902975,-2.110951015346302,3.4821563112802867,-3.0526775710945744,8.501239288624896
8.575529096806555,-0.489796608681488,5.201045248750991,-0.8681883016681392,-1.353530317458841,2.086673917700302,1.7359129926384358,0.2005260500063741,-1.0409248981358492,6.062662645706879,-1.7641257633116112,4.989003599924176,-2.16343563904559,9.859468707556353
9.660219259060383,-1.4554843391193435,6.006131280547744,-2.423493867429188,-1.1034087044820555,0.3754062413237804,2.536731980931344,2.2645427181393103,-3.024243870331785,6.445860369968552,0.7802134146192827,5.931827674741509,-0.3888552554805808,10.35784141716525
9.842834713667129,-1.162559393491429,6.183650093738792,-0.709221195223423,-3.489982563596867,-0.4507765102682555,1.7743582845419763,4.800583126374939,-2.010533273209005,3.89358498535975,5.278382727129319,6.552710860648396,1.757446482124977,9.229554377578124
9.01241350801128,-0.2375883393080832,6.636384464865463,1.7127597979088844,-4.092252547708418,-0.3293978873856815,0.2397175074864081,7.067570734030703,0.8175461170727748,3.945534805106018,9.817243807849955,6.802354161106772,4.2972600754139,7.195249854852019
6.875269328332867,1.1863821010754043,7.262972302065975,6.349606584109285,-3.249237150678637,-0.3788203179545633,-2.6558850163680323,8.212288676277673,4.237243930195571,6.412848702917073,12.202248602875898,6.311701860774401,7.329187815701134,3.992739917720336
7.548138713273554,2.603112328934876,7.947417445353243,9.04835365361414,-2.3259450666619514,-1.5676748207459354,-3.989902402669923,7.82461917980045,5.815317334825448,6.89101569032491,11.404948571991753,6.352159595874664,9.05807677772608,3.425318874280297
11.25880525153677,2.305746248411818,8.879755031458544,9.532349637111,-0.4549477265751392,-3.5679849358853843,-3.573170540438228,6.164338990398022,3.443894833220085,6.320375643166937,8.093304646778137,6.20280497812918,9.337876271573665,5.9019678456790645
13.800985197545268,0.536555798971061,8.027450135915739,9.30944797903858,1.1974228821952615,-4.8626045175139225,-3.709089315958266,3.950344938340166,-1.060282561570913,2.579418841305402,4.146895752679299,5.2582892376527255,9.988895271710998,9.223024094613626
16.013836256391905,-1.5897004512404955,5.252447324828819,7.280515662196036,2.6070363911138528,-4.0356588613748485,-3.733482094925295,1.958994063685388,-6.05559028360812,-5.259107988097777,1.6493783676718363,4.844957594912224,10.615776027712226,14.450987321809867
15.765242768868683,-2.912878858082488,3.814065007389872,6.813626685350582,4.306629092162378,-1.1369404870283404,-4.199053520404049,0.721437542456151,-7.367843321955654,-7.859895569382812,1.8592230391545428,3.613136191252608,10.197960113472648,15.643664231848696
12.143967358316733,-2.2760217224647192,3.407189150102326,8.039172016703407,6.049745052085105,2.080017351304541,-5.421836881540687,0.398371607959902,-3.624843916029203,-5.343217008068069,4.517036542189665,2.0484517628047927,8.909221268252821,12.196684538709722
9.424889162114638,-0.5699116428090062,2.940403362579909,9.323009209968331,5.705232802334221,3.3546270030302665,-5.881299275568625,0.7634279302550411,0.8007768833072035,-2.942150996243128,7.852652275840999,1.1984927639542209,7.1455745703120215,7.979759309090456
6.968360022739029,0.1525676589917777,3.036005567033718,11.466277337955244,3.061615768433408,1.7105500275739445,-5.72578578992484,1.282265246690411,5.383131115496496,1.314156608667177,9.518882749041328,-0.8106618960461603,4.742197919174328,1.4272021829306611
5.126872413111297,-0.1685861378693592,2.285170132815498,11.762376437753366,2.60659561952133,-1.5408180839579089,-5.186494445188777,1.3529336643539445,6.526376231870021,0.6841891266799773,8.08937828051602,-1.903039219307609,2.66455386799038,-2.101582066888384
4.730089542070273,-0.6766555436480615,0.5773670335673491,9.936864482081774,4.071859348002185,-3.4726408102559816,-3.9594989792746937,0.6664997663882914,2.7643852802044573,-5.876567891457778,4.103966504617581,-1.3873952507106442,1.037184509319976,-1.8893405540825
4.318639654836502,-0.9454366688535634,0.5309024903941906,8.615114704954033,8.19739996266146,-1.5749358078566296,-2.83838328790871,-0.5465296898728909,-0.5605814308218804,-9.68583487498755,-0.260812348429944,-1.5933191294487028,-2.381092026981406,-2.342278821041939
4.285024987790052,0.6569626482860869,1.985362214225211,7.187851276919449,16.156487251587823,4.244738758758878,-1.8032223377605856,-1.6296155503053988,-4.056191249043911,-12.24757609803446,-2.7663818630563988,-0.4826683251170461,-7.486475735507885,-2.0723080399747658
4.42918853961737,2.4188132843362307,2.9201791278194342,6.447411094799297,18.32376451843696,11.203582849277923,-0.5956742513105953,-1.9443091528774143,-4.970752708441136,-11.335035579189205,-2.6821387047746974,0.5209833646504601,-8.869245959819295,-1.5240180173451086
4.58286232947322,2.027055595294455,3.7658506605922666,6.852271428432515,14.57303378600469,15.22929716992966,0.613409900916106,-1.300951434144011,-1.4110569735182314,-5.187394618693186,-1.051920083273501,-0.434244123905511,-6.5368217812103575,-1.155482564144213
3.129094689247404,1.172260904809188,2.9792782475044417,6.095636269641562,10.09315781335103,13.615101433522804,1.800531470754594,-0.0203051101833224,0.9479093692056636,-0.9710115714571336,0.477758265400988,-0.3932413043235916,-2.2456938904356,0.5777103100791854
-0.2326263465637566,-0.1966093441990926,0.0725314781357003,4.395958684393357,2.6980508531309964,6.919585326705908,2.939271982313313,1.395020159729711,3.695925127222376,2.1366694381710865,1.1224526560077068,-0.5113096181837427,5.342583293791553,3.5123147318600325
-1.374752396112654,-0.6376961419930002,-0.6369924493302587,3.725883744310953,0.5798243548501925,-1.2528638468691282,3.367862569533804,2.635013526070677,4.921093407046844,4.314156257482112,1.4009047301725888,-0.6271071107864219,9.217830321474183,5.3629546397956736
-0.5054966383633454,0.9840985746974124,0.6034202379212994,3.786540329090119,4.785800287842032,-6.48011081572073,2.988662982586772,3.6358806726671657,1.7514267087464777,4.118100762806517,2.3004546438285183,1.4602107021890138,8.928388190326169,6.213788116842835
2.120072847855182,0.9097460053486884,2.4841480850201614,3.456979497922006,6.3095382724605855,-6.23502666670364,3.304819722305949,4.3093207534589295,0.6349870944690972,4.2330004441733085,4.133162676442575,3.5538953504542192,8.336004099400512,6.89312446765608
7.5018762199351,-1.2741817969053992,5.918955880116143,3.0152045017179763,7.0205701380588925,-1.251166428587104,4.228369210250035,4.328955691805547,-0.9341620463027522,4.199936715518153,6.249345044586168,5.785514388706052,5.674140210020618,6.885125547057119
8.855409415096513,-3.6184211334856906,6.811166359323834,2.12001377508649,6.591059927043468,5.286749976086623,5.4855025581562336,3.335087800318181,-3.2464446911021323,4.0431931422933,7.826809674378722,8.116578723633065,5.109109967806482,6.825036756440679
5.9714363126377785,-4.453462021514703,4.88122028874342,0.5664031595470326,3.573268549442508,10.011127745063938,7.415362715712797,1.4541226237434677,-2.55933826475461,4.19077229796812,8.840483402359911,8.556597016851505,7.125596368443602,6.720452402288228
4.70252229298949,-1.245213124885406,4.632609080782411,1.4743849308434844,3.058767856374857,11.43170923217199,8.874318008969297,-0.4226234252251757,-3.477205284617396,6.725524081086548,10.14111477360878,8.910669965090579,10.696787096067837,7.870543513258056
3.673092031398533,4.555088244986516,5.261392718669756,4.96518676112311,4.739911033559,10.413944951873653,9.857162946124006,-1.0583836036369476,-3.9451509714743023,12.091650265872762,12.500677204878512,9.424160026977752,17.081792459176604,10.567974270241816
3.5626694251230795,7.925831612924084,5.464300258143907,5.546843285484731,3.8156022656847326,8.961140732460136,9.739528849348716,0.2121698507552842,-1.844302364475248,14.64410467976266,15.578138285038492,8.876583160635574,19.09185770402829,11.06251524612328
5.290060551188793,6.046565499188008,5.900100478073479,3.5896662988647483,0.978985034123434,8.423961507847007,8.14872232555995,2.8584741299405287,-0.2984451725642568,14.659595197289203,17.908512358771663,8.69554681990918,16.439178608469433,9.50013847756524
3.0597691245343754,0.5239841343289791,3.6452444222411136,-0.2007830687122681,-1.6506041232407087,8.564243910295225,6.062066089189126,5.450739736926089,1.7959285165855148,12.28928390888864,18.027161365630683,8.219471758197841,12.470946377289028,5.2901213242585525
-3.0732286518229674,-4.905529234805985,-1.628331251307199,-7.076892167852551,-4.8216856975005005,8.095342561671622,3.192076218082857,6.66362380281889,4.380285492278278,6.142214576584094,15.683462011237635,6.343763895298783,5.407329096261476,-2.5844472382214105
-6.572363577335176,-6.439459552000892,-3.9469660521649295,-9.51083715325194,-4.883492384002043,6.098941912678924,1.7428755586504676,6.091593188930176,4.590042596511933,2.9917098145040155,11.96857348572646,5.23614763112429,2.8350361914567417,-6.153491568819995
-8.318198167264216,-3.442258263971121,-3.673327950135273,-7.226935342718246,-1.2602936538558949,3.0540671416018945,2.03460138052925,4.218220968203582,3.043103489806988,2.7968147178232194,8.257497797305337,4.090537740404129,5.446318281100604,-5.335739883629519
-8.541129267374071,0.0437569566286579,-3.177583971219512,-6.506131675128719,-0.6148270356554673,0.5980695541136036,1.4661426215140978,1.7924733276153049,1.640646907328782,0.4311149796853301,5.0655184049066655,1.88089269790984,4.64596385973235,-4.80722695050151
-5.929510259242131,0.1011264231745076,-1.2486131648681875,-5.781985213453614,-2.3140721429073303,0.2198726151561594,0.5578990079191064,-0.5811161285228295,-1.3832051813892163,-2.8188891849810864,1.977888295873328,0.512310534328593,1.99205416708992,-2.8122073032720856
-6.310523874247804,-1.9797453064587751,-1.3087965632674543,-6.675950566724247,-3.4265392627341025,1.9832945723686135,-0.3079279598902024,-2.286788803199876,-3.749388487409152,-5.334503653256999,-1.365687694912964,-1.4833224496989623,-1.8283400599621016,-4.236301170158761
-9.641081891077066,-2.9626566582462823,-3.701735362262806,-10.212135962993,-5.133436300673247,4.383618924779288,-1.510694304676363,-2.523937632585607,-2.6817425609073045,-7.65643044864474,-4.428846485151087,-3.914822329018419,-8.237009396292839,-9.890023336445736
-11.617810277772392,-1.630599458260008,-4.100714348517111,-10.27506948520944,-2.8639649109822884,5.5378615289188495,-0.7659525965873342,-0.8180225628639946,-1.6444392001795274,-6.6165780032146015,-6.152921389130409,-5.436222027016458,-9.58564555057028,-12.800268433115503
-13.348742559858824,4.243805931779352,-3.161417356041742,-7.2025025554240045,4.030764208086951,4.778203273182683,2.076315427910856,2.025321887916011,1.1187964267834012,-1.6836261955330434,-6.261526500506918,-7.893271067091403,-5.63333384146479,-14.0023499607984
-12.684540388135217,9.17030516569856,-2.90843075390392,-5.780329864860085,5.9966782515882455,3.263876307380002,2.6359014618744223,3.731799540096677,4.622624076562263,1.0506186348119018,-6.0380935805901,-9.002651161013782,-3.833723398818036,-12.913893077767488
-8.825825561788424,7.184854148069155,-2.7252497224125327,-5.024080811033291,3.6492946876276497,2.9052908590153272,1.1713794615579043,1.9781538349804464,3.9299458335510433,2.1266704339228166,-7.464895990813424,-8.119918138224657,-2.7348791184931693,-8.145112453927924
-6.996033381923403,1.983809745804112,-4.314863154761303,-5.994812849615486,-0.3490942662035098,4.314429097517134,-2.074306303907109,-3.3953851785391684,0.91309750641243,1.5751110262302055,-11.257929558793894,-7.403823716305261,-5.674812125909548,-6.324235402426999
-6.724482257379415,-6.59404164255132,-8.09948386678622,-9.599373007606037,-8.02572287845475,5.532768386774503,-8.151454822078982,-9.463187209338315,-4.133623244947906,-1.9783839903824836,-15.649059911202633,-4.799427422483333,-14.250443773970222,-7.2250060692107185
-6.438309052948649,-11.99798765416249,-9.021717139486556,-10.031135158252871,-10.377935903291757,2.9335632916356325,-9.571394372230298,-11.93315594856864,-8.511044748344998,-3.1958967866196293,-17.33200343315154,-3.0869586642471223,-15.92543574654676,-7.596312810761757
-7.136803334530948,-8.099231819095388,-7.251529768196225,-7.462210099832793,-6.859561570176211,-6.027836926270773,-6.082227500906988,-8.488661382358849,-7.430048126526927,-2.278360979379038,-14.060112126841744,-3.2339792340085607,-11.190489891228015,-8.771320758257477
-4.966570088528867,-1.3553078218094257,-4.790629274177225,-4.543809641419085,-3.5558113446006425,-20.295089711334768,-1.6266330776156257,-0.9594167230489674,-1.119876744573165,1.2193041728951843,-6.751768013813237,-2.136583427400456,-3.2457999414312493,-6.37749309496696
0.3623083921046186,6.907300658352447,-0.5416239486448994,-0.0585767222955801,1.6525661046412263,-35.14873001217373,5.587250230534334,5.750311516698787,7.623873163688294,8.663636084545871,0.7901162421500558,-2.068065131089861,10.745305890564223,0.198003906030931
2.198793902080633,11.111878413052793,0.4371002008626165,1.7586540434374272,3.564891934416352,-44.96749067597489,7.733442882593628,7.287026006863844,12.010917906567062,10.538844229719944,4.449075702091598,-2.428780095911933,13.851924185930985,1.789860091488519
1.0594519567952208,6.650491335321337,-2.3190140670531214,0.4140774821219738,1.171320892733345,-46.78252407813639,3.9331003990164377,3.06133946117847,8.31636504848954,6.760542473500853,2.6233390424102545,-3.105149183725201,5.028199230262034,-1.0296039213293255
-1.940876746825433,0.929208876047594,-5.052395380293458,-0.8088890548858545,-1.8071035733621608,-41.83056919724479,1.1542169204237955,-3.5645715089536054,-0.2249098154330229,-0.970641501963261,-2.8877288395414205,-5.569077183430147,-4.036457341821943,-6.073504667463546
-8.246671552842386,-4.455882593608731,-9.010811749972072,-2.9867815353312075,-6.925846082545906,-33.9880574939666,-2.501819573087885,-8.092846650694984,-9.852382237756292,-15.136346554193093,-8.452001900505302,-8.047473371753343,-17.357940484935554,-15.335166638708326
-9.956586124447496,-6.845410197204586,-10.048550514507609,-3.83405483423639,-9.14764991436279,-26.621552859072477,-2.8867435892345528,-8.215376006916614,-13.156057237910325,-19.548291252111515,-11.17553793241405,-9.41772224953844,-21.493525897852415,-17.6263862539966
-6.744419987643632,-3.364953185268755,-7.417016774873066,-2.8303818259766427,-7.842979721619448,-20.576160806439905,1.2593269358205503,-5.0095962946578165,-7.040333121999586,-13.482007518047968,-10.457877309744353,-8.718818086782798,-14.116408649364129,-12.292141286569189
-3.649256971396221,0.0598942399865154,-4.196147567219824,-1.554627210296329,-5.634854431012935,-14.71355494670974,3.7368547470579054,-1.4376040587181915,1.1932220707424597,-5.157694735912668,-7.644847928366142,-6.779114667736844,-9.110067064814276,-6.989022763462268
1.1480071841372794,2.129318102119953,0.8304339923926445,0.719566600985787,-1.0916355464823315,-7.97908135622351,5.703493355447626,0.1886520616497726,8.483431520308217,9.422186491236994,-4.519845327859208,-4.69336248118137,-2.987377038271455,0.9176779468969798
2.4741857152222124,2.8386778734407407,3.3164780570215684,1.8819311192470385,-0.278472668302775,-0.8011990479406608,6.184244825181975,-0.3662561463629368,10.724532871326986,13.281234423069328,-2.0771161328650845,-3.331750896722044,-1.138289668701806,3.988323786815213
-0.5653541996012749,0.8023626953350242,2.6781464761969414,1.710210778886296,-3.710565700658559,5.324592303841328,4.056524014006352,-1.737805652907487,5.437598597912178,4.6775956480081495,-0.4141343808209985,-3.5921773882929733,-5.919329920009214,0.8404577020246196
-3.00402511995843,-1.036338462614258,1.4701738575645358,0.9350935526049182,-6.144750471117606,9.25564660642452,3.1307299563243856,-2.469635251937984,0.0304286950710119,-2.96616572653538,0.5603028253226627,-4.181646096957513,-8.868700895587976,-1.0133271908536134
-6.209465315640503,-1.6012461475725024,-1.5416522324917967,-1.053984074299935,-8.972022733639333,11.011348702087274,2.93836105974511,-2.133225330038432,-3.544979453536776,-13.84387210250989,0.5359543120527377,-4.6708055964394735,-11.81216341518708,-3.555582303432749
-6.8590007740611565,-1.5555599883552604,-2.6973339950380257,-2.0609023235911192,-8.423601300496939,11.332010527485169,1.748678784474299,-1.3517013218107614,-4.383770324185087,-16.583796791336873,-1.0254463786233048,-4.317747806267623,-12.572315445315835,-3.8600635877821103
-4.037489007912136,-0.5279040953946611,-1.6337065336465606,-2.0129295971608405,-3.4566479115688304,10.790394084475288,0.1344087614141552,-1.0443958421011326,-1.036749754465205,-8.719242251629087,-4.123885349521825,-2.877321395983767,-9.699199454803331,-0.710824859763304
-1.7401446419989053,0.2877772944580191,-0.9274242944800568,-2.7413332292417776,-1.0112763131505125,9.539444115066289,-2.915533728874657,-1.655096916303239,1.511105259609019,-3.4809975016555623,-7.659314296188516,-1.454722500049373,-6.689745840334508,1.018747371565912
1.0136157454985508,0.3528699136217476,0.3341359724514047,-3.8046843851779766,-0.2130331674641468,7.778195596160886,-7.686007591363221,-2.881083168801455,2.3343720697325376,2.175442105356632,-9.79663784034209,0.5335716723218411,-2.5496515044670924,2.2508252535744484
