AF3,F7,F3,FC5,T7,P7,O1,O2,P8,T8,FC6,F4,F8,AF4
-3.812112475061866,-4.502720277759202,-5.141291142498087,-9.34495537010452,-1.9999475497625416,0.6334570890608902,-1.954275294574075,-0.6203591957108316,8.978878031579713,5.372007067954378,-4.439526784707642,-4.647410997805892,-1.7379925706475383,-7.621407723077697
-3.1356179362573897,-2.7331470396034625,-3.5126181327236026,-10.015986694737832,-2.424757825816691,0.0975998961901716,-1.371163504830733,-0.8724567016163672,3.9902035390566857,3.707331515563368,-5.67839113488205,-9.03156577128037,1.5473030743939482,-6.329606966154284
-3.338697311627559,-0.2021401002029001,-1.357322527968476,-8.290324913923538,-1.8060913534505865,0.1310059066246296,0.542754545146846,-0.0715389426522837,-2.8501245526158003,3.788334898709749,-1.4622608344849333,-8.73497766857437,7.022594564943027,-2.431166429906749
-3.911661442899213,2.204725190256042,0.1784542026473481,-5.042757568463031,-0.1210552940476148,0.7734157522719727,2.5799469637395043,1.2860427888051502,-5.12515995805363,5.176246627229272,4.819396059148087,-3.925826045862255,11.057162990311271,1.9109961087274527
-4.226005629356905,2.7836034523232094,-0.2179686631584729,-2.660108442505546,1.6290325239611114,1.433348343796773,2.096495858766997,1.599611493937703,-3.609019088312341,5.6779145619880005,7.634355114516445,1.4496537645222851,9.68621751783222,3.492058921269233
-4.186028197930352,0.7020479008610927,-3.0109033659529203,-2.7654277118547803,2.180859846168996,1.3545780449304736,1.7336510199396904,0.350863627161998,-0.3372065133740196,3.334140630867996,4.009712535713064,2.734647795945584,1.7637168155506977,0.5630572778412457
-4.206566624630533,-2.7139827644193986,-7.158029499426128,-4.4709564052920925,1.1673692736909975,0.3505016549833009,-0.4086657719330299,-2.08174076089936,1.9802256532867453,-1.541985943729987,-3.9017462458792025,-1.48946947848815,-9.8258899539348,-5.557698011449627
-4.61612971436697,-4.727926699520406,-10.56541071474215,-5.133060110413609,-0.5200756293113393,-0.967260689209244,-3.0808421839438704,-3.89172977750068,0.4254730194074064,-6.377674118727523,-10.775544454721237,-8.168389892426664,-19.91618218179984,-11.37750957442077
-5.227220445100517,-3.5749167576042358,-11.49278332414716,-2.991019848044033,-1.5997072575448783,-1.74568376561432,-2.590551791406745,-2.24228187953431,-1.5706900564970665,-8.54648672000457,-12.69807188470769,-12.389639080265445,-24.32783927806529,-13.952625355728529
-5.560418477362116,-0.2044078023124633,-9.803453825473394,1.0029680644172425,-1.6104016456626802,-1.6769041585726718,-0.8939239619509198,1.3263273419219783,-3.114023776062877,-7.670731659758246,-10.133406972217688,-11.424100609271772,-22.208051684178265,-13.0185587911985
-5.390611793596136,2.4542887706487484,-6.973220190107021,4.043970957107664,-1.199593774892044,-1.2189133988069862,1.9593802174750128,5.023013963656872,-2.958195940715534,-5.778500395954701,-6.807726217928792,-6.592567779470638,-15.981298355164014,-10.694710246257078
-4.919947388749023,2.090435053810559,-4.8432839900521,4.082981612652617,-1.2491403694728582,-1.0660415650893178,3.9135526171047688,6.423636281974588,-1.0668355096483122,-5.23802697147984,-5.988421309903881,-1.5973614845374549,-9.305797535831722,-9.277588498386134
-4.412820967845565,-1.0223112497944946,-4.22533596646646,1.529777375528422,-1.874407907661098,-1.4577346384047978,1.95789478084637,3.16704583527191,-2.117861917384444,-6.601946193082519,-7.8248715798155075,0.743467878085827,-4.692899379658631,-9.346188621377737
-3.830716596238865,-4.496114972488737,-4.5374703181030895,-1.4386657288735982,-2.39014648978786,-2.012549192082684,-0.5776672523124535,-0.3725179739114744,-3.265196962204701,-8.44196617436517,-9.945243528210188,0.3051569502636013,-2.452736245699814,-9.825891910429068
-2.9886671481958125,-6.05216951362269,-4.636235761700959,-2.913270266251377,-2.1709424429904054,-2.176159024769941,-2.662398786989662,-2.7494665467523194,-4.052934742487854,-9.07156416360521,-10.15969165212476,-1.177218130357673,-1.4014655246364711,-9.52412992374149
-1.980829069132444,-5.261854371614316,-3.916960534562026,-2.5380875619994114,-1.3328737653051057,-1.758678311012801,-3.1294357203302874,-4.528464048827686,-5.882853924938122,-8.185724371162962,-8.361118263854806,-2.1574086796319563,-0.4127932388980895,-8.328748089698188
-1.1887007124733415,-3.3790097169660847,-2.66449932176565,-1.19223829369189,-0.4785811787523997,-1.0378921586747936,-0.493458867318905,-4.6320496342076405,-6.340672202137354,-6.803316638247679,-6.009512909409175,-2.398424329442072,0.6814276133624766,-6.9629351460631845
-0.7501337790808158,-1.8621248887342432,-1.5190971672505036,0.0655041566845469,0.075474121353082,-0.4152030729931759,1.535435083429789,-6.279007682524991,-7.23315245998627,-5.903178946842729,-4.253676691029405,-2.510164651729667,1.5243257756360649,-5.923764902292945
-0.2263849002995606,-1.1970417684448833,-0.774766519671708,0.6624153283652277,0.589816303118166,-0.0330281989220289,2.6351282451149185,-9.7442335683006,-9.08144826886583,-5.456343149980018,-2.910326519698099,-2.9535541635485174,2.2034779215738283,-4.986149756650374
0.8945963754527639,-0.885741141450179,-0.2055041015563112,0.6325555459153556,1.4001745193062902,0.2863389155697113,2.575587904827965,-11.225710689141808,-9.522457963776588,-4.820415076186386,-1.1889832158856102,-3.6784248809596742,3.3772780664643958,-3.7388118442687848
2.3457840209619256,-0.1848058050623784,0.5943542027268975,0.6080068047913727,2.3532345651326523,0.7838164679887356,0.94734126710655,-11.282736916849084,-8.966362691844198,-3.749877666696161,1.0225093927611546,-4.41205640137574,5.252264144257076,-2.2947651070265707
3.0842678096583533,1.251093747243484,1.854900361763514,1.633058223594844,2.9719768313732957,1.4435078571284825,-0.1059713692080201,-11.489749628147012,-8.739613473582526,-2.676323423791281,2.9353041477624835,-4.864433628089056,6.6971402161973295,-1.1958159689785504
2.4997047489614364,3.186368175322553,3.576515584971704,4.397911379906299,3.1632907162052977,1.8878064047687708,-1.34984187962304,-11.07556543452588,-8.666506351201454,-2.0029598037393352,3.846145729897348,-4.609856339081595,5.8965264711442735,-0.6438580752599314
1.5509507754682073,4.983027056948087,5.5913935869943305,8.179507968723842,3.4896331081203087,1.5648538727647647,-1.9461344245422043,-10.614943656708556,-8.661688694793252,-1.469752970906976,3.977426779035051,-3.1541719715266368,2.2504365240226853,-0.0738384754665446
2.243782904128727,5.998262552969701,7.495397838452893,10.709199759330902,4.49203326751606,0.1053819200102488,-1.3561240204441738,-9.448706635854233,-7.857122860367467,-0.5071298861404294,4.103706317002896,-0.4966743158293507,-2.4390735395299483,1.346154819428703
5.6167608104071896,6.08355488047661,8.616795814353937,9.747519155098388,5.78057412379421,-2.3801488780115463,-1.4756136142280594,-6.183257057208015,-5.7608569578510025,0.8619129104097354,4.512735406209908,2.42508665008185,-5.001962159101462,3.8691368375346418
10.342725538105588,5.870994013713641,8.381420294253736,5.315748228319038,6.087957863178144,-5.273242979954844,-0.9582802004969404,-2.05065707254055,-2.952081934692628,1.8241671306087517,4.714488782265827,4.255158837518204,-3.385918035543165,6.98889359522825
13.708531367493244,6.472746676269059,6.968436560075683,0.3495875637147261,4.500647293974989,-7.731291298264841,0.0123257775713206,-0.0775376367796363,-1.2462075271170598,1.7233841500586786,4.333395840921175,4.494658753306582,1.7750280479827634,10.110788277607885
14.15215308551905,8.63712255841862,5.534681444516608,-1.299544520068217,1.650643744343692,-9.10659481711328,0.2849314007640723,-0.7201365549710987,-1.731079447568551,1.1042660945055172,4.021761263981921,4.173974139850269,7.950183973070357,13.202498971864433
12.67476167167078,12.004921769515924,5.478669643665408,2.027325787115137,-0.5384158507283452,-9.214019503940182,1.1524660726316784,-1.4841833306506618,-2.178548952616793,1.504078708173355,5.0857828345697005,4.951221767571924,12.865797755864236,16.593578063138203
11.555999208392237,15.14246806439441,7.205285282977969,8.392565626302561,-0.5305964239388334,-8.30182128850009,1.803602322016516,-1.9891660308763663,-1.950780176903244,3.975855560027328,8.031927593626653,7.380419410833538,15.802512982948812,20.14119783242861
11.823760622300538,16.382558314977224,9.603548782064356,13.848609933696457,1.3427698349292805,-6.819138227876801,1.2415235450068094,-1.5674704727338191,-1.188152954960552,7.812384165154072,11.630443790987249,10.167120126621212,17.042555277069138,22.78730829988042
12.33817682564197,14.884049112843634,10.909666268622583,15.526727129825549,3.163474868640454,-5.180366130162202,0.3918930108457396,-0.3573437787645885,-0.0274926595089391,10.890824747702249,13.679998904822272,11.312696207623915,16.66158691339756,23.163875571854845
11.389225699138612,11.161197809196556,10.193849491253172,13.47037946064306,3.2552965350315457,-3.635160718371698,-0.4290252538296918,-0.3045983333678993,0.4311275657637961,11.408975963412924,12.812181479322485,9.966609471337298,14.320418235485455,20.74103905753125
8.745938905389933,6.718797373035059,7.985821453200154,9.85896422401278,1.6957930315640228,-2.231894312913873,-1.4876089162765969,-1.5971205183163524,-0.0171229382583854,9.349243938057914,9.54335256397598,7.025693964844689,10.145350702995868,16.37453499352793
5.691818272947847,2.978228475689303,5.456056140576656,6.7236513443886805,-0.0488412921939809,-0.8530230793679863,-1.6727473378142008,-3.1571947332190358,-0.578827416845523,6.28987090605791,5.592780690747582,3.950425568155734,5.244820428030149,11.662795902191345
3.228266326268301,0.1987493830774062,3.182471310073521,4.400326544627659,-0.8911441761437211,0.667024990799719,-1.1017578649213084,-4.036107225388698,-0.3648953739968078,3.8495008675583615,2.2806103334617216,1.283038103536008,0.8614762249930656,7.692835905290881
0.9163441079809412,-2.679236629954568,0.9066982248276956,1.9104079616918423,-1.2714353096164146,2.3735281247909965,-0.3076884918402552,-3.504339379263889,0.0735794371845905,2.342170897856931,-0.3729635512580449,-1.4613227178643595,-2.908574006881161,4.327777925472455
-2.074583577832636,-6.801649284096455,-1.5787911348124082,-1.4225242579929196,-2.359377688667661,4.099086789090352,1.2860788607925508,-1.7590141377358357,0.4314459251381805,0.8868367550287051,-3.128285456028669,-4.600528899117915,-7.016323209712961,0.685102368433316
-5.124795428053222,-11.59590761221973,-3.683109036907513,-4.82248465686122,-4.22279127079978,5.541341508203164,2.084880151358201,-0.561814552732562,0.5601909515089561,-1.292338949623181,-6.313963722408556,-7.393145493212751,-11.631442889966053,-3.641395174478278
-6.195070768051611,-14.234814112968502,-4.526724153616266,-6.484019151338058,-5.177527490198878,6.4298873297843,1.5544602684460616,-1.2372505192717955,-0.0898195248425669,-3.7918214911838186,-9.251272666602686,-8.65597746432704,-14.587848751780102,-7.79912690989458
-4.137887980042463,-11.562142612855135,-4.156083007790988,-5.173589864520173,-3.331290105492464,6.619930130892531,0.9194024792546978,-5.157960276306037,-1.6981617735760075,-5.272787683779994,-10.80418428557618,-8.17678494896429,-12.43668063508404,-10.14836831932898
-0.6552304369425324,-3.2949496058637404,-3.867578006540648,-1.5517363367906647,1.1621691809938728,6.07674038798795,-0.3278535418033408,-10.32178732271468,-3.605930467114652,-4.772344196870787,-10.408002252311364,-7.208153236370871,-3.871878249245015,-9.681522584791638
0.7224001490646073,6.543012301689124,-4.981190256664855,2.02241684498756,5.61886223876849,4.873015060211652,-1.1310619130569304,-11.909524352805684,-4.233811228467832,-2.78403278078705,-8.578999041785943,-7.3596490901773555,7.64837055774031,-7.129720877881556
-2.048531795427004,11.946218527962088,-7.314247070557703,3.126956417701466,6.869370519886068,3.253157078219579,-0.3581586248298671,-9.617946125753244,-3.559853374839957,-1.0342418769619988,-6.521980035321351,-9.031303202912092,15.231261546106046,-4.656733894751538
-7.382566157879943,9.478480170817589,-9.154053710223398,1.0045349057460229,3.9424523127184665,1.6218170225441175,-0.1876692150172597,-5.05139044423474,-2.032608516207412,-1.1187989925984183,-5.290938598211232,-11.036704868965929,13.467778198058664,-4.273431291693981
-11.47633835904062,1.024745905418607,-8.917467447611207,-3.0454731951421365,-1.2096703149038044,0.3343341250931226,-0.1747085543770533,-0.5606028683937482,-0.2024952341527159,-3.216492461926861,-5.223278486323775,-11.757339549614866,2.8506413865213265,-6.323218943771175
-11.832807094608576,-7.8586912566691804,-6.733475816056391,-6.8164443755039725,-5.536349427515196,-0.5384578607413388,0.0436799759705105,0.984776034648447,0.6764879153413743,-6.0000679337997145,-5.962172112130794,-10.57293145302693,-10.363921715647056,-9.345319109250909
-9.25774553326989,-12.445645192421305,-4.215821022808657,-8.76292387418614,-7.343732686102289,-1.162522430777618,-0.8919092368348966,0.8743130628174919,1.1033047562757243,-7.751349066619785,-6.831806897967876,-8.186284702044329,-18.903322808783106,-11.3560638998761
-6.499416524835201,-12.024921989390467,-2.737877324229893,-8.702919660109204,-7.0975554181930285,-1.6256245752244682,-1.5299634866518774,2.5120525061853414,2.283691016238488,-7.642316900065516,-7.195747700845399,-5.734982551877288,-19.673714268546085,-11.32429317266946
-5.333530577568179,-9.20641580090247,-2.191019781123245,-7.396522090352134,-6.250572011688874,-1.7902740841775655,-1.7368653526309217,6.606334714791545,4.4864433722860335,-6.11912862493364,-6.688307124301809,-3.75057140472338,-14.994368744826993,-9.610796216648652
-5.25862847409214,-6.737766088636771,-1.5417008281291509,-5.748308517070231,-5.717830157577801,-1.6008489089660998,-1.4444446094190235,10.156101720862027,6.356291069524277,-4.242979836482276,-5.398535149881735,-1.9385683328349312,-9.363549627675509,-7.280675733944685
-4.79944511006253,-5.274356815912007,-0.3270526423831752,-4.359247663340632,-5.510456515707135,-1.4554023112523815,-0.1792485477831047,11.84503349339711,7.085161699834612,-2.74772080341707,-3.9247675717075,0.2335688701009628,-5.313468437546501,-5.183369096348594
-3.475491208761426,-3.8607709658291487,0.8390692788160345,-3.435856224853782,-5.369660137504273,-1.9479899065666293,0.4820931076060882,12.296563522824965,6.798307540157861,-1.6410375649105875,-3.0281925893090698,2.878849547808798,-2.194020781523964,-3.576496355932396
-2.09932182840546,-1.8076250445940163,1.3690620013589925,-2.7411747555998938,-5.202061243583939,-2.989014443925015,0.3818077832098835,11.765111178421064,5.632982635551943,-0.5103488507642471,-2.896355347521385,5.551322989369529,1.6628054787783435,-2.268928716880501
-1.349619580978775,0.4161813191429244,1.9604624761706968,-1.6184171759858286,-4.79769831581257,-3.3087764335551144,-0.1923858164558463,12.186228134493293,4.974909944664053,0.9541288097472398,-2.615446247229827,7.628564487427175,6.262947346559697,-0.8358018694262404
-0.6225098481229319,1.9395072231003505,4.231070208560529,0.5590592658789415,-3.5625507615161087,-1.2914565626233374,-0.239578045222576,13.08794621223456,4.891431828252833,2.7157412252076583,-0.6205646680133992,8.813431870084873,9.620095779306354,1.2302815412693322
1.2922757477002795,2.551427714592613,8.821073507619769,3.607427329455628,-1.058884911327345,3.3118017080165023,2.2130627668106264,12.217235483792209,4.929736715728219,4.482867677940147,3.886607158360378,9.36532729585237,9.744038735922844,4.183284384775486
4.439005829312082,2.721205853856615,13.990813769555178,6.198946049013474,2.086344819071561,8.507302720806742,6.072502726020263,9.524635555387148,4.347097290129203,5.894584023075779,9.730101706859395,9.89371717502998,6.595795517978486,7.530187782513863
6.934203308570208,2.754173841285233,16.470846129924148,6.606134202391546,4.171294331991274,11.235956791533082,7.575989650818385,7.266072232678437,3.52326121454946,6.63677839054194,14.13353350283282,10.81404411851284,2.064753267862154,9.934558591151363
6.290297902667684,2.2857451955448345,14.038659722534437,4.058060315427538,3.74550015136339,9.775206129299905,4.718188129740862,7.013419467262916,3.614226922923076,6.496942110640385,14.657922936125324,11.832967925438282,-1.7130999263465254,9.91870998539661
1.704786034217296,0.7180131033834196,7.488523298497811,-0.5318762643632944,1.1131757522751051,5.162213707522777,-0.7380988007922685,9.361334338627014,4.416670755109499,5.428886703687104,11.108190726329887,11.968768116623885,-3.8600162803151328,6.971313249694308
-4.857318485351731,-1.9804027934891129,0.1815061860437778,-5.168676755070686,-1.6128643484559069,0.2876162922845822,-7.406360965196224,12.861254984079864,6.457168251029899,3.615815169255286,5.67618226336628,10.30576208644771,-4.825388278230792,2.0765676007554714
-9.881514927939238,-5.017168335862619,-4.407345554838972,-8.112899415150974,-2.17599603277867,-2.432412829246412,-10.223331474343372,14.19461615631165,8.99726517150403,1.4844552219199332,1.2204426748497823,6.971889994782854,-5.375071945292152,-2.887176395760011
-10.887745319103288,-7.258240211760377,-5.042656048779166,-8.738429345932413,-0.0835622952795529,-2.632231892410416,-6.601923300215825,13.710177916595644,10.98769885353525,-0.3509309075278923,-0.712389428730686,3.3770871437702654,-5.7440387437536025,-6.3939622081564815
-8.282450354052129,-7.935806764102369,-3.2423018276696016,-7.444803192999584,3.0033280234857065,-1.6202946954870754,-2.069873202534746,10.35559877083438,11.727485841183292,-1.2405564038438983,-0.4669796255662413,1.2183184631769155,-5.636740640634216,-8.10837872571965
-4.996288905559947,-7.044733074987292,-1.891465029464345,-5.168001960137051,4.697844246652382,-0.8365964064758904,2.960062542880938,7.2751468422683345,12.056132806266003,-0.7811704319533672,0.6639312191251108,0.9702274832576574,-4.74220685198638,-8.729402524339175
-4.1874422036629175,-5.299976617748805,-3.2038775022526744,-3.0906426886310143,3.799618674671111,-0.7749318009970958,5.921590738487604,7.559851085671058,12.006908179334028,0.869329153211257,1.6684945827353124,1.354355998088438,-3.0548215328601893,-9.150983628752316
-6.753590588208096,-3.749229684102626,-7.348487537960291,-2.4168738774559104,1.0717955470059135,-1.1049190915748772,4.134378002008364,7.030196320489495,11.411427427184565,2.9374986786905355,2.268261516514488,0.5574575841550655,-0.7494628572415474,-9.684803338580036
-10.568999940816129,-3.1886096514463214,-12.36057945313314,-3.784274337019644,-1.560887682643223,-1.374068695699427,1.6011289477369002,7.864041013140301,11.646116606325894,4.470845955246266,2.646055626721871,-1.786087919270129,2.0422454259931286,-9.84365392811768
-12.076837229738048,-3.6418552627692216,-15.284529383577809,-6.55635448522894,-2.51979858629098,-1.37705883235512,-0.782769643947659,7.534142071559849,10.97671318949024,5.042402216426015,3.108831440837229,-3.866613120584142,5.135137597940966,-8.713349242382655
-9.051042839678594,-4.297079813048809,-14.011425781532376,-8.888557097053226,-1.558516781135895,-1.0344318604814196,-2.2271468143771807,3.017825653741343,8.356587135332452,5.084423743179445,3.9376465006271775,-3.2366672225483724,7.93873472608083,-5.645418735523986
-2.3703169653031404,-4.073647758005389,-8.815363786258665,-8.947469748700822,0.3535273506127843,-0.2598124865062432,-1.4085930302803895,-0.2159802084823181,3.628123187520793,5.420271589577418,5.162113545531322,0.6628427829798351,9.399560404120104,-0.8704026056292369
4.645549467901944,-2.42504735071534,-2.4315607350347435,-6.354625647408647,1.9492909738428927,0.8995497831259305,0.0146787730983673,-3.821315045853598,-1.1951920335003134,6.374150777104841,6.2570679722306215,5.51559474761662,8.668420906133925,4.405401273289537
8.780341747717554,0.3193600316102492,1.6954419353332977,-2.442339245235588,2.6026240311875064,2.1103005540341147,-0.1458651172922514,-7.833872193320416,-5.785723908470238,7.337424748292152,6.238045366924289,7.873264908062623,6.091361086636798,8.592096359057479
9.237406912137525,3.369093473688164,1.9117538726388437,1.0137348247429592,2.660215279218562,2.9304634904599123,-1.0822500192683218,-8.800988035741572,-8.620034444458314,7.32187274411206,4.490885959871629,6.147093543798343,3.4934425262601394,10.660394211351742
7.839053795370611,6.154377268140158,-0.3986952397228478,3.327739424601944,3.009450795398442,3.1929574720041534,-1.6677585736203486,-9.456187729072555,-7.523632332965953,5.966830293306447,1.6597132577211684,2.000747021178784,3.046978563741704,10.684405920866684
7.120663877432385,8.564401126211907,-2.0020502410042025,5.181153019074407,4.270933174245382,3.1528707860274525,-1.534738307955622,-10.73411381017973,-8.450428128795009,3.957930009279015,-0.4993464431204946,-1.195444276334293,5.407166510929812,9.514724417688738
8.157958529415092,10.61059434649742,-0.5111036560864528,7.4983011812128355,6.257642574622466,3.2059961307574367,1.0261404663997382,-10.868702319063992,-9.795730302711211,2.409515195245869,-0.4891412437732363,-1.3257830253644611,8.86035806931648,7.936136588332886
10.036033662477076,12.07247853827493,3.7601132106051054,10.246290412677414,8.122891174168622,3.486471977137734,3.37966535911271,-10.770159129618806,-8.946339128179059,1.8649999561522488,1.56486116438862,0.910780804027447,10.595204609900811,6.177249606130234
11.178901532904987,12.636002595284925,8.362000025047479,12.446141690758427,9.04813053917802,3.779006201760661,3.102692961251192,-10.566632533938405,-8.640761231518722,1.9462497575907367,4.00112208833553,3.1161302590983966,9.144968527817976,4.210109108173608
10.9981716593824,12.324446526029268,10.978447844584558,13.251328983719471,8.85622499651963,3.814000182876049,2.107020471643059,-9.108597035379224,-6.39735856924006,1.9247687522662675,5.147533301138007,3.5758137550235296,5.629094105537103,2.3364086008146008
10.245901742781644,11.609244502222534,11.200241078440357,12.840919820748717,8.026789455676385,3.5838900880108304,0.1191027819436416,-7.27441757353385,-2.8070915968830628,1.4850901646181414,4.716881109502893,2.523796293578456,2.503011846741126,1.2255038609412523
9.950034133675173,10.987607613416188,10.308940706487492,12.173260188299189,7.168115661254934,3.3294769133065825,-1.3018444110150764,-6.729267629175834,-1.9180646724759172,0.8623341984413151,3.6874498713044552,1.3389504401254892,1.0885449193846566,1.260147546480968
10.26985829827402,10.526077228750363,9.668179272879044,11.969722841853043,6.500687316185847,3.2400653194310807,-0.586775281025159,-6.857701400821267,-2.792301292283204,0.3467475783161529,2.968210395786265,0.9027325654981884,0.5313628605766314,1.981785182623664
10.516027518901874,9.940568077358154,9.535208631890928,12.08934410679407,5.837408181046769,3.232469813613182,-0.2033487612484218,-6.531476229191995,-3.4861870374281767,-0.122618204426502,2.470986943214678,0.911993188282438,-0.7666110094514784,2.42991257115267
10.159870845330856,9.096429261998122,9.33207991424187,11.922750196045603,4.985040857930904,3.0733877727060017,-0.4906323237891339,-6.439557495306498,-5.196572055079662,-0.7733234058024094,1.597679907827216,0.5948706243576292,-3.04720209249869,2.1377585914219503
9.54442433191516,8.247736510958593,8.70896960645861,11.25844101269289,4.048813790437134,2.7054277738093764,-0.9705214453233472,-6.2719429120478205,-7.049908520387885,-1.555141523151489,0.3503611505221502,-0.2619588305639335,-5.007111891030213,1.6558326798031424
9.419059364611208,7.66568271459059,8.008678637366366,10.573693663609834,3.272266272210905,2.3682421520879324,-1.8293993136201987,-5.757727634385299,-8.07132043519087,-2.1335418206231958,-0.525049930411881,-1.1636384568024356,-5.748105691212251,1.8618798783006736
9.853258202418502,7.157114462118791,7.651691396695783,10.389636326053706,2.623478749581604,2.295805760352361,-2.039970561455923,-5.380280508196798,-7.228338925548354,-2.436733362387668,-0.719974689325098,-1.6412385014277695,-6.367614523853993,2.685675626517211
9.840149429057403,6.230612803256426,7.297815360212899,10.435049500576964,1.678600896442339,2.248652941070913,-1.4825883953405727,-4.394208459305947,-4.714422973585433,-3.0534607462758734,-1.3913398072663492,-1.8874395283263512,-8.857336839543333,2.7527133672598127
8.166597058584909,4.83822714165318,5.8995661401005455,9.638606942246518,0.0579419423750682,1.4298793350546477,-0.5304739126278315,-2.9871976401481537,-2.540636189191036,-4.814773314361286,-4.430175311747553,-2.56046063410702,-13.256533624238614,0.6395484333250412
4.664856113765767,3.7214741054946696,2.713825448997848,7.099652857847722,-1.975306886796622,-0.9337772725335244,0.5441815674167262,-2.4053138425855902,-1.7721026861765592,-7.828594205124242,-10.30950791861958,-4.029158576457519,-16.46287416385254,-3.33689365978746
0.4718971871019262,3.627856215623013,-1.776961163840335,3.0681893057890486,-3.455251902352571,-4.732738055108444,0.7493082083783573,-2.8378503592629647,-5.520287808888216,-11.002111865478572,-16.762882334956018,-5.929959756070868,-14.676913385272936,-6.764865475608198
-3.0337003206263606,4.027681121467294,-6.046162328332217,-1.1559192352234575,-3.440852372276905,-8.62396644759636,0.8061909210714069,-4.037233810917981,-10.554441579991396,-12.742018891220203,-20.089186951135737,-7.483623539570647,-7.4247777475900065,-7.001311477788271
-5.484460157311503,2.8929187944543626,-8.705775921025618,-4.395525652483494,-1.960591265504763,-10.67060611663895,0.9264488864273313,-5.048142092187619,-11.593811951382664,-12.306674676470996,-18.225564748569024,-8.192253913461208,1.0502507955225302,-3.7511590744725223
-7.599826154367928,-1.723624308534569,-9.58596963543031,-6.647780996087078,-0.2569472114150217,-9.634141649641297,1.0059543710643304,-4.581574333038928,-9.33467558739324,-10.500092283796508,-12.651444902110278,-8.213679459483668,4.882365623050036,0.1937118544849783
-10.017161848782097,-9.543715207354056,-9.723602282130235,-8.88870404403357,0.0138869325800961,-5.973891975181044,2.322455083941375,-3.746904765290157,-4.419705980132832,-8.962151376584465,-7.120879983983488,-8.126451056758974,1.497258057332349,1.1063221429144976
-12.212366384219424,-17.576732290024907,-10.301879821520652,-11.815020242886476,-1.9917515021889,-1.7148017407858045,3.2831184059133443,-3.538066134570412,-0.7246044346618765,-8.692690464018199,-4.389925128298112,-8.423063671498394,-6.24728999395945,-2.378331198124279
-12.804653996195947,-22.170176136450426,-11.569435296221052,-14.886671984920945,-5.708118484547107,0.8062636722126229,2.5214774020900546,-3.4730892262947592,-1.4632968791549472,-9.243804302823582,-4.199129894362342,-9.200717199529418,-12.560568747218262,-7.906682637437135
-11.018981190576774,-21.90300137959132,-12.718994825351746,-16.72456081409268,-9.642785532144188,0.4502154667430234,0.8536442625775807,-4.0394783737850695,-3.947286122520071,-9.315788194552054,-4.421102159913476,-10.177831621741896,-13.295121276132331,-11.357544034963864
-7.770488458612191,-18.600482526585367,-12.78411033172905,-16.45905287010224,-12.413954619152276,-2.053519968427388,-1.333473567364667,-4.152683326574147,-5.30321637633985,-8.073112200874137,-3.840847271596721,-10.862483608231832,-8.458370568037584,-10.35001319977073
-5.150677019738031,-15.47456255969642,-11.662509457728063,-14.615983226598306,-13.432035674124396,-4.771226853606545,-3.044195156098412,-3.3867577998827967,-4.079979591426951,-5.822721641762803,-3.3243925918244357,-10.754022781995552,-1.0443040893399864,-6.066605838797722
-4.737790463138155,-14.229894613103692,-10.283765731216524,-12.669919406523904,-12.860223916740464,-6.060598729029355,-2.928628150433463,-2.909506129080172,-0.9448709695870472,-3.481008885626004,-4.146653789656959,-9.634116102497554,5.837740438401948,-1.852976325900564
-6.379164278863707,-13.962876029453565,-9.770613776105066,-11.814374793643903,-11.245786268647276,-5.736806061952586,-1.9344997613736332,-1.6932761181419806,1.6466777822781309,-1.6092098492686846,-5.7375357163757394,-7.890130484856957,10.607818305920734,-0.198482421066731
-8.562412771242723,-12.738485207683835,-10.392871114562531,-12.171245062568948,-9.307709768491485,-4.97329094485339,-1.9730780906974392,-0.4275330630495108,2.7837673474469304,-0.1725170250689438,-5.901973962796232,-6.492807211918036,12.802980157278302,-1.0422999246134297
-9.89074840421447,-9.974928780261758,-11.326217434213351,-13.000619677905732,-7.836610660773048,-5.048711499280215,-2.2688724357148446,1.4773075150188713,3.573351512673772,0.823092985578942,-3.575819479362444,-6.337747486017611,12.119266945107125,-2.6798820352203383
-10.170471306062874,-7.113288765251847,-11.454671628009653,-13.4020486348965,-7.358832448339255,-6.0605844102838775,-1.848430210271946,4.032434090330149,4.463896309364814,0.8339685097435825,-0.7738355075787204,-7.335948456217992,8.419239765894181,-3.845261105045307
-10.147277236567971,-6.03229926171093,-10.42499734533187,-12.75655565798644,-7.619416961029751,-6.791415516783314,-0.6926830360010267,3.82096665981158,5.354130695753169,-0.6451565094927187,-0.8439340889882208,-8.167893584591607,2.4910829594656088,-4.639917029194035
-10.404725830983448,-7.060256075637032,-8.897533132788588,-10.791029222840608,-7.504337606281382,-5.864417450163925,1.2151748906247224,3.290490662972485,6.338540815892428,-2.9157213496635475,-4.408348150810518,-7.220128977272256,-3.7724135887259087,-5.617662144169778
-10.676781360413864,-8.666754130999708,-7.733907767801892,-7.640036292583895,-5.847143349925146,-3.097366026480383,2.945909805031811,2.1752056610265287,6.079174062183282,-3.852117399172572,-7.579179525072378,-4.026450330467545,-8.332082709355534,-6.476455896793457
-10.211031426589267,-8.964560667386573,-6.949985630357071,-4.000285242898963,-2.595750683109324,0.2358933879981989,2.759509950391523,0.1266632396601373,4.8466149743675935,-1.4091262089459384,-5.137639060140451,0.1797197504562877,-10.16788691422343,-6.033108030700548
-8.61517575572298,-7.309990754345185,-5.517203171825071,-0.9698844224321056,0.8359251845049371,2.4610595112844043,1.3581091842175734,1.9310986886370116,4.285828552196241,4.307311253150545,4.030446871820086,3.481709743093332,-9.476421545304744,-3.466931700383051
-6.235733537762551,-4.491870442464418,-2.3002828256172814,0.6207522045221685,2.58000130148848,2.827839202783952,1.258817397550229,3.435790507739943,3.741556992598932,10.551603613045556,14.885685936465045,4.9379419784271406,-6.90514553271111,0.6472246409974689
-3.768479792357264,-1.6724146047715327,2.735212807105372,0.8878132337434257,1.8647793246739148,1.887072992891356,1.6213630905701253,3.610780948260057,2.949315588231023,13.856663508685534,20.1132437667187,5.2585948281593735,-2.9101831800881124,4.677708581566126
-1.6474843501715752,0.583760625984919,8.227239480982236,0.8132429978358955,-0.3523112520931428,0.7407653099034511,1.6432076313128785,4.70514428255844,2.481975828357982,12.758452990156128,16.413742723155526,5.898070520318954,2.052561188705251,7.252757878197963
0.0998197057543641,2.3331959856057214,12.328514250718095,1.3457521955306675,-2.259091695227361,0.0613814996258305,0.8421503916650791,3.274992816121696,1.6448913347584178,8.791240816469744,7.148108750812517,7.559440963738484,6.998152712504397,8.182709399141787
1.533239959800608,3.7015822221567176,14.01010816581065,2.5543969750438094,-2.6818534785020915,-0.2003287094621335,-1.3621104827524446,2.406494237919773,0.5228191889900884,4.904147549234523,-0.9883918179814676,9.635268877470669,10.499693372246911,8.22415501965789
2.546247991800368,4.603883073793601,13.610316560140776,3.696721004290266,-1.7994740681331036,-0.3995643291814224,-3.532634894255585,3.525601867520046,-0.1513262285656401,2.9662038640599566,-3.705954856483317,10.973610769342,11.547388551100882,8.160009560324026
3.034349941718525,4.967151903219632,12.280440802453477,4.083909375971071,-0.5837320400821617,-0.7244929853914344,-3.565364525765575,4.04998031073546,-0.980167884368031,2.735418585898132,-1.7921808011250917,11.023277483276177,10.32861426407378,8.20054720300482
3.201408295186864,4.980535219700862,10.986955968651202,3.775878216058394,0.25089003393833,-1.1392703675844642,-1.2995293097466587,5.097460995890568,-2.1138555414533373,2.895600731930244,1.0849237818907993,10.21348656366001,8.062649264213352,8.121432983300677
3.490528827734821,4.97229784447305,9.98610930788202,3.4023011917401087,0.7220617756118584,-1.5765604025900148,0.9374349263144904,5.983294723674456,-2.8667979367870977,2.6395032708419617,2.3802931151947533,9.398825577701585,6.0248283999052505,7.743503838102841
4.117289364729005,5.110800489554995,9.047460957836442,3.418960001020362,1.2321328549351391,-2.010235667368394,2.823221956143738,6.199106314040037,-3.2536875128338707,2.103082555258386,2.3952040927517766,9.087394869467529,4.674687917515019,7.17910806614506
4.798790919147103,5.346646841140672,7.96762186605913,3.689883866623972,2.0186089963601925,-2.3720618635291126,2.967689578848528,6.90561830203118,-2.842750823418277,1.6412377287795314,2.8006773622809518,9.17271614653852,3.649958014949073,6.723223754376001
5.113980716173354,5.617748856692287,6.791090714620383,3.801995623864842,3.003015692131758,-2.595061597054046,1.292234277383523,7.976433590122243,-1.9408936668514296,1.231689027260246,4.354716487458526,9.204945315305263,2.4199800864820524,6.595763362825812
5.147210440867908,5.928804749464375,5.650927263789376,3.631254452862336,3.974287889848917,-2.814684122650391,0.1801971358464525,8.316840405160677,-2.333897553271704,0.7612560358770248,6.325982704329642,8.815254217437406,0.8515067729579777,6.713440677894143
5.567634198163621,6.125128550918898,4.576291668797639,3.453887572443096,4.67060044475541,-3.377046855597391,-1.0888411943450775,7.802170212736226,-2.861940065383607,0.5173334463381488,7.66874274256832,7.96238440463855,-0.8115644521227079,6.55642675810641
6.8482361849210935,5.735959895778187,3.554108101115906,3.53336726971751,4.673296429208071,-4.424747880090058,-1.7627381297581726,7.181365888812849,-1.761497004273844,0.9129244024236192,8.149166236820571,6.910419623430851,-2.365649053811508,5.296773629814465
8.431080117149012,4.349916038895399,2.7479050673102483,3.7761756100375576,3.5139324112910737,-5.422407410664271,-1.615460173348524,7.024402975785616,0.758555095645204,1.6917820346711812,8.196000836321343,5.999208041663712,-3.890709831083103,2.397571034035868
8.96214213542816,2.340555974117661,2.555713986270815,3.923191988536043,1.2315226247759417,-5.28279115528454,-2.42381311442972,8.815816910236359,5.07828077635822,1.85427386382902,8.024732009770656,5.379595105605802,-5.505897171522635,-1.5369483704327402
7.64385207051867,1.098756938511304,3.33809843642774,4.014350808521267,-1.119685636133312,-3.231464583462428,-2.847456164574447,11.86452754754232,8.992740053384276,0.7887514027029754,7.3318204755886685,4.951772065402678,-6.935573660769889,-4.514707085793448
5.356241488179521,2.1659782474960307,5.00186086308675,4.468317804853865,-1.8511395860625104,0.3197865181942301,-1.9274742606788675,12.942056251279007,8.893936041964054,-0.599003788978699,5.935004151748108,4.605989487925984,-7.481857211910459,-4.271940225622642
4.116692383772055,5.771756973911428,6.786483522910937,5.5687058907392615,0.0091267737182676,3.8342358298344337,-0.6919767345933572,11.113164709964428,6.922600668999069,-0.3524328297041164,4.493534329202781,4.479870262943207,-6.648757993535512,-0.2925068781784191
5.090893809664459,10.134060831326984,7.510046335561928,6.932513609791313,3.5305845405283964,5.761487203657307,1.0641857331645834,7.117947289994106,6.758154320442337,2.5435619003604346,4.251991332313468,4.821589672273319,-4.922337964713265,5.034390051028652
7.088742912898186,12.46690605135097,6.227714671515376,7.67175253506719,6.266671427424673,5.754636855915706,2.4470155334148687,2.461802304543362,8.208757254935628,6.649275925297258,5.817338378954669,5.4689259680499145,-3.7702166464651454,7.682403883939205
7.29367931131554,11.094896930900148,2.9266669422878264,7.221216803451567,6.273913304747966,4.880439134103713,1.8998301517117544,-0.4949523891043202,10.124529069257898,8.857704353305195,8.124222877785929,5.5470698564117935,-4.513724925849479,5.15574829358162
3.800249899316738,6.89384582513775,-1.2805840351262736,5.979681446794319,4.021965704134467,4.621099118901367,1.231292333146053,-1.81882090147594,9.51883965474313,6.976231982167774,8.743637584572937,3.943366250491973,-6.92195946633852,-1.1390335654615722
-2.401332410514513,2.68997624102539,-4.734686416187549,4.9995957040364,2.2130558968529126,5.606060508909163,2.4198337225747446,-3.530054453178957,4.486330865785192,1.6822745826992844,5.60805301124961,0.3051863819264726,-8.96541131220959,-6.762117942507276
-7.968988130984672,1.0373400083291182,-6.271079508113588,4.955218851237103,3.4069722760826897,7.218409490197096,4.384283755187149,-7.178704658906064,-2.3107678924021915,-4.001081863060305,-1.1208234943369542,-4.390374466077115,-8.260739897297181,-7.9020181761007855
-9.833097793855163,2.293124312775177,-5.943324866997987,5.432300653762329,7.602249093536241,8.326891857765347,5.225718941483529,-10.693432769932224,-5.481582850168309,-7.127984813769412,-8.682516092273064,-8.366821398127941,-4.093361285011628,-4.588422462410495
-7.483632697968945,4.633911449262628,-4.8225462061417925,5.310179548335906,12.130025440055665,8.335176193449325,3.746259513410029,-12.210139464883284,-2.9259797918917325,-6.872222221272629,-13.410227550427964,-10.284478797339762,1.833207593004758,-0.4522623763093385
-2.979276730063648,5.848645513670508,-4.051933361524915,3.879555556877765,13.992303711175657,7.551329513379388,-0.476214328508834,-13.27382008196266,0.9127769841662644,-4.565554890173637,-13.300644350721909,-10.091378407347714,6.679290457405621,0.6901452155485366
0.9873106813168722,5.16906324728949,-4.005969179589849,1.571989959231237,12.36623465542628,6.677966829249568,-5.520176717886508,-12.504347808236757,3.9595366898512254,-2.144940500948259,-9.385112045141764,-8.804471637029597,8.64791227841581,-1.8868346153654816
2.9821836953466843,3.5403343872626074,-4.254713637324574,-0.4098583390327999,8.949806527558774,6.1109370994610135,-7.220175606376926,-10.639096432449088,4.763624958424842,-0.6567750597347857,-4.741317622627898,-7.547865398288433,8.14624367693186,-5.671107685999294
3.216572072903901,2.3807149350256704,-4.205698801093142,-1.145179525044357,6.091354472376677,5.774924417344503,-5.33467476596726,-9.876954537723398,2.216354794353564,0.0549972121978949,-1.9967717208448352,-6.753336452454327,7.079107524118497,-7.634529971085149
2.669705977307691,2.2387553669557665,-3.673252292832732,-0.6777848818275984,4.781929829382097,5.499211999343029,-3.086229300766996,-7.7204218285415696,1.456258170321283,0.6724625058087703,-1.4987685998295532,-6.09763304724455,7.123474163006964,-6.869491962089011
2.1453441627065306,2.593196913755463,-2.869397445869817,0.2349437648072889,4.359635377986624,5.3257418433779495,-0.8594682503541249,-4.182444391191763,3.3219935634991837,1.6284849350243125,-1.649296703256706,-5.057624616393131,8.543799638132555,-4.753604042344339
1.9563494227272449,2.697717538796784,-2.0345822936896383,0.9043016584198345,3.744207030701293,5.354251190313738,0.6403027909851667,-2.318801130016954,4.473446132279349,2.8365563069222475,-0.8541245990553143,-3.516473945255848,10.353092319471488,-3.0689325816393147
2.0220140118827405,2.389860576545363,-1.2436204477085226,1.217777848577093,2.5810115645062943,5.439917945325464,0.7858234032214189,-1.5788911990978869,5.392158856602576,3.928056548511579,0.9248303751903642,-1.904335037517745,11.419505745645353,-2.349048304458215
2.0117490977686465,2.071168831466672,-0.516526944579276,1.502707830165452,1.2285821145926512,5.287723130411816,1.858852550027091,-1.4048602653299584,4.691913890376995,4.687001860891449,2.464868414081145,-0.7669755556835938,11.535612725252928,-1.9246028382036364
1.5963766803654078,2.089519067311153,0.1027829908347186,2.0604901224961463,0.0588818115663372,4.912961637892304,4.036521364084257,-2.7774703125846347,1.8153111803009467,5.320360469879214,2.9189035297302315,-0.1330885449997474,11.618797417029404,-1.0543709113130042
0.9042393760700164,2.3395425924836744,0.7170993867245272,2.8865149176907856,-0.8672852019874604,4.805082480337088,3.968717765916839,-3.724713549211108,-0.5425000133934429,6.322025238645846,2.9781734714429806,0.7033508755111342,12.84486394347987,0.3552832295738817
0.7361152399641426,2.459383395697592,1.67672465855407,3.710540135797906,-1.5203693341849984,5.3460061012026925,1.9069865136981408,-3.4380819810921466,-2.3963591250963785,7.888536829606489,4.209346589724037,2.5658933825504127,15.266678913426812,1.9358119124491184
1.979417391227658,2.2913650494571085,3.232277365872012,4.189588157436029,-1.67023433838621,6.020502877184351,0.3104672230758234,-1.684024788704081,-3.100255404044701,9.359840405885382,7.202297846366911,5.351890579076912,17.106607849564114,3.299697361947354
4.50915934630031,2.047501596019771,4.975682057379673,4.088232732279305,-1.1695965741119745,5.47622936568804,-3.406947254750732,0.967149092659958,-3.080420662522928,9.377545133719297,10.46581370505304,7.611218498067412,15.700641798836475,4.124099433713063
6.787702674746685,2.0366901034659843,5.820941765647277,3.41580282920167,-0.3693163890062578,2.721911837415956,-5.581255143176756,2.45543661090648,-3.571265785612059,6.931714412469745,11.348708293169782,7.437641979001013,9.749396354175117,4.063800937932854
6.982155628761362,2.2855001852423893,4.860943508628607,2.480530221407488,-0.0153511016746694,-1.6082316399439502,-3.2099656892153527,2.672912025264278,-4.325649383204496,2.471706927367185,8.248906911385088,4.095273771113575,1.014620748731641,2.94131355150099
4.781930119354513,2.42707536936239,2.4031464200747195,1.742962892211601,-0.6346544212940763,-5.35480208592552,-1.8769174469549488,-0.1347550226670266,-7.180310384170445,-2.1301011681519637,2.035037160225981,-1.117658302878846,-6.409357759159224,1.0806463688956391
2.027645599571237,1.924481442942355,0.0558769177551781,1.480853501316297,-2.07442667571347,-6.477500477483401,1.9326276980190973,-3.7168208376984655,-10.223437787848376,-5.042730525531347,-4.6770747834660575,-5.688619445907236,-9.075493429680948,-0.7593297971364859
1.2104095883701476,0.4056228443428047,-0.4514579766740105,1.5131209808032473,-3.6769118151698335,-4.785575886606821,5.902086117095976,-4.711132818578282,-11.085167509793134,-6.122955525191703,-9.633320623063138,-7.728797333222293,-6.988670386578249,-1.9648314576445247
3.103750677801955,-2.118992075197575,1.259279274095103,1.291131386053383,-4.834703551811135,-2.079073195215596,4.273998187970872,-4.849234721618958,-10.81709506739984,-7.075221732521495,-12.420157760367228,-7.176564049018083,-3.64862599818672,-2.555438274722185
5.852622682005119,-5.254982552737408,3.7759213280782,0.3243586837290806,-5.34783287312181,-0.5582113514526981,2.7717951896752617,-2.8841934661683077,-8.75784087467303,-9.776889678533337,-14.06302101867352,-5.442944178212752,-3.1996502875509982,-3.0296666900413314
6.500372730004333,-8.384549345996493,4.901173569401738,-1.4612141685476292,-5.35464266521714,-1.032766410613149,0.1302688851864417,-1.108722413642537,-6.676181717210193,-14.279663811103022,-15.449960212453552,-4.1180540975820215,-7.212054949630053,-3.791086474618972
3.5451872581835,-10.915732538279917,3.2653394195087118,-3.778836830814932,-5.118330235930559,-2.561358363896261,-2.6316372982964,-1.6118382806911995,-6.56034460068447,-18.440683939877577,-16.33368062808136,-4.026149078663185,-13.787064974246126,-4.832415267596938
-1.8324087088975087,-12.509403718752663,-0.6710951002216223,-6.319593174201019,-4.918918731181021,-3.636475959478791,-1.3413995611852638,-1.5709566504537422,-6.903336417225087,-19.594850014386623,-15.801953688329942,-5.132390485456034,-19.38454388436542,-5.905570026917424
-6.83920399524013,-13.203843386921816,-4.84838147464445,-8.90910001736752,-4.994008510560917,-3.5793966729251903,-0.1601817191209676,-3.372738870243022,-7.987779943028444,-16.715203354174548,-13.450658733938225,-6.785955827115423,-21.44074008528876,-6.7265325775982205
-9.251588187413226,-13.375107754868305,-6.842190783641296,-11.268665462396632,-5.391686492822545,-2.844093822682387,0.0535860630566147,-5.127888137435003,-8.773384681535928,-11.118276422706192,-9.89254019431555,-7.808741814275727,-19.64826210849601,-6.835887322776124
-8.768711348248885,-13.517118878753704,-5.372223601026292,-12.742391264523784,-5.852230543382616,-2.2168539662779274,-0.5245046490886843,-3.9525195207284862,-7.643576015976284,-5.281007388565641,-6.19045999487378,-6.752752825734937,-15.392105034882814,-5.454402891605604
-6.704894575730336,-13.903025485614013,-1.2415033513745577,-12.5327454663652,-5.953905977005025,-1.9552533150420963,-2.288713645137478,-2.081040747465118,-5.826260579848979,-1.0959124554842852,-3.036463084291864,-2.842782410125075,-10.349995909522235,-1.9465924509211696
-4.718789992396971,-14.322810798439562,2.953190443040672,-10.454024303275531,-5.486792573738903,-1.7451481231310666,-2.5090249882201734,3.1161653350185774,-1.7348255886614914,0.8853854436517992,-0.5964051613425276,2.8240743966713,-5.472240873327117,3.2098860561951525
-3.786261659223783,-14.135093992367644,4.383340688387026,-7.492036960083944,-4.678240427831529,-1.3225019171964192,-1.055228229374629,10.011798688411185,3.501940646821561,0.9618470901955084,1.0314071694602625,7.207744465920115,-0.866060983156089,7.97421692473516
-3.9613575868158506,-12.73120035898655,1.9302092168856435,-5.392529793466856,-3.990251124720704,-0.9292821376788752,0.9542303615417392,12.69000170438864,5.848766343434029,-0.4380944041157697,1.5386341581954284,7.197613156703422,3.546849052999633,9.702755633274576
-4.70886582823843,-10.097942520272175,-2.953722951101465,-5.355316963326544,-3.670174161568301,-1.0651427441206955,2.4094891490010446,12.069156915706486,6.2698440638186055,-2.7855691224431283,0.7863953810310207,2.2977675062463554,7.173406583334668,7.083134542067093
-5.366389002338682,-6.971704959530083,-7.274901054092783,-6.89552213514207,-3.5349347123529817,-1.839825161365308,1.252174267404946,8.146330429235812,4.333725249269338,-4.991490621812485,-0.6166183721934289,-4.287866140583191,8.490483102026825,1.4290315009944763
-5.510133284098892,-4.33971001322228,-8.68744519801552,-8.024863984417951,-3.218049170180929,-2.688713487863492,-0.1738347532489299,2.746175757255056,1.3426657638796948,-5.421417229337596,-1.3640143726822591,-7.600583002896542,5.962187068244699,-3.980628363674637
-5.161720964737459,-2.6989435523341925,-7.068053457538586,-6.842773813151982,-2.610915572521776,-2.850551980033906,-0.6675241321601154,0.8621911008309311,1.0057403440739423,-2.872010623915717,-0.3498880831794331,-4.68509465129587,-0.2902656757627149,-6.216236129673391
-4.733379956490513,-1.7733925584896042,-4.246911464766061,-3.2808270942518227,-2.006335237985404,-2.195484510463441,-0.8464578353584036,1.2788496486000809,1.9488957483448477,2.204233142146162,2.2719024370978325,2.8901505874412337,-7.570088251318291,-4.815289368391042
-4.692983211246702,-0.9813245159402656,-2.349745915978154,0.566448137387713,-1.7885828064729985,-1.56595383468256,0.6306432690545285,3.71441449969808,3.942751698708256,7.471151924050215,4.855395616832549,9.970602336642663,-11.759177494523158,-1.9562808999243195
-5.164389698965195,-0.1398275454330324,-2.317285054413865,1.9687001608500052,-1.996467808247118,-2.186833834425112,0.296044776987968,5.34521695966836,5.458831944529472,9.99910338471706,5.24872215879995,11.577647453860198,-10.088004620106556,-0.5518438432607553
-5.777501654960741,0.3988266726328966,-3.6723504150551776,-0.2257480969728682,-2.2208768298313863,-4.575653328226565,-1.5048699250834543,3.7942667894083897,4.84114605526967,8.26749329578313,2.4193775630041223,6.524772769553824,-3.2646790018599923,-1.8534315562336587
-5.929267442218164,0.3275584761885888,-5.294715570921952,-4.537493861282297,-1.9655096283728355,-7.940145887003014,-1.7416225276977215,2.060528301691814,3.794560927980104,3.339180508514328,-2.467094100587772,-1.886835157172108,4.988373960148419,-4.531659266926763
-5.2284769577923775,0.0037047416315072,-6.209940489208229,-7.858393400249557,-1.1199413252079982,-10.6627598249563,-1.9673391130749995,-1.486766965361364,1.9654782679506693,-1.742784898103233,-6.444988701634745,-8.406017820340718,10.663571904430016,-5.873853584340335
-3.7473990415147416,0.3487823961933571,-5.8463431479625445,-7.682542134198062,-0.0675172243090429,-11.484758488559256,-0.077952786561277,-4.063482864733096,0.6543843732179306,-3.9199416161971854,-6.547299948146582,-9.420381327821502,12.104067240895018,-3.965775825155117
-1.9204720312890424,2.056009077920562,-4.017770119731379,-3.7718673346583222,0.6661979458431819,-10.350500546592157,2.547842228291586,-3.0313580697267035,1.039209066564082,-2.0188421730602126,-1.8207979889731136,-4.925661970189303,10.45090473781367,0.9427492517247504
-0.2298882740212811,4.902620871068267,-1.024150698248631,1.9371393467150373,0.8683675187770881,-8.234932531539958,2.721655686192156,-1.560385855394366,2.0663811745938565,2.727832892062132,5.939669865968387,2.170709612057342,8.006414736285192,6.814334537941528
1.0345321390918,7.848883064326642,2.242702653247724,6.880929004790975,0.7566442732599796,-6.257778214025402,2.9898046927080832,0.6730870263328727,2.82139696771617,7.7586287890429,13.33925900756824,8.35943774787991,6.3223797693508725,11.366013514689447
1.7984540802784217,9.779280242400512,4.583414635564871,9.493560747470148,0.6827775027035283,-4.966221588938742,2.953098466854102,2.655556069614574,2.885359654467241,10.920632457049855,17.569458211534485,11.556744988534064,5.511067703541308,13.398274858628168
2.1049074061448305,10.216203398672471,5.193514121280616,9.778002081245406,0.7866706353087487,-4.308412201310329,1.917410994121128,2.3432186210197568,2.5480761650617474,11.603307725596288,17.983921355632564,11.686402767636569,4.815329780827754,13.058921257002096
2.045178467468148,9.475196144678296,4.229095183129248,8.730789943599827,0.9685531924434764,-4.019893606050872,1.081208533981361,0.9288170987882124,1.8595071529804328,10.631051918601504,15.975603202876783,9.97905968589628,3.5250109537060856,11.255813250449023
1.7733620435213249,8.319815822476883,2.667058926090961,7.391266189291391,1.1341116393775224,-3.874805045780658,-0.4745296487918594,0.4524731269623226,1.9307365379340875,9.278087872128392,13.509387084932277,7.855643357355015,1.5408683848140674,8.96095707668029
1.5048793922727794,7.445835732442876,1.5112600963700196,6.275429821324398,1.339396904977015,-3.671942957690303,-2.722502438324606,0.9087376596997754,2.7517199380627364,8.304406962158449,11.664372982424204,6.133208253444661,-0.5950976282088907,6.836944506677997
1.4058680199152476,7.069396748122929,1.0241148885495943,5.3799310530237765,1.6416181880751153,-3.255408845569605,-3.38793125083321,2.1128864160013823,3.337277475494524,7.678136394764052,10.28610064664912,4.825128169079889,-2.1729395938822336,5.116029620355739
1.450260099979182,6.823024155826977,0.6608673817838611,4.478354534011148,1.9098671562969525,-2.700631844389619,-2.534078350755132,4.166174868916296,4.038337169700967,6.981777035245214,8.728021792076248,3.466557225768188,-3.0664501673375177,3.596086420108786
1.4373308652119403,6.128764429316285,-0.2448582247133863,3.4027170253274104,1.9552868224567896,-2.344725175174309,-2.5290199593898133,5.0057277792413055,5.117302260819652,5.987611696074742,6.760638754615654,1.7010649347410762,-4.088533681732825,1.8480845119478195
1.2134249470847696,4.903270880311493,-1.688010391350307,2.1878721631660145,1.886529110094308,-2.3871742440141333,-3.2312950894169985,4.825845954262755,6.545295479015415,4.865310527596442,4.745740479304526,-0.2957698399103439,-6.240710540551586,-0.3210179690334875
0.9048463670676784,3.9545304829631913,-2.8327719235615056,1.0930297721436677,2.1914479680200696,-2.3802978792799045,-3.59527922012326,4.513165558884379,7.383557157883854,3.916024886036832,3.0330474534918057,-1.903409432606047,-9.168158899242655,-2.4863275296713923
0.8674588596985195,4.382334051925769,-2.6948690105213338,0.4718386384552762,3.240554479138753,-1.3360836410808474,-2.758635829437416,4.0873366315448525,7.206879989387968,3.134497852503575,1.2852866014674549,-2.606730471428872,-10.506536556527488,-3.7923876257398135
1.355942463885409,6.228102888774,-1.0685037807331383,0.5278837458196222,4.646110299457448,1.38159501790577,0.7023103366654517,4.796280942000306,5.977402716210174,2.0885547755308966,-1.4261208531294436,-2.4784423604891828,-7.528820335940228,-3.690721967240254
2.255687210600133,7.725827620679498,1.187484575137777,1.1049734729687266,5.283597282255013,5.198543454882586,5.983872173964689,5.611427919234862,3.661811531031941,0.3407580785414339,-5.604640267537626,-2.0759792282500094,-0.1711762740876672,-2.5314065431280355
3.194099213233331,6.3521917434367445,2.839730929287299,1.6810778339686294,4.182272108357601,8.512600353096571,8.104563578193956,5.048175092002503,1.4909608399167282,-1.9037318935445224,-10.228952739806834,-1.833649509787957,7.63607639721951,-1.33243783156885
3.878976386267976,1.191005392937269,3.3015366147988754,1.6145696879012643,1.5167465580621098,9.92931475148066,5.46055075695207,2.956878058839811,-0.2327235870946105,-3.609523191667927,-12.791492754382604,-1.6613675691433585,10.417996178342642,-0.9090805807347824
4.2151061009437445,-5.569820962088166,2.9749443962008257,0.5086373106246018,-1.32913907020483,9.431822787680254,1.7743171718480508,0.0563933944937386,-1.1566331132035812,-3.6003912821637503,-10.91345571804475,-1.2381048866644004,5.76662243020407,-1.2658626973500642
4.039181531161264,-9.84161053763652,2.600806119455381,-1.5064067437414534,-2.7946406898869656,8.353784833277073,-2.406563983884896,-2.77639370695605,-1.8135739704771716,-1.7159171357775094,-4.496390848425547,-0.6333246418106464,-3.222946560993414,-1.857363710492688
2.907331862275302,-8.90805900869282,2.407977664531338,-3.71505787393286,-2.325996120577571,8.211353488834687,-3.9267032891089273,-4.160604044869645,-2.3063342663054964,0.6511902907776319,3.492846656174085,-0.401553404215794,-10.392088984340337,-2.318762750019393
0.4675755500026985,-3.903000839412208,2.085671223908179,-5.05164031682643,-0.6234778791832554,9.531866788881606,-1.4077622252553903,-3.6822475628039792,-2.3880015537390564,1.404115006732162,8.662645553525792,-0.8867127006217652,-11.763892146332198,-2.755957655468002
-2.7629412843345187,0.9630357535098836,1.5873832720825294,-4.608408486206073,1.1566732729263889,11.663518272450249,-0.0872833185174373,-3.796800444864464,-4.75484397217212,-0.5148110598843001,8.22527753912058,-1.5398969970340175,-8.5710593232103,-3.3090109481284373
-5.149323238166398,1.9609989746491707,1.6383128719864972,-2.2246570333952587,2.3322300567048178,13.467488987168643,0.6157472308833565,-3.994367005769028,-7.639766372982935,-4.034993126305324,2.940676712200408,-1.2678404948297215,-5.210503749451222,-3.677821014852819
-4.895393797151206,-0.9518654285087532,3.042591606453934,1.230548308474603,2.8755165596235805,14.048264486797391,0.8795052804379733,-3.654268010842824,-8.635402001885415,-6.702683380196569,-3.718625387450629,0.2847631361251057,-4.410575261373465,-3.3715394888015924
-1.6617206736540506,-4.216193115388854,5.349708641167187,4.200784869668285,2.90101013950936,12.977052402752058,-0.8280791371565625,-4.295514991591372,-8.399792155256256,-6.75493391705989,-8.390629241996953,1.8653515267479344,-4.671842958725241,-2.4828497683957904
2.6694644586059013,-4.003522282124793,6.530244494317186,5.300562631245493,2.270885944830969,10.196149007174458,-2.093919712127814,-4.832892526391399,-4.682131819881051,-4.659187604968785,-10.10060365781908,1.3769630148390115,-2.505417022779034,-1.988836680739672
5.0957969551568265,0.2016297160518156,4.506097150116602,4.115208281839976,0.8270100491508643,6.058872484489073,-3.8660508867461054,-5.832419412195524,0.2095205188952774,-2.6239034845892046,-10.095983827505815,-2.118832827489692,3.0963713133102733,-2.967333254439133
3.813504911558456,5.004226891553401,-0.6560218451674071,1.3552051262196088,-1.110658515453439,1.5034800174593332,-4.984491708122856,-7.598849451957339,1.7786937476844948,-2.4959567795824924,-9.773769663006936,-7.028229739705447,8.809792919460017,-5.357883285779161
-0.1745586279713435,6.061707486488821,-6.110534370178398,-1.6579707420636431,-2.689995359251867,-2.0696826494731457,-2.7074876796511878,-7.146165982134413,0.9731941545407108,-4.039212066863168,-9.010233009862052,-10.013468947942853,9.836964215509012,-7.557416833339021
-3.6154599118124224,2.0171167912941943,-8.098014243359684,-3.669148965847848,-3.0883983590840884,-3.4560354668513806,0.1947255613460493,-5.410319558722205,-1.82596326904076,-5.214970738765688,-6.551061796976367,-8.512082868876817,4.668094365910356,-7.449833674933922
-3.384959114539754,-4.073397137303534,-4.844809371986797,-3.842221741505776,-2.1091620132165225,-2.4335548007794348,4.472823795771139,-3.016854371444667,-4.364701634592937,-4.143677683295877,-1.86820154518551,-2.8486940342501352,-3.009293355101752,-4.080136231656798
1.1663026119365831,-7.13484448499624,2.0267565052468424,-1.8311947420526329,-0.1878972289844824,0.0392444966099816,7.298185721575572,-0.4876152762669857,-3.3840418214668957,-0.8604788533577477,3.598149623610004,3.9064557329681353,-7.249716895397043,1.4250939315819051
7.677018906120322,-4.303876795263012,8.72495211388494,2.073720206005957,2.1125366435579185,2.4961735391673034,5.046266826048504,-1.30967062339202,-0.5688835426732456,2.696560700333359,7.158099403005034,8.18254336586726,-4.94098916699566,6.441758533762993
12.399889739122232,2.620959480261888,11.985612451056832,6.710254076552882,4.473428158151915,4.000204809068668,2.5101962368068547,-1.8864378368280637,3.674963227756349,4.331014733549262,6.935302918234687,8.385632070766345,1.6518208486437214,8.514781433142545
12.750123106894517,8.594403000550784,11.017479193353896,10.183936943895477,6.643119269646551,4.635501907653897,-0.951394184348415,-0.7233871047300593,7.606231936326793,3.28503521919351,3.342852308295768,5.696054993201461,7.158995058040913,6.946782131676375
8.987149122568244,9.37793897622331,7.478231333076916,10.766733436284689,8.049402920293527,5.011019272141059,-3.8797404967084455,-0.2188188067526545,7.984075917162668,0.600939475561173,-1.291194224909317,2.819410362723429,7.996183839435279,3.290243474021196
3.931396661692649,4.801381683112478,3.9946333883081007,8.147685222860517,7.876724980100645,5.291884865086463,-3.2121799984127524,1.7716238851283974,6.898496111007759,-1.8734102306458933,-4.4534571173861845,1.9012810602459247,5.353306888148717,0.4135788643384899
0.9660345026546916,-1.3889165544673912,2.535062726233468,3.966622801882897,5.762674543607293,4.805759779450844,-1.7735905738671334,1.977526115586013,3.767947441356677,-2.772723791578997,-4.968686460881065,3.180620239420726,3.6093508330850064,0.6308641561301052
1.6910341907796127,-4.705939639320864,3.498868443442703,0.8846364387755372,2.449455353797425,2.7469088259680365,0.2527768143541866,-0.866783186137025,-0.6952472785079067,-1.841682606596665,-3.2745992535404227,5.101925675095515,5.762112582533685,4.000031981277768
4.832752922981543,-3.3001706379852944,5.656161727683044,0.6711406186328777,-0.4233200957959013,-0.6825642476234979,1.9130283783024056,-3.1799969033915416,-3.373336802542129,0.1853018604849055,-0.7200456196900085,5.525586514167321,10.16791123014665,8.003654393965746
7.175192619412684,1.0963155022380189,6.794414235241414,2.793809642624227,-1.4345941373963311,-3.9865822196377287,1.4107805210049726,-5.644552572289162,-6.115217357463508,1.9870990313090784,1.181199385422916,3.127964747845174,11.66018867326116,9.090683196293105
5.868510955361986,4.964465978811134,4.914172733277633,4.736313406999299,-0.5248778070058471,-5.507659615111265,-0.3768084099564982,-6.713971340985229,-6.672802100392435,2.089827145116363,1.0995375018075713,-1.826271319275735,6.144951853790788,5.191381578837401
0.4663045786748689,5.682567670311034,-0.4698081398074674,3.9079941559510742,0.8835126717682407,-5.00630492167047,-2.010306278466498,-7.109092166398312,-6.679488629733406,-0.5355013068306409,-1.7867720298204477,-7.668526342233719,-5.387871273906395,-2.617539837426918
-6.753473016007668,3.0200783810437137,-7.746418199614267,-0.3186821393717149,0.985195818129565,-4.038137350606199,-2.260259013309784,-7.987885090308494,-8.132957673106803,-5.706283136307613,-7.132690190339698,-12.27459038618762,-17.006763295829366,-10.663638822797736
-12.370296988173491,-1.2492697067773406,-14.010848852065038,-6.07677537589432,-0.9694333908942204,-4.573792923995402,-0.4539196919083098,-7.5718240833171135,-8.549506655072959,-11.68898374305788,-12.988628118102522,-14.241876060902916,-22.07725158832385,-15.161789670813508
-14.081088267033977,-4.82474325684573,-16.889535261319622,-10.386345152835643,-4.082061480723134,-7.11354475403717,1.2446660149601438,-8.857712721253156,-12.036008425478917,-15.939371127674784,-16.508876263571207,-13.599339079021862,-18.02400416223894,-14.725269990117768
-11.994238538095049,-6.245636800586979,-16.041636680310003,-11.302566551434753,-6.537077922123354,-10.167745200589064,1.5185260189009455,-9.322702990285824,-15.00880147492042,-16.697871008683663,-15.781912122710263,-11.609946275084942,-7.777128321612425,-10.968610276444762
-8.144215451880424,-5.44087399347953,-13.112927904768313,-9.106925401342302,-7.018376204666348,-11.620981811414149,0.8989399199149201,-6.809631578185151,-13.312455991407331,-14.184693466900404,-11.317755157989655,-9.795328464046442,2.9201893028814823,-6.872768745328184
-4.797335612656694,-3.419066442734449,-10.232824293501064,-5.715734077769001,-5.632171173233827,-10.601328751931735,-0.4932846538779265,-4.923465404176444,-10.082133432138027,-10.259259183689888,-5.646519974779766,-8.876380305743085,9.715682130658474,-4.429767232998101
-2.955947008565321,-1.4667592297070886,-8.435499088499189,-3.034370917079056,-3.632004882027165,-8.067375459943008,-1.012047214722787,-0.8359647466233535,-4.52806329573192,-6.826983396605469,-1.2499807363421631,-8.427086871715957,11.896867827343025,-3.54310868416416
-2.141771506228384,-0.3798198427878958,-7.353060205694708,-1.7657632706566186,-2.291880742815188,-5.750610754761006,-0.5887216825959246,4.1318614764760095,1.37178354141555,-4.533811869164911,1.171184079894484,-7.495099632636766,11.430439424898976,-2.871369849213828
-1.3698438546629743,-0.1684710535881448,-6.18181482306284,-1.497315276835816,-1.955598457283681,-4.674565017087316,-0.4861177042195507,5.509066756441419,3.2199882953483043,-2.904525770453829,2.4757770271850017,-5.605308793207428,10.461578426431691,-1.5092035347402015
-0.2412811342399328,-0.3393172376660907,-4.708057720342628,-1.5693308266441548,-2.0406262930970334,-4.62278822961079,-0.847047008092944,5.918130914676728,2.3430171802469597,-1.4290997992037715,3.5209446129567388,-3.2008203148956067,9.774383330898772,0.2187987678881882
0.8728923754621327,-0.4320529545832245,-3.336952315829146,-1.655719805102077,-1.847172519000539,-4.730297309611683,-0.9256971172926668,6.593232549299638,2.1781062831787708,-0.1399919589465081,4.312124438433943,-1.1083649281531844,9.128450791409518,1.4742879755273242
1.5636942707035324,-0.3280694274066142,-2.3323525728957994,-1.6600793106729723,-1.2844295549576843,-4.353254111186225,-0.4527922095740757,7.009888550783788,2.481369782062657,0.8862008092674625,4.725321751305297,0.3913175895109528,8.339045982580263,2.1161733375531835
2.063688287365979,-0.1771051878337095,-1.3746001334170757,-1.467608321291916,-0.822171916821282,-3.465581707037586,0.5400946779160967,9.01878057238162,4.080080252398726,2.1027435199125506,5.3964221596432,1.8459539862435208,7.641359568565315,2.924025551748418
3.0003109836479416,-0.1392660844565751,-0.0220515440474482,-1.08002133375894,-0.800968299954862,-2.515376691010414,1.9303258089860813,12.179456502561624,7.635494320786519,4.032511206033889,7.109090500447306,3.9065958432092,7.183741106071808,4.553642536584878
4.465663527987973,-0.2188513939730496,1.5762239186478286,-0.8367094152292038,-0.9101846592336696,-2.0378382020839414,2.6192161731309542,12.917963508645467,10.441401016265043,6.24837125655288,9.279791952656256,6.400900975276865,6.656081273197157,6.501907890469655
5.552501572546945,-0.2337211066385993,2.770170843693675,-1.071363908528398,-0.4303887703112252,-2.2169963227460903,3.291943837169364,11.7815894728206,11.660594715927797,7.417215588064753,9.92218609601586,8.356722447489432,5.690131950174879,7.459837792181021
5.096302118275871,0.1459534786134151,3.3428310103996823,-1.3543772695325424,0.9970146430768244,-2.5659660764641607,3.153619852914227,10.119424506891928,10.916089076949364,6.884280417332897,7.942580873934421,9.101805482535337,4.4973632591689,6.852256018041338
2.974606228524922,1.2333438487971486,4.109156886761536,-0.395616650970723,2.8805876007905558,-2.0601597223687937,1.278550932185799,7.982513149171285,9.083939485965846,6.0719428894217975,5.3314463541950525,9.2273113970376,3.7672930344942586,5.808296071074174
0.5072076225523707,2.950600231241363,6.179888251411202,2.735105451668214,4.1834344278092015,0.0762817647600817,-0.0747146159068593,9.383379663560612,9.03315086860526,7.557613836966341,6.018758259504635,10.131676646355343,3.828432869323594,6.216562208502053
-0.6667787817013315,4.489494251907353,9.43978800142413,7.048908934444587,4.114852430824512,3.423257768454766,-2.594348521215015,12.594653556586776,10.980325105882256,12.213282726144282,11.707517570185392,12.366170128671278,4.061879626202961,8.600797470084784
-0.1686077207341965,4.496738038278423,11.977644159432929,9.624020649156789,2.6484424707664056,6.236763234065869,-4.40077556600165,12.7350615912627,12.536099654923571,17.430070033381348,19.0014536357566,14.5313524149646,3.366480299839891,11.10526892950378
0.7472473685296022,1.9852732385903915,11.435118248756844,7.735676411118212,0.3806576389269898,6.60086341168693,-3.0429070313587805,9.205936152918223,10.208780446251938,18.82856134410181,21.5661511910143,14.158064769950556,1.2710129155976144,10.93321346054564
0.4763989193535214,-2.664085466275169,7.199635928365177,1.3863640374252872,-1.9633774180685144,4.038717082885405,-2.654607155378354,0.7859628910179774,2.9575590800294345,14.211499045657565,15.825625964442652,10.001519998814151,-1.5028866400936494,7.005327532623096
-1.3318069557766243,-7.615651583601193,1.2608289249725957,-6.28630485152423,-3.8403248032422415,0.0883774881471843,-1.5936131233370538,-9.275513317776872,-6.462865460399919,5.833673930087245,4.549011134760571,3.5318000404284677,-3.631073553279324,1.1666523646472131
-3.5164812758266955,-10.725623741152075,-3.2542904499651506,-11.33542813571441,-4.888578896470243,-2.824322369337941,0.1568886067367605,-12.93939213874253,-11.146619277062364,-1.4262242679694117,-5.451109547687067,-1.9859384839776315,-4.314939283652892,-3.341925691821678
-4.664999465305263,-11.03736917336118,-4.537114257999068,-11.974930996703826,-4.919115296280135,-3.27031292988028,0.6900825167546277,-9.47304632155526,-7.976784746038687,-4.196618549778677,-9.215773361687692,-4.07491655373226,-3.84954184622637,-4.636210452299775
-4.453353833552797,-9.30467914970319,-3.2391800560983217,-9.498043350787569,-4.078800626385339,-1.7659766720083958,2.039091392561717,-4.993912097718937,-3.3979099537600908,-2.971550002839913,-7.254306684278392,-2.8782861853571777,-3.200243460680488,-3.46247054172471
-3.697354337885944,-7.121563398913671,-1.3905472250996134,-6.558530631359983,-2.924683415533744,0.004349341631058,3.3987593742717923,-1.2154290726708057,-0.0318870336684284,-0.7057412070699449,-3.742303050287041,-0.5898297778720059,-3.127769582524917,-1.9461229730161664
-3.269328155322687,-5.547873041061752,-0.3888563472187369,-4.743187714928708,-2.0827893071474257,0.8404819293946932,2.847500603847326,0.0277766892467113,0.6962672114797323,0.3875401470479014,-1.935206997002956,0.7671481868789813,-3.650059033508959,-1.3860342491691648
-3.2521216922193483,-4.510407135730216,-0.0808490903686918,-3.722651020854656,-1.692772896733195,0.9631673903972828,0.6332223635187249,-2.017430600491469,-2.28372479546389,0.4238809677647648,-1.7352258130225895,0.9774493450521352,-4.201693412354083,-1.4091930046138406
-3.1930744933000383,-3.343920692240664,0.4582742801796398,-2.34885641795277,-1.2732048673181593,1.451288139133223,-1.5532765425434771,-0.5094718397183007,-2.028709662579481,0.7171860513156245,-1.2130382619474291,1.2595974238191925,-4.2324820419723945,-1.0235842116012428
-2.8958157727596987,-1.7067254550753894,1.6173040387866455,-0.1712966053952946,-0.3129766199706569,2.872991764413576,-3.669842888245221,4.895899072607979,2.1776891548804023,1.8368738504051048,0.5404066922273527,2.5594705647682723,-3.734834763597924,-0.0299064090918186
-2.6264912597378487,0.0901579627521478,2.8907633264305237,2.20259973923928,0.9755194274322124,4.555985095800118,-3.5463767584926766,8.129659002976647,4.796890279322998,3.1698716774257587,2.6434448906847816,4.412598849133138,-3.3251658806594584,0.8679071759334533
-2.4964314370510152,1.5059424588400727,3.649310070247013,3.950074806028957,1.661521701304392,5.254770343837471,-1.1264306271942828,9.463309546599111,5.775362704380469,4.076778234614634,4.031650821893388,5.453600016953774,-3.775623691079561,1.1477538436368668
-1.9456996520708247,2.321987490421636,3.9728768961339247,4.919504599558821,1.0438158551247092,4.557611464038109,0.2725015650352999,8.545436298873824,5.202328396411921,4.860713854728815,4.949751668965105,4.878328932398246,-5.265845084893671,1.242663826677819
-0.1930855222987633,2.706383811745993,4.578442648128894,5.616190855661055,-0.3905552424604108,3.571176526666812,1.703604007926304,4.523289285587757,2.9089663811227213,6.283598821725516,6.434252223957986,3.2832913875656318,-6.937483306496056,2.016514514463012
2.7067338225307798,2.843443507269721,5.996286444436249,6.472821004377884,-1.1277959320797413,4.020831095686503,1.8697331663941388,1.5308461856436255,2.1003817919427465,8.3031695139077,8.61351100840071,2.0537746948480344,-7.273966803623406,3.612194170450052
5.431529436191931,2.6037697372422217,7.902239072367248,7.24290501611108,0.0601359766106908,6.485368675985246,0.772568655690034,0.3895122064414515,3.095481179863628,9.623118961174953,10.010575371087196,1.973256605026013,-5.25760126916166,5.066172109899755
6.265726438257916,1.658868089297588,9.244826729111557,7.13818512955913,2.8878698182692606,9.485595134691504,2.036758255974695,0.3165259966945877,3.1266787854558653,8.687530998128523,8.743068897299665,2.457257942595524,-1.480973660860215,5.158021394603342
4.547141229055351,-0.0452634830239651,8.983072082070791,5.5744691180822885,5.6776405451947705,10.508499225337696,3.0842397706944835,0.7784870410752263,1.944360690206394,5.177298606447881,4.379369177464735,2.17477387932857,1.833367387880804,3.5737364124602884
1.285637216833431,-1.891781644478585,6.796659303157157,2.8662129881437126,6.780670509319604,8.202318688284112,2.5667286847792843,0.6822970170015988,0.2752954895641192,0.574923424783421,-1.387738868341887,0.4659616583872452,2.250330556889644,1.2073009627890547
-1.6414767921626563,-2.6951974792381224,3.301362856005761,0.2527522679941114,5.953200988696931,3.7126905112708792,1.5800881560625435,-0.8992511202905443,-1.808535406576943,-2.7641417666755146,-5.853750395314622,-1.833248693572912,-0.9034357423701715,-0.5919665573965229
-2.9263944963008,-1.3807620257098208,-0.2922010631120448,-0.8587104439138713,4.416371875729499,-0.1751558925772158,-1.5822181606205066,-4.307955668443053,-1.580422098735634,-3.3443664431465985,-7.243358877124209,-3.042617049957937,-5.627889928286219,-1.0394581454586502
-2.599086982482935,2.139962195842114,-2.862929481240828,0.0700548880462017,3.648287904393953,-1.342425270293596,-4.399373445026385,-6.642645202484891,0.9587952737752764,-1.7509096571626177,-5.970322457331147,-2.258715918391724,-8.463459536003551,-0.4046228913189358
-1.595689237589621,6.584875039510028,-4.02580474792703,2.2306846746838573,4.138690636006032,0.0548645122638804,-3.935993432065943,-6.3591779610118175,2.7057552480935403,-0.3398690416842225,-4.271889693622976,-0.4303852435338893,-7.206519917999126,0.1951455228657712
-0.76531789242771,9.86629238413012,-4.322521401663991,4.016033676822979,5.196553389219795,2.0637611577622863,-2.047926338264198,-4.114052604709622,2.825242147143769,-1.468416289560114,-4.463744294729809,0.2487213869364097,-2.982189162188142,-0.5642554385819398
-0.2896391724656606,10.373413279955296,-4.728217377129963,4.235322144062754,5.777329733684618,2.826736268529716,-0.2546427647003834,-2.5740280470658803,-1.445426051409628,-5.492823783471633,-7.064447024256962,-1.7644264542915489,0.341014595613192,-3.4015261651477324
0.1315789303284891,8.057616049883265,-5.769536647953973,2.9906691641892067,5.387643688980013,1.9878834225734796,1.0117729918016445,-3.6813262301500016,-8.096720536188752,-10.182693093313038,-10.278152785008023,-5.852940721801103,-0.680534677974153,-7.737860205917646
0.7572114773496397,4.424296946112424,-6.99018995318435,1.4430403614562506,4.28208120903801,0.4769339914860135,0.7067819211886871,-6.216306184872428,-11.069645946495283,-12.244648049364034,-11.375697996185227,-9.517851254983483,-5.875796800509889,-11.625687427512798
1.532224024330942,1.4107560276189242,-7.297536113714239,0.721268496345445,3.0021189945712807,-0.712821892494039,-0.2665821151437179,-7.852286325665237,-9.432614465215527,-9.85961370118811,-8.909755557209143,-10.25551603363595,-11.212435550828069,-12.700287481139458
2.208869642492965,0.074471650636072,-5.940223645556074,1.019500998708371,1.87307420215231,-1.352308679133766,-0.1042182149591821,-6.74982442757409,-4.608925779213107,-4.120132767241187,-3.886392973862048,-7.426443008666185,-12.013374289590484,-9.777480536135752
2.591182956208601,0.1331152401302962,-3.2420417503312216,1.666180618753339,0.903995465056992,-1.7905796536575034,0.3158532203866044,-3.749293141049283,0.3766357406370861,1.8603020245602184,1.084777465642627,-2.6013569426776084,-6.893546547833774,-3.8976148685043626
2.6364691006832053,0.5717029007586572,-0.4391211641356305,1.915823154486312,-0.0054965472192272,-2.33483268274144,0.536785921760791,-1.750900595780728,1.4874439734650062,5.30006595004906,3.769739419028947,1.6948166963663804,1.1560829589066492,2.1870138308431053
2.4244843094610102,0.6215253027689682,1.2152073359873905,1.5667673206478874,-0.8852325266877257,-2.969879875776083,0.9836515913236124,-3.2255384429214398,-1.8479227563193767,5.499719527965548,3.667949195322327,3.6739314349657306,7.460523409130886,5.818190273491047
2.103080964354358,0.2416453134508351,1.2760471989090236,0.8726711051831844,-1.7073465923335416,-3.5300539300327083,1.1217526516232157,-4.970996219656931,-4.225690650512697,3.692871019431175,1.812414584745858,3.147412377984607,9.468366275415756,6.076056283453392
1.8246260302687447,-0.1418954719492928,0.2325123732325233,0.0833924654486821,-2.47615732040211,-3.900451559545357,1.3007438399503188,-5.4347095078783845,-3.7163160896746015,1.569179947127969,-0.380625078632173,1.211132719039166,8.158578018984116,3.9837033081056026
1.647129716812723,-0.1879760278377533,-1.0353644565695936,-0.7486846223554471,-3.23315115170034,-4.030632534541068,1.084729009851042,-5.333060911730257,-2.170416362180004,0.010076047733831,-2.052187310585408,-0.7548089112783911,6.182775362452986,1.3256142059407097
1.4834773681148623,0.0585505681042874,-1.9208412079437127,-1.580641794512736,-3.99583862250952,-3.9268453633489617,-0.0011802253256068,-3.0369578976237674,0.8018831926554485,-1.059466613894774,-3.0990799135661877,-2.000512443969396,5.143915306260284,-0.7146107593650042
1.2049581036039996,0.2917066837472171,-2.408982274633564,-2.2633059865877807,-4.736034448618801,-3.761665044280592,-1.038547087822134,-1.320670782310587,1.8811894032553316,-2.100591419822246,-3.953455655880992,-2.748406945064761,4.756674910727227,-2.066852854549178
0.8243509472165362,0.2695908563385325,-2.925658088624449,-2.763856690512902,-5.446508206344124,-3.860871321772015,-2.2202622117291946,-1.0588531154373146,0.299656433349708,-3.4639719002630414,-5.243835857133979,-3.8097681328427,4.12534846130584,-3.361531536508081
0.5347840046490475,0.0433129344046565,-3.881874305871404,-3.3668336959241176,-6.194565398909349,-4.369578495563086,-1.986474832433304,-0.2795014787740307,-0.7593086084501394,-5.2178365193096266,-7.291989164480008,-5.711114722414468,3.095720179516066,-5.1954766726003
0.4658598061064092,-0.0726131607430815,-5.210261199483515,-4.363421508840602,-7.043968493052789,-4.892357115535114,-0.0381511724170824,0.4899039374638148,-1.2678844458167406,-7.06833588614952,-9.576122690652504,-7.963048558086191,2.115776460637248,-7.5883490554614434
0.4329606927812932,0.2444374495656287,-6.231750723658625,-5.432542153090623,-7.8626048663957135,-4.650095830268283,1.04634574288742,-0.0044577541419758,-1.0359598617149708,-8.31255014288796,-10.729404343181637,-9.176535756105396,1.2316568183851428,-9.799031861225002
0.0718526662324245,1.02233734641493,-6.045124665252881,-5.543471594668984,-8.204344994460389,-3.181459046278692,2.851527140378592,-0.5555573890087898,-0.2175720500970898,-8.110542871432969,-9.46346860831958,-8.11660587615479,-0.1204831762920903,-10.58248800871599
-0.662060686922592,1.8939784048900328,-4.245181965185498,-3.808809985962487,-7.473139769619667,-0.905811853825071,3.5991295678364965,-0.1283716770037434,0.1356957122554729,-6.1549981867451775,-5.8232537332829954,-4.8645913904323255,-2.146049379386046,-8.929852692848765
-1.2015775600277294,2.322307621444732,-1.4025222518143083,-0.5815501809345802,-5.372267777193667,1.1053054092005636,1.3977017952690394,0.2378905212506551,0.0620258935901537,-3.2163432053000083,-1.539006166233083,-0.9928122426120982,-3.888530632790785,-4.966377158581914
-0.7403301698278302,2.0662642160955835,1.2096289581592377,2.4756721877680548,-2.3158463764691426,1.9737376170700207,0.6103349136300039,2.157877026980058,-0.6745921492575305,-0.85101581224062,1.143618981667963,1.5494036307321304,-3.8458008307454423,-0.2091832764768852
0.9484576931639684,1.443839528263542,2.5118146842032143,3.653691432170013,0.6194343218477272,1.6545476306956788,-1.4833533401237018,4.119667634271947,-1.0064099897564636,-0.3104339250511891,1.2170897178111255,1.9081936107371036,-1.491443405375147,3.303922630329776
3.0907598619707226,1.107013028911937,2.384442202449999,2.66731533297437,2.321472813828672,0.792889176613035,-4.046346198954023,3.819688266187918,-0.355864451757634,-1.566862950574281,-0.3705184060384212,0.8376485601390131,1.991641989959388,4.464048994475979
4.424749942422486,1.468162000677407,1.6244816032992082,0.8431139130335055,2.409560890207924,0.0715087157598697,-3.2942504660755763,3.2203878637254504,-0.0034387193950484,-3.390908771824094,-1.6903322752070975,-0.1440441779801169,4.614205263105259,3.833633036248873
4.228992264492664,2.311692749444332,1.160331915210512,-0.1775128913153807,1.4641231055722956,-0.2741644575049786,-3.477058978925863,2.9221112890139227,1.2598437274469982,-4.440966314820827,-1.5401048100106784,-0.1020938420547059,5.193566141851598,2.940164622749898
2.8757217569062457,2.9902506812340857,1.2832498844153486,0.1092049851309306,0.4695839447196581,-0.4391938732084108,-2.861829014625122,3.0880433973693333,2.539520430508021,-4.341847957798744,-0.3056559476962679,0.687527566651891,4.102810914058761,2.8270736136290315
1.392216217010719,3.023560100245298,1.586338232210771,0.8890947509138654,-0.0125288214988374,-0.7287868754143156,-0.8229941584196894,3.6852508474352055,1.9271212030987048,-3.75535487400757,0.7026492403456039,1.2741486600878105,2.626732882488959,3.3168192834681927
0.5247630276637958,2.5164273718055297,1.5441381780807175,1.1283458666062796,-0.1393051713210029,-1.2750025161230507,-0.2672568447269422,3.668378761199291,1.1036211119877737,-3.487330758812916,0.6392786077857195,1.0614837206440724,1.7585829952906504,3.616643328253193
0.2336379135644879,1.9827307200655,1.0686093433223045,0.6435815665653646,-0.3249265149291496,-1.936829357375334,0.6129988516047276,2.4736308330271326,-0.2681085270262111,-3.627559993108617,-0.1264760088507008,0.3168510743063359,1.5617606143515197,3.400311757827674
-0.0055502756083596,1.7872632669939523,0.5106600041945537,0.0540205239446303,-0.6308290822218217,-2.396609374448209,1.9458759127700096,0.7353419745038442,-2.3335889714743066,-3.614887322891179,-0.5420884534938901,-0.2268280878167186,1.4471038658441646,3.090153631847853
-0.5537145260801131,1.8051521223195983,0.217082030393553,-0.1122960337779632,-0.7553385054785142,-2.44566452370926,2.8803246647369867,-0.7102490224038567,-3.682037218264707,-3.060487690070823,-0.0616498263060041,-0.1814939444987588,0.8929083013656207,3.158161909269676
-1.3141472243528884,1.6487293086822703,0.1742541471098313,-3.936856221375962e-05,-0.5876169777645455,-2.2862617808393537,3.727091780584243,-2.0825512685428422,-4.941282124072694,-2.308673596443877,0.7536145349537646,0.1145171097402659,-0.0543399907528447,3.466636430812364
-1.9706150810250325,1.1853253709758436,0.0926277069336505,-0.0832499724501039,-0.5175373503163154,-2.4617939421909805,4.36732176691301,-3.809147508249296,-7.063473136001512,-2.0257251565315078,0.8847194176264601,0.0185032860641864,-0.8426680839432761,3.526783052237045
-2.3768187711250324,0.7386449101047141,-0.2337796609642195,-0.4706728266358153,-0.9641144083991212,-3.277533904850527,4.637146875699047,-5.942275986071175,-9.775215840265354,-2.286630920733084,0.108891422631733,-0.6475127342671927,-0.992264105730178,3.274314439171793
-2.680959855380614,0.6966692395857814,-0.7123226095039277,-0.7990313927012371,-1.6301070710152636,-4.229160182188724,3.473606427236328,-7.248105102841113,-11.295259243285932,-2.327518473134634,-0.5380413902671188,-1.3150193202599798,-0.743690109911352,3.23224699881808
-3.154459131720764,0.8992301871779382,-1.0775855450132044,-0.829556673937689,-1.5127050597459997,-4.220934565666616,1.0554359897591588,-7.722649133123713,-11.36725496495115,-1.4426040743331263,0.2048827360065086,-1.2352865376097295,-1.1191236497074106,3.712773202533948
-3.9756461677085664,0.480389853084632,-1.1721603404795733,-0.9365730341965604,0.0815709270810538,-2.629918760359668,-0.884550260035771,-7.90339446489807,-10.672639348378436,-0.1052655800686492,2.201766805341287,-0.3544908570391349,-3.089414732087839,4.030826651891435
-5.148564389140038,-1.541766640933897,-1.0893287510627463,-1.8000873115019642,2.539731363311628,-0.1992258142882281,-4.023186937242023,-7.611728189288968,-8.694175227501741,0.0780471821928023,3.4796906450876124,0.4318402951723161,-6.446849923187243,2.858360430895652
-6.518296515047079,-5.3462275379035455,-1.0898820712813606,-3.600812373930702,4.1959468787222,1.3484364032827774,-5.822526270759928,-7.368124834597123,-6.592879584770289,-2.1966191183199277,1.7361521277802892,-0.0168268452729165,-9.56231048965738,-0.4597177571771977
-7.780234033303,-9.852506387716414,-1.4454572056589452,-5.659360752610079,3.795982843037111,0.8032583953650976,-4.405553968357615,-6.267592371814329,-4.94588719004974,-6.478663610033774,-3.4651187201661307,-2.093837369476588,-10.595040070880348,-5.025359757612996
-8.470191658364145,-13.179516637010574,-2.3291812645072945,-6.958249353086945,1.7636168130709304,-1.3466740087780211,-4.302218285246641,-4.68759989520356,-2.460781146411944,-10.640046188958877,-9.944574242405638,-5.128566111954216,-9.170912126367254,-8.967664428156889
-8.026228673594131,-13.727131823999272,-3.713193217456122,-6.964807723068264,-0.0557012476558682,-3.2261984897099474,-2.98869765648993,-3.1165414329778534,0.5432409699154239,-12.456838403553066,-14.384816927467377,-7.942878117041912,-6.764309303881543,-10.906875604783464
-6.020874794647156,-11.135250339849938,-5.2273292271856295,-5.875818256224054,0.0247610185941562,-3.040061106674228,-0.69817197354709,-2.091437330800244,2.3069528173144107,-11.118598988427753,-14.648873758446436,-9.566188838760254,-5.177590866115937,-10.78846111780166
-2.5498668349048748,-6.529925193236564,-6.12738724381869,-4.150297241569756,2.131716520283025,-0.2818627852356696,-0.1576185331654042,-2.176648458099702,3.8057285127371543,-7.311878241571525,-10.879355559355185,-9.41834745531552,-4.593873434551558,-9.372969279118738
1.4489071005912946,-1.9821158443583224,-5.60673895538361,-2.047571694709025,4.837979801078303,4.211131824656572,2.3853043483702776,-1.3766243680004746,5.5055346478540725,-2.1966247491279205,-4.769559932968348,-7.134177976883684,-3.35596659069282,-7.207060050972523
4.343660236812018,0.5093047308714929,-3.400452829508774,0.2284955744374368,6.381593462869624,8.949845029408174,5.897388219024779,0.5541185083701292,7.074308451219929,3.32391495297305,1.8157467494206232,-2.7133460213083627,0.1034829676271806,-4.344466018165827
4.651642769631282,0.0718347201494413,-0.2013678267864858,2.087834657626347,5.890270926263731,12.348525073884964,6.481124062305137,2.753316771573444,9.344048370821218,8.35795234923176,7.498485526011036,2.9110946685082384,5.178000306974743,-0.9764659949149443
2.196989110009527,-2.445200719593542,2.6168307432927573,2.6424255603806213,3.704830336154232,12.977900990481144,4.352635481145716,4.015160300643609,10.114040674406716,11.643009073643286,11.285469235932792,7.721452796525634,9.159925302167974,2.048658172709385
-1.3921270400678116,-4.854862278113996,3.90875850255844,1.512348097865866,0.8884779734435462,10.014503458240466,0.3596601209196458,4.302649976598504,10.43980512444053,12.07041579340012,12.558136053296964,9.60894247996671,9.600695478862823,3.6524603711621273
-3.607054254197501,-5.122019558705793,3.5747415076400277,-0.5147258038907463,-1.4442469131875066,4.0097040443230885,-5.987489748278839,3.6621578524629,10.52963777244025,9.852586825519426,11.517532597731934,7.98217886990079,6.591641126740838,3.444192113952914
-2.970208084726777,-3.14570831696076,2.5727112170325883,-1.9398738522461116,-2.583188424270764,-2.799349328812424,-8.986232369167698,2.764754559882045,9.51200596572638,6.898396014546632,9.426933697593329,4.5077825704881525,2.6936271674068726,2.0376651380866333
-0.3465658531797553,-1.2935005611680133,2.117240504632628,-1.917223182107584,-2.443528492709373,-7.407600030496352,-5.574751490033542,4.573694715026808,10.734747173023992,5.579810866165308,7.96822515506839,2.0759415782815145,0.6352022815699243,0.4348405359466945
1.7065389387220868,-2.69994661224281,2.79330673455177,-1.1397240925908552,-1.5734948658306394,-7.82668541317658,-1.0262616889610183,7.723317511585686,12.062959711606744,6.868195428224972,8.09710691743425,2.746269453664979,1.1154706512625587,-0.7004046039721832
1.2019661349168418,-8.278446347789906,4.307396827122364,-1.1526139590383382,-0.8417236325907478,-4.361198181995666,4.987767772612926,11.26066846728,12.885219459815376,9.642598223094202,9.469106740525518,6.400799671221607,2.7242515195054926,-1.0312355063986818
-1.4122200936057483,-15.044110757290351,5.91843160615353,-2.633653552725124,-0.854129080863455,0.6919350678141312,8.223202321246845,14.616828558246992,14.125698730155673,11.835393885278638,10.961942772253805,11.104727722356913,3.712341336532037,-0.0658047150430389
-3.5815123005529594,-17.712586058516386,7.009925877321049,-4.397998795366046,-1.5054470589525195,4.620544932981755,4.75620911773699,14.460773584443746,12.421802055178162,12.24569172653892,11.708202064364482,14.620242609617767,3.656818700739027,2.797329471374063
-2.9240185685305367,-12.72237412187492,7.335717927152425,-4.260970816392426,-2.0920407527375566,5.884714049595397,1.2496975046278231,11.988570612817202,8.672464604243057,11.316773215555727,11.663428460162518,15.74507967205882,3.498239019243238,7.435856876967119
0.6772494324767919,-1.328233511526058,6.952479610517189,-1.0111630616301763,-1.928803801211913,4.662477277400791,-1.9720785983267064,9.491839093952022,4.2694182192080605,10.382898855553147,11.380948444893624,14.65664863332061,4.285587024436614,12.36720173068585
5.088024276525955,11.071360014578907,6.102667224957834,4.39993298811706,-0.9136625355138648,2.276314970138225,-3.765815869207796,8.189385523675307,1.028860689406795,10.359295692919584,11.411931477511176,12.395709435079215,6.103832314843714,15.38259054653768
7.875113158410533,18.905550954709632,5.155023272612215,9.563027339355465,0.460081871888887,0.1774315426985691,-1.6350707487245784,9.99143239872074,1.7046344267519618,11.126569878627572,11.90280053852904,10.115262760941972,8.125579801328577,15.1689091277197
8.226440979766803,20.25311844962676,4.485105428222363,12.467531880838232,1.5822672554221064,-0.8186188565188228,-0.1652685820521106,13.188003105007626,3.7878078076603137,11.917043021046146,12.56307076242916,8.52938877533209,9.44133632096953,12.382436179054366
7.151963755356602,17.36637307247835,4.24946848908511,12.774262032943362,2.185339779419781,-0.7359877922690554,0.1585229673199156,14.845592426900994,5.590595135568217,12.062984011559132,12.869221228039793,7.697210559975048,9.720756584980442,9.049013654788467
6.125120913675595,13.947791338271507,4.262213660822132,11.558896601763,2.399955705196364,-0.1292799705022389,0.2722484292132672,13.850920464879676,5.81457069768863,11.41013647653142,12.381396843692883,7.178563335186517,9.190895367246709,6.872668417527319
5.746249631415708,12.051513371804674,4.161906041604894,10.091168078159154,2.484752263012485,0.4400616565082345,-0.5969853149550659,10.114602888967898,2.8655169911021017,10.222551976141808,11.024853932559315,6.461571397728235,8.220784066755911,6.08731426071347
5.631357180820686,11.271976261801951,3.749332769501539,8.911444053472614,2.578600276750997,0.7651995307714898,-0.8943869998817565,6.148269795206457,0.4927937432054727,8.857491940746645,9.138310556652872,5.366698377866907,7.044745549226857,5.787497506113109
5.254982445518138,10.252563680932962,3.150347478954263,7.848661421632407,2.679301413851657,0.9757445627143966,-0.3437724975136083,3.512675723872854,0.0725914905214599,7.524150577334975,7.2041010483784405,4.102486051215152,5.794353291507065,5.10991258319914
4.6014819433308,8.439206615221465,2.638865292231941,6.609552585321698,2.7551119605816936,1.2543405587495258,0.0222456623913406,2.421417804319082,-0.0378191625687797,6.242998625300853,5.480873026687686,2.961105282884372,4.5952142598461805,3.970796619619179
4.011786964056476,6.365858949859593,2.329900355511512,5.189336542207613,2.81380681164325,1.6264905558291254,0.2487735357690716,2.5444234537378203,0.4472714757488637,4.952370301648848,3.891108554315682,2.002266840034718,3.5203139667238723,2.815104190031814
3.650469153997495,4.697759939034004,2.088975215665812,3.8016800119400607,2.8771148369420096,2.0030364731923207,0.2960503135473993,1.615784834686052,-0.0292526956632075,3.629960038749701,2.2441955317513944,1.0583692698254623,2.4922847237556702,1.9520424931298697
3.3345786760228187,3.439500677516122,1.73167974707982,2.58491152508509,2.9399909068749075,2.3327720304131176,0.1930347796959338,-0.0137158226156111,-1.802387221781145,2.314161253676115,0.4929122361196754,-0.0069946799801492,1.3484098379650895,1.2756938076693842
2.850239095074894,2.110237820834417,1.2501448786153198,1.4567718486064545,2.981999315877484,2.642150795613883,0.2937806357793893,-1.4003029641567928,-2.9982133895862404,1.0227988997469772,-1.2755969276330816,-1.1404741593992966,0.0430789251987704,0.5097623535783598
2.248317038111296,0.4035700180002308,0.7994483321904617,0.2231895540024062,3.0064872128078086,2.9589653219726024,0.4381033479442498,-3.025400018721774,-3.735117729051111,-0.3076553279778942,-3.033679825165656,-2.219484647694358,-1.28539652107429,-0.4673019445384945
1.730412502469779,-1.5314222501220025,0.4859190125667147,-1.2107008321948527,3.043422737827619,3.2780588135549635,0.4945812017919747,-4.680251714773082,-4.643096060049766,-1.7540290711699171,-4.869815955925926,-3.2452320321589987,-2.5084648333420745,-1.5656034857607324
1.339518326005262,-3.346642185598359,0.2341703956084835,-2.7175540666704308,3.0964823019708554,3.598871404886502,0.5412524940392699,-6.523952996415413,-5.753243101185358,-3.2674862397219435,-6.796292337712838,-4.314530409946151,-3.68556089018783,-2.6167275620919312
0.9118907614416044,-4.77874453910016,-0.1032087318963661,-3.996766315721324,3.08258861355332,3.8972899108631225,0.5480774261943362,-8.088604485823927,-6.702973049525748,-4.63607686592534,-8.555643313058155,-5.393114464974673,-4.886052406981683,-3.46785915258895
0.3426315420792321,-5.628054125285608,-0.5380184566972055,-4.757453497092435,2.836845297156735,4.012552181533764,0.5023271534588785,-8.604730707432374,-6.995429849553843,-5.619030468827688,-9.70302237199025,-6.209455296088322,-5.81070102436658,-3.9990338796038287
-0.2374698441045133,-5.679045364938862,-0.911340649704936,-4.909979243713568,2.2150246264621423,3.670919661229348,0.2919752744917756,-8.416352674708303,-6.695969306442854,-6.122334853846013,-9.924575446402653,-6.468042566116253,-5.816315652599275,-4.161095689633278
-0.6481624015790821,-4.882322551064114,-1.0912649074154004,-4.622782462357328,1.2190126561829828,2.763018672759639,-0.3451271257246493,-7.904120033412005,-6.081766988914828,-6.249894142342924,-9.305383649764256,-6.182235318789783,-4.574736672800498,-4.032398535013854
-0.9497734337998764,-3.601629050649436,-1.165830622497456,-4.186411329896366,0.0467233267701878,1.599271999415297,-0.989985698897652,-7.537498089030561,-5.733070929572577,-6.206926530439816,-8.303744606926834,-5.732370854815216,-2.703710787052064,-3.784816311528587
-1.3973698698041623,-2.464680267992488,-1.3676493870607942,-3.805843952700936,-1.031443760525523,0.7107065110888797,-1.0413166051876146,-7.540721607605816,-5.7731348209604105,-6.185946588942777,-7.460636549471072,-5.529680861097155,-1.4037843467119728,-3.555863544940589
-2.082127282149731,-1.8084059111731212,-1.7876968948239167,-3.5134999304370176,-1.913665913780008,0.2625307229598306,-0.7282451720197682,-6.76556798976065,-5.163862747103125,-6.309412757170684,-7.040818837370953,-5.614663383071161,-1.1908419607734295,-3.382313398470924
-2.738293515808145,-1.3196843281180293,-2.208810486554356,-3.243242060573156,-2.7730773973605203,-0.2165912947141564,-0.4760537935068015,-5.242943261655733,-3.913002609193813,-6.590398237105124,-6.84856204345364,-5.633340155884248,-1.136479612266989,-3.251716669112323
-3.0707212089056206,-0.4119054465461538,-2.3406448497109267,-2.956862305042396,-3.876174291096749,-1.3083871114278374,-0.5636269758727894,-4.9393437723992575,-3.396819909402904,-6.914654290533456,-6.426969239602165,-5.279151731831206,0.150168751676329,-3.1862402477593825
-3.2386818085724123,0.9664429771902086,-2.244091806507612,-2.670862624890919,-5.224757066783706,-2.8296790797029203,-0.9187846673854076,-5.611288640082854,-3.5718209813741835,-7.10926376401509,-5.564660532895125,-4.741366763244091,2.549863562957448,-3.1961342122804126
-3.842369415928374,2.0052763945364447,-2.478732543578527,-2.402527783190873,-6.3920878429742345,-3.711740467216547,-0.5005164840554244,-5.9448996156935605,-3.971863749679316,-7.137959514144828,-4.738578293831139,-4.6773996021703255,3.7243185911244874,-3.2282130491651166
-5.254335117102407,1.6849109642437838,-3.689492078128709,-2.147468811423348,-6.779982653232544,-3.0229518511851694,1.5742710002561873,-6.171678836788447,-4.345266422423504,-7.244615719615044,-4.981614881207879,-5.666094096449477,0.9931002707051136,-3.2557636755499857
-6.989463367240624,-0.1663547840384929,-5.964822583842425,-1.937744607355928,-6.119061030470583,-1.1669379180992472,3.467073279672599,-6.104172246130544,-4.092457205276401,-7.817365139459865,-7.090060696979325,-7.6558968294505405,-5.754416020391648,-3.462279319809092
-7.913370280403736,-2.518700597576327,-8.583242811179122,-1.8700575662841388,-4.74426383631576,0.1598327723204775,3.149211899415938,-6.612623162963078,-4.187812329593633,-8.98971872630644,-10.753768882214825,-9.918268411773576,-13.186576754966506,-4.2110576164780085
-7.204457650428228,-3.92802674990582,-10.465277633547784,-2.019312467007982,-3.355887504516179,-0.5703989993918057,0.7071486415159334,-9.229662200363109,-5.348066564307731,-10.36666076575258,-14.493682501958578,-11.561378523345809,-16.986090545586364,-5.678664683827819
-5.1469383542803655,-3.731858365120562,-10.968388279373368,-2.31924725877745,-2.4914876147224856,-3.255674724284248,-3.4864179147685737,-12.905165454645692,-7.314806823873967,-11.229956353687095,-16.633959938397563,-12.131258879118793,-15.455134614395869,-7.500651445800367
-2.9213792147842157,-2.503321074972208,-10.299934163697422,-2.5707744252404776,-2.200083422985312,-6.222164282315886,-5.664497673771997,-14.59990236291633,-8.643810652500973,-11.098612375703816,-16.50525228390723,-11.787391977677238,-10.75259698906716,-8.888415896773868
-1.6019985220093371,-1.3846381877115164,-9.207989285387756,-2.5972526523333173,-2.171410641021557,-7.755109458911801,-3.1675665924338885,-13.302713073844892,-7.879061756457451,-10.109225246910164,-14.796466601074007,-10.989197989349965,-6.642391910308639,-9.216918514180172
-1.3390149441062489,-1.0362453873070177,-8.30226970327957,-2.388962585481414,-2.0976893736857125,-7.524864423341935,0.3120659724098582,-11.13898623038498,-6.532886964671731,-8.84990460809755,-12.79662238458186,-10.083150814153624,-5.164911825317192,-8.52217375676063
-1.4662776593065043,-1.225168440169985,-7.651290777279171,-2.070595270202026,-1.8921619452154796,-6.542366163022754,3.460429866477514,-9.0509268474522,-5.288977684772525,-7.8220224314196445,-11.30367829301601,-9.154286227284558,-5.469265922715355,-7.386120942456056
-1.2900664130488702,-1.3203644839835738,-6.96350233794574,-1.756060204759041,-1.6345604250648431,-5.921656155853542,4.2848441379093805,-8.117427299199289,-4.596496482743435,-7.083351125374264,-10.222952123816125,-8.164686258228883,-5.513119545831243,-6.368255535672715
-0.7207766870728136,-1.0393122638736267,-6.056437402094262,-1.4787155062194302,-1.4158167486024182,-5.886836855453987,1.4204522759750875,-8.790504466378252,-5.160989811727634,-6.37882954780263,-9.062535709700589,-7.127383877254095,-4.39085876964661,-5.613100460300697
-0.1615107392664354,-0.6261582974713686,-5.074000170886163,-1.2315871812022792,-1.2689766868059005,-5.93198579085808,-0.5937511168822528,-8.146060109144182,-5.051745608956642,-5.525145122083274,-7.616759358560026,-6.1238270930169545,-2.8633680507602985,-4.960243120268128
0.0650742933530672,-0.4287972306671683,-4.264859854689989,-1.0160014970150382,-1.1848875886785368,-5.641639563120323,-1.415291850102193,-5.9010596216768185,-3.838259222933063,-4.596976620181767,-6.110135005432775,-5.198719135514596,-2.0085162549710818,-4.276532999379467
0.0729297336339125,-0.4537408313062592,-3.650102145518563,-0.8155185059465833,-1.1167800854243284,-5.12586029821622,-1.5695668463942476,-4.298905576385501,-2.940548042816068,-3.771948011663029,-4.818986761144775,-4.311517342469911,-1.898348868272118,-3.581094488121256
0.2110889563001272,-0.4198160745505088,-2.997988223612277,-0.5730318201780218,-0.992745710800584,-4.7168563444521645,-0.6587101074296204,-3.303846365631261,-2.397289272226018,-3.0896838874274213,-3.725713708098482,-3.3926835128059274,-1.738529951988072,-2.902616049515075
0.6176953336966164,-0.1584690657694842,-2.133548403783113,-0.2549208999256933,-0.7925480217367706,-4.507771605851584,-0.2833321678437685,-2.9474853252203506,-2.2819956373389307,-2.429022293265959,-2.5979625402319115,-2.4247334890611576,-0.9883888406179776,-2.198105162516601
1.0633595091816588,0.1804249407736762,-1.1842962278276268,0.0639294662156544,-0.608583698767891,-4.326515670513331,-0.0297044571416568,-3.2755828702116294,-2.610056948669498,-1.690816967290953,-1.319844544565921,-1.457348527302777,0.0233956172709284,-1.4820993039594796
1.2580880349010215,0.3467375351513233,-0.4265322903510444,0.2622270071058601,-0.5652844521092817,-4.040401694069001,0.4358491244998458,-2.926811789591804,-2.5303485524007376,-0.9241198249038264,-0.0137041182657746,-0.5395980250765646,0.6520858549155122,-0.8808962086033034
1.2143348013947133,0.3484847603933829,0.0898311956469797,0.3642089071359073,-0.6346280124513015,-3.6960394362975286,0.8506395208831694,-2.065408257683869,-2.100402171058211,-0.230391845718529,1.1531025138080435,0.3316172347834438,0.749750764275241,-0.4642776470361269
1.2518295316691592,0.439846612486555,0.6447598846727374,0.557732847136478,-0.6145852169532908,-3.373368986106524,1.3762989778470918,-1.7656491813482444,-2.017147234007307,0.3778718543565063,2.190382104581147,1.2054870535312787,0.8102857415548783,-0.0531993370644769
1.5950761024648443,0.7704585704140143,1.4964663141719896,0.9600881630216164,-0.3721742429376249,-3.0519520971215077,1.9602421004609931,-1.9184301332547105,-2.27619281957097,0.9901953127095666,3.2575717925553818,2.122302825100043,1.297034509550116,0.5960473701807985
2.051453222758028,1.1594896179284009,2.4963560065707,1.4046568972183875,-0.0798673128594842,-2.703063422680742,1.9367320507873016,-1.3673741249483415,-2.045320576599993,1.6676127695162464,4.4439539776027885,3.06890375002088,2.060676296197073,1.4015887806345333
2.2121534065266677,1.3173941533074611,3.22124684895126,1.598046041829889,-0.0646299920557709,-2.40032018044036,1.170445699474087,0.1434076234761724,-1.1136573712877584,2.3539960940737146,5.652030103724428,3.991715006234529,2.5564050340269238,1.9549381433699369
1.9992654265832,1.2597031224073874,3.5471955239234134,1.5408037808546169,-0.3481198414529487,-2.2004291489113825,-0.0049919231059611,2.5165700776626467,0.5031521593906497,2.958497994681992,6.734875284907318,4.857401513945767,2.555003688359029,2.069132111132845
1.8764818464626103,1.3635489621574663,3.928206336108495,1.6527805554176638,-0.4720845084049259,-1.963967350422152,-1.5604393426702394,5.615237748577853,2.711903691652969,3.501778114827715,7.7091707985143,5.696657927595773,2.450532656936716,2.181336607189131
2.3249325242073127,1.910217118176668,4.874907174125191,2.2873889125746416,-0.0076914606220555,-1.484065129093402,-2.0962057267889045,8.440160469302063,4.789770353737182,4.112901106970348,8.75710043739221,6.5736992455056935,2.7647748789018465,2.887486296315643
3.081235940793846,2.601238099518497,6.151715509691456,3.112215475170302,0.7073765370254677,-0.8639382272392311,-1.6726535883498803,11.373253815855408,7.033751610443033,4.838691399394435,9.975584339430192,7.510359887509139,3.4525329431597527,4.010829877850746
3.121270758774429,2.6533085498898856,6.787398086239428,3.1919197313645924,0.5603863868186494,-0.5892529834003639,-2.341840492060598,14.024893735056976,8.820434672356898,5.479734010650958,11.150037215359802,8.470205916360719,3.946951974939971,4.518322579063892
1.706835408986045,1.483630147197303,6.196296733479699,1.9195056588955168,-1.3018862167852987,-0.9835269794378833,-4.106255812012006,16.76333356596841,10.39412944635702,5.682842414046505,11.84375492379673,9.455790441448045,4.060475442756555,3.828595186195479
-0.4490450114645057,-0.6566146966533992,5.261386946399455,-0.1072171859072597,-4.307757411406072,-1.5591748123180975,-5.292773321367764,18.409004418010817,11.112972076837384,5.263865163084397,11.781028085013505,10.603231746145426,4.68127317736797,3.1726324772768564
-1.3020563200165751,-2.7209164832745927,5.902034838125147,-1.3169887950657255,-6.47898408553101,-1.1472517908790325,-4.55336064940706,17.647002460251805,10.127378935347965,4.43485630810607,11.120122229310397,12.08154234086183,7.105393385367854,5.013378147267403
0.8572750243625862,-3.549357469018112,9.161101811512763,-0.4573476182420748,-5.8850343374217005,1.06610008382809,-0.613833042355981,17.927229220914377,10.804921062170395,3.664330773756987,10.28972208669876,13.789925944783,11.255716173979891,10.425860527821923
5.610439829965316,-2.5832141180746504,13.687929712197883,2.270231977252159,-2.314093446128417,4.568521324143013,5.589227186523801,17.96807682886482,12.002419050770571,3.26268419808676,9.545453368205472,15.15723879117239,14.678108360922444,17.01035736513949
10.28137316313051,-0.1343570330077383,16.44529460504034,5.336031173013922,2.4029532101692297,7.710344589631433,8.962322235279546,16.238223052785038,11.524468019125036,3.087662498624894,8.74894068297776,15.386480532784496,13.934266102096744,20.040874374000488
11.80847940515131,2.80095678550434,15.282720880757983,7.100511494764071,5.740599134437716,9.026941697359526,7.63270626470605,13.627119264638496,9.55593809888812,2.6926259486325463,7.658655839134546,14.078941461812091,7.680946052369848,16.436575381226326
9.047217650770428,4.936098779458703,10.932802193178423,6.924405085785594,6.29396081921805,8.470221457691835,4.581631785496708,7.992771539471682,4.307028341642726,1.8007921369369626,6.403596758101479,11.681403046384467,-1.488039309403959,7.857783864869674
3.5220730421990893,5.158918306033264,6.370734678533317,5.237349083777374,4.545444602445222,7.366515717196073,1.1619681050773811,0.5142191554194926,-2.47593836740345,0.6094426211887836,5.49782598371241,9.21826423556427,-8.70579630410495,-0.3891110291517634
-1.8908032853852887,3.048396281684468,4.104365745876869,2.7690396312486527,2.134607220397946,7.1612236996669765,-0.914359706580431,-2.992889796756193,-4.914535391375084,-0.4435746792311192,5.206832891175402,7.431852583619957,-10.83881273273306,-3.875691535838939
-5.082509261377481,-0.7809190778063453,4.04214981688537,-0.1379689281879237,0.4934345009332546,8.145578713567282,-0.5400849736079772,-1.96951678700688,-2.020310657040992,-1.2356020522090034,4.91766154208208,6.117862891057044,-8.998611460113807,-2.67543534571277
-5.928103869873354,-4.874441912284169,3.932522177157765,-3.515085212955249,0.0284855578823055,9.282248318031884,-0.7203545510235188,-0.2903193516767834,0.5798482226264393,-2.165952800554756,3.383106593211849,4.368016194762802,-6.999067259752124,-0.6297008001294273
-5.93653989685388,-7.722954179842901,1.7330222212645126,-7.245163841839165,0.2805207922450066,9.1761469378285,-2.9516115041219377,2.0089525119972165,2.0585148994607096,-3.624184835839792,-0.0990231082545847,1.5488523897938364,-7.354926689038187,-1.2451365596869834
-6.91523604575972,-8.594846740786686,-2.52377976775194,-10.641467372451991,0.5873250376472186,7.261370454164108,-4.121546668024696,3.1527018862273213,2.0535052759276238,-5.1777794838346125,-4.612753466272402,-1.9173517008539704,-9.01611495962652,-4.501005316264212
-9.667520221888452,-7.757849855657632,-7.017228372027866,-12.567510688750753,0.5526547963766504,4.250386813804447,-4.002692458179353,2.559886104772552,-0.1598758484206702,-5.466224803650079,-7.869809486728329,-4.7665366358694925,-9.098326731361176,-7.549969055934902
-13.430122469452517,-5.998423274574989,-9.941634251519968,-12.091124433476132,0.0711799723244865,1.5977865065790198,-4.622090251444803,3.182180172966895,2.733192633135753,-3.236510149258752,-7.835770154403825,-5.91492454971873,-6.444535865387749,-8.071453253453384
-16.302692078864585,-4.0249253466659525,-10.8676954158243,-9.26783679374417,-0.8046221815500978,0.4981599223616868,-3.325754584678069,5.495009121735093,9.844929028372434,1.295524256078302,-4.41524967460786,-5.321074605677065,-2.974631110256801,-6.54726347426346
-16.49299557515964,-2.2940382130793786,-10.539992633148303,-5.427629708388611,-1.807365508784489,1.190789191277073,-1.1019638611309666,7.182231924547066,13.56304791487953,6.215483176992461,0.3339240494896067,-3.91000040986464,-1.5465145771618296,-5.384512988534656
-13.671878009954623,-1.1305630929535937,-9.731438305767972,-2.507921566537636,-2.273900326040909,3.0074750107883297,0.0848274545084232,7.419177588133476,14.12864264661524,9.364260421406277,3.73359198239703,-2.731687100233472,-3.028636119634296,-6.334183122673142
-9.407370173787548,-0.6809298060124114,-8.525477341846155,-1.686402433632633,-1.259277789183475,5.0217366124627,2.7925261561341324,8.025569694206707,10.319113121349936,10.259240375537466,4.469713283356395,-2.203801620750891,-5.8902984987623945,-9.041966604357672
-6.107012773231041,-0.6557544265944184,-6.622065594233806,-2.39257066358571,1.8177834351825872,6.688710359073699,4.827033173226946,7.894975182908827,4.636526004895935,10.521005439106116,3.353350504058845,-2.0693819511333658,-8.289534743982529,-11.79886334456362
-5.142525572692684,-0.3651789686959059,-4.075891731514295,-2.758735218226253,6.394708477806011,7.938274697444614,3.807746662746165,7.259481087333183,3.70069982886564,12.158438344453964,2.312342990684946,-1.914374482011036,-9.711505093906943,-13.107447471129548
-5.747002004174924,0.6691116262397898,-1.5561794493822356,-1.3478695099287048,10.65925662499858,8.753946942492606,2.144333485325141,7.20627019875962,5.406606273649231,15.293902368155116,2.622932168352065,-1.6143158170561351,-10.209041695336229,-12.34128232670646
-5.741016109962844,2.0657471518758914,0.1140974711403899,1.3958628273878793,12.52554250020701,8.814618054422736,1.0952731194041965,7.031028949862055,8.15079578285008,17.692923778243888,3.9592545563803583,-1.321199014291138,-8.744924775656397,-9.398674472801003
-3.475063264476483,2.7457904776358264,0.6067235204199513,3.4898359655084104,11.095165509912553,7.695538245051797,-0.1310203245934518,6.859522601795491,9.087920979223464,16.761464384140833,4.977647563450718,-1.162656770705006,-3.4734235264280118,-4.459398244698022
0.7806058756176104,1.9466830032438096,0.2878295102145798,3.338755411918223,7.378153262417881,5.447590367603276,-0.4786308381930978,6.4250880181413965,5.981221796079641,12.118379036333229,4.729244554461398,-1.0669950583543508,5.790032504261575,1.6495038354583098
5.191637668151813,0.0750826328125526,-0.1533452462476782,1.3323555128342082,3.5600799171995225,2.848423375143541,-0.1777754216618138,5.674204110736913,3.180560581912124,6.150400147236493,3.517292074453916,-0.8814062893354486,15.903103112319112,7.245587111365804
7.961305938446335,-1.5749899136785477,-0.2445110846099316,-0.537120514818632,1.391644875422724,0.9114565408152804,-1.2583448814073048,4.04540188855924,0.8924459897587085,1.95926026425031,2.456007733349413,-0.5878918563949576,22.140993549918495,10.55876990248452
8.630605622911812,-1.996174802267064,0.0275265654734502,-0.6183781732100604,1.0837572359212722,0.0776817137348091,-1.872491895587065,1.6300972380044636,-0.1458331288715542,0.753116642018183,2.2847090847410687,-0.3458680535770195,22.100444825069275,11.018530732538022
8.069822825582369,-1.2920435928181275,0.3933040068824631,0.9530101567011816,1.5775603611361326,-0.0717585054280887,-1.210673190699297,-0.8481855851023006,0.2990279036855381,1.2230219205877049,2.689149940227628,-0.3201110155727633,17.742734858425305,9.715633346029232
7.495786012027239,-0.3307871465758012,0.6432867826470652,2.7404392674499043,1.7457707062713317,-0.2845922929796955,-0.7513157574687935,-3.577456921946469,-1.1203177415865424,1.300444391079294,2.805586015724634,-0.4949003428053622,13.324666173774064,8.427205250538425
7.554635800813699,0.2521919947089834,0.8008532715869112,3.700280781064361,1.314080685384825,-0.885186770931135,-0.1220506877697574,-6.766864507796459,-4.079739651095508,0.2656672549550638,2.308122996249921,-0.6822613253007077,11.37736318049956,8.130742294437574
8.111799008765693,0.5366667491336479,1.0140479002045932,4.134188034575514,0.7713532181241174,-1.604220839554893,0.6306973184488193,-10.191543612369513,-7.027590334556105,-0.9549274902403192,1.825630584510371,-0.7186717673803642,10.90727847855587,8.457502122387535
8.623906878807452,0.8909863802379459,1.3383117516925545,4.977316262731705,0.6196098631500355,-2.086022659832169,0.8405619373044242,-12.32439025141258,-8.806740137899403,-1.3179506498225546,2.1395275284658446,-0.6363998395040191,9.393451488009733,8.47474427154603
8.642287022907816,1.3902345664347455,1.6577088362226815,6.464413286757356,0.8296631521134792,-2.4052623057373044,0.9021589917881876,-13.516484716863992,-9.641419313198549,-1.0830661308859495,2.9950094038248256,-0.6113863849982373,6.032081207430952,7.808431770889335
8.137468948218231,1.899234491605437,1.8120245178664651,7.803145326376946,0.9355183705100424,-2.985544312865006,0.7920791022000272,-15.300268169899656,-9.72112915502018,-1.522677513814088,2.9293054146699404,-0.735180671280137,2.6596275536570104,6.938705580004832
7.514324033927096,2.596962112888317,1.7635996615624163,8.133993394543054,0.4927759157674032,-4.063666189923854,0.0868756272203098,-16.566347168985203,-10.053633834843378,-3.381348460670665,0.5476563515332948,-0.8856997129833992,1.6786329737673853,6.548637062353812
7.285207117023745,4.006798421732718,1.600595201576855,7.50972844133425,-0.580556200661654,-5.35791640088544,-0.6655576702605939,-17.116790452714806,-11.304163974390333,-5.922489950044639,-3.911108393182733,-0.8957951053410866,3.5421783884089244,6.781358509220315
7.57882022931425,6.2314166477165,1.368173949772249,6.725973691203588,-1.960155398082556,-6.315189171354984,-0.8928111565333164,-17.199021046005072,-11.049245895819718,-7.623411839528416,-8.371059253381734,-0.8567812233162755,6.40819597306978,7.161683706662092
7.91768683474849,8.31021629182024,0.9318223895073708,6.323288465575978,-3.076032078212286,-6.640638633351077,-0.717123860455029,-15.632673580812916,-11.037509634234231,-7.679199157500498,-10.474922049610525,-1.150927363128481,7.909372311645487,7.09603062209797
7.583181524156313,8.772404052899049,0.0705517419317374,6.058499787292501,-3.4042882584672007,-6.5464873435767,-0.7881239913962932,-14.17565655507307,-11.705468866331127,-6.646290545592983,-9.513403773341054,-2.05188740582555,6.937895528789483,6.327145650317238
6.312517215802906,7.140986329311641,-1.2326756312827385,5.460909088164787,-2.839501813606141,-6.511145518030858,-0.8746024404071657,-14.59132372791395,-11.885922606207515,-5.627541291640814,-6.89917446064452,-3.28574084927903,3.9362175772788888,4.964515572212118
4.602951643529192,4.79558962902189,-2.5779166105431277,4.65803807500642,-1.941767839430984,-6.840706564876424,-0.62037139336801,-14.55619883032796,-12.588252694722632,-5.0464919018887215,-4.779206537479347,-4.137407129976371,0.1175237512110172,3.255151412609376
3.2148436841644674,3.981555808577763,-3.2863807643665943,4.310611222704356,-1.723742918997733,-7.444763416795048,-0.3145254394006672,-13.96516622778347,-11.316984851586508,-4.400386534281317,-4.189103663256645,-4.155608784422245,-3.209044449196515,1.4199084475973542
2.3822081037325624,5.684430422094881,-2.851791843629272,4.673334506137831,-2.903082435965299,-7.947037091775133,0.7804272775209867,-12.358443546423873,-7.985424839792795,-3.1588746515519333,-4.501262431876032,-3.750344015404973,-4.9034539619407305,-0.3380914107690849
1.611773196968766,8.456509603563049,-1.38059769356234,4.955281752785279,-5.172206266302823,-7.983661009118421,1.5995702030951593,-9.196959293753697,-5.415720950844295,-1.6726167636802245,-4.502526104853256,-3.924332300088228,-4.394696146946163,-1.8235713281778128
0.3326428843788704,9.505644509073964,0.3780466993701701,3.898891390736921,-7.227422531339496,-7.457257845298933,1.1845016977213636,-7.792820135941898,-4.828864132967135,-1.014186911503003,-3.8109294609756814,-5.255038690436464,-2.2753916499673466,-2.9104448451154887
-1.3431181659406128,7.1327298008635225,1.484954201163987,1.0695076877580971,-7.70537213650876,-6.603377997675178,1.0617166423264957,-6.235400485902893,-5.2796521481127385,-1.921169551947585,-3.1669471443067145,-7.153249249001053,-0.3257383488813481,-3.6253317132980714
-2.6257154265320146,2.2202161355113894,1.4354547940902125,-2.534726972402705,-6.256687114371164,-5.8281579811828585,0.8748978332673691,-3.5744864791833546,-5.332174355398751,-3.9967107940923863,-3.4754307447775474,-8.268064944613673,-0.3863455101211279,-4.106833655396464
-2.842991310048923,-2.5888047393832743,0.4638678745358007,-5.2508530425912525,-3.7924424776083896,-5.41742445722231,0.5033716107348554,-2.0803190922476205,-4.369742166453616,-6.007181887577307,-4.756612757867565,-7.719176121456922,-2.830440984335844,-4.46905573959592
-2.143715887772803,-5.123635827592004,-0.6984863580353391,-6.13817757363395,-1.6946277078838712,-5.330856240662492,0.1896071292974173,0.0547701501537178,-1.5360136897453944,-6.922468349624271,-6.109214344128414,-5.9119864918754175,-6.171056641086494,-4.714345006654352
-1.329003057863524,-5.196325361862186,-1.3919402557069418,-5.602332578915139,-0.7418193936244393,-5.261461137482211,-0.5572212941071649,1.587970622402232,0.8961005809183666,-6.649684736976916,-6.600887609262685,-4.105349367459748,-8.335651598392499,-4.776810182633209
-1.0516959891801925,-4.190341916601543,-1.4529055778991875,-4.7614479615271605,-0.7093836443795389,-4.923522977290503,-1.4573157539093975,1.2430716795322505,1.217619428537153,-5.844243688421592,-6.078476917538069,-3.224213730315217,-8.419769926765174,-4.641247698162516
-1.2788838282484465,-3.4915221458589194,-1.1755792958496727,-4.354831248558618,-0.8669762856964276,-4.292571077822746,-1.6767289223852746,1.187749986724201,0.7748565353034595,-5.158540585581996,-5.119217415884563,-3.151980954562955,-7.21556207314006,-4.391783167702101
-1.529016300846017,-3.4143416634202914,-0.9398937443507194,-4.297308520810116,-0.7392028970363782,-3.579267907263599,-0.904209759269542,1.4122977168014923,0.0527488152164067,-4.738491161808984,-4.3422145283503255,-3.129126316999745,-6.144609067620561,-4.149951635786916
-1.489607203664992,-3.442040456036036,-0.8938497177766038,-4.137192670128883,-0.3894497891869086,-2.9922499035073145,-0.1357224096237111,1.1559638362497535,-0.3061666866594603,-4.35583132225597,-3.8913392589773927,-2.6702781862222267,-5.864764326586929,-3.9817659414603632
-1.2880099292062113,-3.1362071365545034,-0.9328134449263724,-3.700517231040372,-0.1176433022797915,-2.5503586811384125,0.5363741233402854,0.6944966647437557,-0.0975183518940213,-3.8305883018888167,-3.514814997485725,-1.9572770624264384,-5.949077401230301,-3.862280957860929
-1.2049558851522146,-2.6092499675267757,-0.90271535806529,-3.2097774350440265,-0.0466720673345459,-2.12236046987376,0.7932304014277054,0.6557884275192397,0.2622263575570895,-3.2285390774526714,-2.984779367922542,-1.423534638634365,-5.70884403081028,-3.7286954424562
-1.3023417901273184,-2.22036653681524,-0.775916053383618,-2.9121227517843185,-0.0426890124976324,-1.611741870604769,0.462926247954123,0.8280148576874425,0.5097881097066008,-2.7094462646031268,-2.3380438840428823,-1.181137137938645,-5.031168288041597,-3.5572693606840886
-1.408070073952295,-2.082789528903572,-0.6407261256421712,-2.7751794888642625,0.0550020395712831,-1.0550197000680317,0.2341945691296097,1.1963774699731489,0.6289181884022337,-2.310757631330045,-1.7499647313940088,-0.9706395268818948,-4.345387104212026,-3.3797631211140957
-1.390233525668517,-2.0006570997973565,-0.5763577439877761,-2.592469540455072,0.2388325171092216,-0.5490922404511505,-0.0319429260819659,2.171940649894025,1.140491347121918,-1.937672548223885,-1.2980407443996178,-0.5695166309234878,-3.9822084485311615,-3.233045485093664
-1.3173875782874074,-1.7890974882248916,-0.5717764284624494,-2.283181265940655,0.3855190536918673,-0.12601792624951,-0.1825291054766711,2.8483221275979376,1.7256032792750895,-1.5147678977259798,-0.9111583313304124,-0.0638686340910803,-3.81558955342506,-3.120841129433078
-1.3254347254440866,-1.4931619532231224,-0.5562601527503812,-1.9682083020065644,0.4281500647624856,0.2707150938736102,-0.1551746709024367,3.0625469273446857,2.0233009574262355,-1.070070932605141,-0.4913973927178805,0.3306651936262046,-3.5281629247609008,-3.0169846527905086
-1.4201477896138206,-1.2675796182349917,-0.4843419330432832,-1.7699168158636898,0.4164945735298344,0.7037401159770784,-0.1939142279936307,3.36178303108829,2.171435657851932,-0.6722945452708311,-0.019427002381767,0.5826181209703662,-3.039427515689736,-2.899379493328598
-1.4956646866812084,-1.15886879717522,-0.37977865641058,-1.6539522806794364,0.4315154702415729,1.168849175376252,-0.1903303078369652,3.62302346529782,2.155489271719188,-0.3407324649604009,0.4501595710166954,0.8537022729369808,-2.547818513026302,-2.77974756553341
-1.5016479949237715,-1.0923676301461116,-0.3051388086309194,-1.510837298675285,0.4850435334526737,1.6099079894807904,-0.1679376622455374,3.9187266138429866,2.13326327397423,-0.0461033032154398,0.8597547973921156,1.2417180899168925,-2.2054682493912328,-2.677101480263575
-1.526274254957412,-1.0023428449751628,-0.2910904597529935,-1.3151927605337956,0.5285010503790875,1.9963491983982176,-0.1519539440751162,4.324165203224438,2.259918937989751,0.2487405799910655,1.1978087440134946,1.6460229322096742,-1.971972886249099,-2.6075385142725063
