AF3,F7,F3,FC5,T7,P7,O1,O2,P8,T8,FC6,F4,F8,AF4
-4.517158881773691,-0.7181230365606567,-2.406340072932562,-4.111356108210593,-5.580531829307066,-1.1463752372851483,7.981086757547095,2.0044329376989234,4.491350280098397,4.28318446082218,1.3655412546362682,0.1217578256043882,5.340854372327547,-4.933765376407625
-2.7606000904122867,-0.4776313514136895,0.5576182576248431,1.4588838501521115,-1.028041675915052,-1.1946079074898135,13.322609268033766,6.031084242794584,6.479274986834825,3.912143539224189,1.094762377581786,0.8450712067599677,1.897813481364091,4.586062981354569
-4.058206289931745,-0.7938599973903567,2.635911398942804,5.443977216383276,2.78706053778589,-0.1877496430496981,13.856479997596038,8.031827320016701,9.006096256222573,2.1942269823395475,0.4544757802005607,0.9100295146637792,-1.2438890631202757,15.57910916589764
-5.6980230653772015,-1.3348545697521517,2.6905133687098552,5.88550957649743,4.318394921752815,0.9892319912800024,10.289542711141753,6.521247483131655,9.251869418973602,-2.439037204885829,-0.8594750915190557,0.3009390150426411,-2.755979188255085,16.917334467585206
-5.574779204190337,-0.5441368345329141,0.6791499844491113,0.7851542970854205,3.4957188573857105,1.3715907020236495,5.890766095876407,2.343909756446348,6.602310175799748,-2.1213871896859016,-1.0072862968372234,0.2741924217597044,-0.9207315507369452,8.112831966927988
-1.7350212039817816,-1.0184506501003832,-0.3215468674611572,-0.8797113886141268,1.7556913898003836,0.862809093748275,4.185491580621754,-1.7566216308818348,3.056461292851672,-2.478689366372598,-0.9124303867232066,-0.4773851015201455,-0.4805365095335774,-3.3478220950369653
7.970175070752186,-0.5549940911563211,-0.1341575845630002,-0.4078447912807785,1.0720081064767872,0.3642460542156456,6.323180424515192,-3.206817787139713,0.7064171206538228,-1.6555243903869423,-0.277845395310395,-0.8349890977245422,-1.427584729750723,-14.75534993958834
14.56920896011422,0.8345240562131645,0.2234223806786912,0.2414840165904683,2.615556007088502,0.8972633116948234,10.284020590365948,-1.6144580462657778,0.250174841309416,1.5898224575042,0.955500706733916,-0.3665906500269101,-1.6577564311092483,-16.774860886232133
11.197099027669736,1.2023897823553311,0.6401128844266637,1.6127455722972848,5.933232043039896,2.514952343762122,12.622115257177157,1.0176141178312097,0.938343406503256,1.479548706877356,1.1841997291239406,-0.2104732817930733,-1.9141227459584005,-7.56750890101749
3.7275385490826274,2.628856898703762,-0.3041924558016278,-1.5225028191825014,9.201649177464551,4.0715203047830935,11.234113573522317,2.0589187177474715,1.1093138283510977,-0.4274633579900094,0.2463088853948447,0.3216417197078448,-1.4301710631438709,-0.8127990211375828
-7.380882758244113,3.219430007518705,-2.4935188638004337,-6.1883944785395215,10.413576891038408,4.154260343148216,6.774640900256348,0.4431309257442368,-0.4755583768321658,-3.451347952056967,-1.1728242107970042,0.4177234020199645,0.1119645256724206,4.766891665276115
-13.580670979990051,1.692330083558685,-3.308510480173286,-7.39357264916556,8.729287019348076,2.374390781850974,1.6762977035562976,-2.5931404377563867,-2.4651812807588582,-5.803690172909017,-2.222428283238728,-0.1458130591949788,0.9534621951374848,6.576831497099122
-7.902864874823422,-0.225317569170504,-1.7261271942144896,-5.445735067169423,5.075989997177838,-0.1793348796463312,-2.037333823819992,-4.73499023950307,-2.713867091283076,-3.9946624152220007,-1.839003972384284,-0.2450748605783074,0.6787962867258541,1.38141066604418
-1.4219994526734605,-2.2999204503462525,0.339445806541408,0.771608914790115,1.5495090542160508,-1.7902349712233332,-4.021781828951722,-4.5569279733632815,-2.179539697572469,0.4362358600352206,0.0642410668043801,-0.1474143296903352,0.8216165595884324,0.6781966015276875
4.093333414161071,-3.983779566271502,2.852906549141997,8.038754387872014,0.0052701204294471,-1.5374154031949248,-5.0258080965242335,-2.4991732558650277,-0.8895771105834237,5.573697467200105,2.280147413973901,0.8181589510816868,0.8169428944344622,0.5967885137895723
7.145200614187253,-3.0833918179487134,3.837950516723356,9.877127813286382,0.8388046572361865,-0.0260560093367763,-5.471197173609232,-0.1832908296331767,0.7796278387865221,7.44317883961038,3.204129255096368,1.7667982408528675,0.388616439056489,-0.9531371703128833
4.012463774769301,-0.2059843105523406,1.7688203550500616,6.388147760148005,2.84618467202374,1.2143454982385802,-4.898117665378559,1.0847467492687175,1.4342187189696325,4.406466677476772,2.113805925036134,1.0217021979560128,0.5717782225077899,0.7307020992196851
2.0013814536210743,1.5216273225710926,0.1589781716956264,0.9825580145818972,4.242797100271261,1.094214573931366,-2.790550729696,1.2215688141674033,2.6810073780133634,0.5407543842718936,-0.3742663306664056,-0.6880479677365362,0.6079083530661793,0.6448465101223246
2.167205724228288,3.3621599981624453,-1.319423547966995,-4.477594057332052,4.02282065962769,-0.1469160959671038,0.3327400149490369,1.0502373613404692,5.091337030026176,-3.467566585503832,-3.1606934425462314,-3.634849283660836,0.0217573196885484,1.8331571292142284
0.7239255549277563,3.4718857771980187,-2.101288365521308,-5.844101532425732,2.589330721925545,-1.2859909313693068,2.943563710382776,1.3123383758921694,5.542317510849043,-5.341687459615747,-4.300711881103903,-5.177316981871655,-0.5684567988199245,4.239011982829731
-1.030410796453059,1.000522139734355,-1.005931032256982,-1.961480240598853,1.2072624017580784,-1.3142151173558472,3.717690982365471,2.0181793794705127,3.558178693435303,-3.686958005748036,-2.969213463893717,-3.207618511299371,-1.0776186988124452,2.581102671026719
-0.9082809588737262,0.418586210131653,-0.223486713997148,0.9335214486892124,0.8049068511511583,-0.3637359789153889,2.638800864418357,2.604261559976991,1.5221912436571832,-1.2921091311357993,-0.1372301287159019,0.1073799058934635,-0.667245966975017,0.1915440271585415
-0.3350075238887647,-0.9216795006914242,0.7607330834263554,2.0394892958557023,1.1623518855466406,0.4417604040024342,0.7928240594218998,2.5373898026485384,-1.5657102058465162,2.366690774059128,3.212704762112151,4.616324766301494,1.505101117039529,-3.747612988075945
1.368450363937537,-2.026026261175879,1.4203419477476025,1.9582469472742237,1.1531658567704937,0.0098965384036304,-0.9126023875542816,1.7082084104454365,-5.223928561591622,5.475461891121485,4.765469762482665,6.502092777254334,3.5820896223103884,-6.030171390017205
2.865714705940684,-0.6488285859331895,0.9297816364850264,-0.6526326533964163,-0.2163511543266105,-1.7722837640862863,-2.700357223220605,0.3315739063251253,-8.734912629130308,5.066963506828976,3.389146314320748,3.726002577283279,3.4268639101221425,-2.727290703835724
-1.7140877183215757,-1.239196154927486,0.5930019342479694,-1.9821736761581636,-2.8973771184254566,-3.956270758880269,-5.513835675100786,-1.4092843140911473,-14.77081508282029,1.7740012230361164,0.6499366255308463,0.950368187670029,0.5280151734335241,-0.2226869640817362
-8.29710270332724,-0.9672804861565778,-0.2367214513021892,-1.3553436453669103,-5.806263106746526,-5.296241519966726,-9.688293436601274,-3.578503563577,-22.824437281148374,-3.699382909614597,-2.354795651280725,-1.970453350725468,-4.710198799452368,1.7605528402701665
-10.271796102824393,0.5785639778782816,-0.9388269897579944,-0.382485660119193,-7.72288873450303,-5.154749146089495,-14.134335402269093,-6.393905641690788,-27.25954638776043,-7.410949470115892,-3.6148402504495545,-2.880717957475585,-7.68769191780465,1.930921366519423
-5.788030556714569,0.85279217691112,-0.1883761036245476,0.9096715679405426,-8.281818636004717,-3.842236572039869,-16.931322479813748,-9.927768021771994,-26.975658253277523,-4.711879214182888,-1.777973691209348,0.0771357472726535,-4.563308492239026,-0.8078003058038703
4.326659035577298,2.57033643634044,0.2892284004099087,1.8223566791579928,-8.196020406816423,-2.2362041308384564,-16.79496453200846,-13.81239130329373,-25.97115319301732,0.7798714310892638,0.5572442629367734,0.88260904678669,1.0878112086420408,-0.2563665641325739
14.70911259178658,3.912225226537547,1.2213182363418478,2.3403219384350678,-8.545634649122578,-1.0895009462052818,-14.059082705635504,-17.14717639230881,-23.241427734825823,6.330074896765993,2.156514231693257,0.5992673704286409,7.860943904733043,1.6416028705976609
15.226989633453664,2.3324883663539024,1.932644475713692,1.2528013294866769,-9.780585355845322,-0.5819167754400767,-10.369974348675203,-18.759440276252636,-20.454655725563864,8.592592548795828,2.4234518594065952,0.1086279315805939,10.235957880137509,2.787746412675292
4.364100290865683,-0.9958458077976212,0.215859553396136,-1.1947034425476737,-11.30808829324746,-0.3893512145201517,-7.533484062396912,-17.818584800233033,-19.90811826932129,3.731098813724567,0.4815471376847587,-2.2678144034383125,3.7899900684634047,2.8785164049656244
-7.719329590953215,-5.40423515210523,-2.0688292808108213,-3.043520512587269,-11.989101099306575,-0.1294814355262548,-6.571785737604859,-14.488483252171342,-16.841176641120068,-2.9551785826699275,-1.4679781165616352,-2.529086975028091,-4.171457336932199,-0.7849930760358554
-18.872342467007627,-10.472880156588335,-5.221170849433307,-5.710244953371153,-11.06804380005029,0.2172008605770745,-7.55280963532336,-10.060229801550854,-11.619389139074205,-8.229759463637514,-2.1879339489642384,-2.562108283240569,-12.40778716967043,-4.205433259365735
-19.41504096326793,-10.511725607540706,-6.507331806011005,-5.630561734534321,-8.73049683954923,0.27299521021716,-9.880009814902545,-6.222024755582105,-8.640443255376182,-9.05845584656163,-1.4584398864343595,-2.6891700517569275,-14.584954405187718,-4.125127912578092
-6.81276545220004,-4.592415964199247,-3.4960865858972543,-1.466648947417878,-5.871686619718721,-0.3344338312542307,-12.484538643197336,-3.8304460880801208,-5.733120514205244,-4.188949264634428,0.3674426588014353,-1.0334672795729012,-6.9034504006065625,-2.045062347618567
2.611197753014258,1.2895551878122766,0.4115610420505252,0.7573724218058718,-3.361716070662538,-1.470191344971071,-13.890269899257031,-2.1736361691356056,-3.897786532701403,2.373267617627366,1.92012652582802,0.0924135841748768,0.9839534605017308,2.0162871390037145
12.8383924939264,8.754976183850834,5.503540859538432,4.023654573121856,-1.4731960641789268,-2.3829517965071694,-12.616242368120425,0.4631557598395419,-3.8569706744589287,9.172880033566411,2.696643392124166,3.169035903220626,9.570019679299868,4.272469793856932
16.982820672488902,11.438446295927715,7.529833470367344,5.585516117292887,0.0885218739080917,-2.2010367781798728,-8.105335971374247,5.172555697362302,-2.158835258259568,10.320548966843717,1.3802742813277151,5.365074264321489,12.7912722139308,2.292482000371447
8.532224337136356,6.300829177417936,4.1760264091452255,2.5793115566508584,1.6719367494184505,-0.6933964730748543,-1.5593592728969607,11.047783778135344,-1.5322246556186632,4.5579866590486935,-1.1683422251730566,3.606962758911924,7.0979362471354905,-0.3954009737992739
5.362501357790275,4.208365444795608,1.802964257125192,3.372471063951564,3.1915960451112837,1.3820202469149878,4.296479184752097,15.372520316267028,2.018444073511408,-1.766375880800851,-2.3248120440491973,2.190839284486048,4.35620204451396,-2.006135810737815
-0.3931818338080735,1.3456465367533716,-0.9797350217260828,3.690131452611433,4.102141731239358,2.7526010759325,6.7789018480136445,15.474332267620872,7.633087958796448,-10.07535929464084,-3.383914966036917,-1.6665365454038064,1.578068930246222,-1.8379199612012145
-6.970404270963332,-1.4897845044651243,-2.5817252258676158,2.1103625833975586,3.853745922944405,2.6182714935397264,5.146574770175704,10.874372296449376,9.860928940508964,-13.25118450086064,-2.592104315506064,-4.885272235563541,-1.0173988865398136,0.04957200083942
-4.157202339926064,-0.176064137021806,-0.5025195325657892,1.8534972102561225,2.446779441732975,1.325542072435241,1.2819415674879189,3.9867650058514874,12.87370670489667,-6.593620880135646,0.3736431368987437,-3.0023598482381004,0.4782390893802323,1.288769081766587
-4.968626517932432,-3.297006240707095,-0.928300919371825,-2.331546700910742,0.622285292996307,0.1139029982642707,-1.5564715276586094,-1.284420449015803,11.424257176848707,-0.4114480304090506,0.8598451999791804,-1.8388824328347164,-2.396988453885034,0.3719073275352539
-3.369416981478074,-7.0837295019685245,-1.7614439244649305,-6.255745953537103,-0.4959659810077339,0.1153596029475085,-1.0303837410418195,-2.050727163997295,7.624847978808519,7.9828552225465055,2.0914679243311447,0.7602033934518635,-6.545304578499582,-0.6843012793060378
2.372427719238713,-6.022127395393246,-0.9195692386563904,-5.745088150939629,-0.0736637114289472,1.4468580995499134,2.7243633187994813,1.7685068539918802,8.558916255523435,12.76068949119176,2.6839546880754552,3.605151409482677,-6.42554704899614,-0.5053489214466931
2.626999154828822,-3.0419962405859824,-0.802406516477504,-3.62339565912082,1.9169217784215056,3.143169138644989,7.445439971702207,7.561550856683006,9.517490951824676,6.574234450549628,0.249804921172081,2.1228700653078256,-4.792820828398138,0.1965204872235658
3.02794335201144,2.144347197287473,0.6959112355044159,-0.2609561470478219,4.684671167556799,3.944727548173761,10.548966649676084,11.804440182012062,12.21902448893832,1.6043875112333883,0.4839627204164336,0.8751368910204759,-1.2524759813115818,1.1290134516636554
2.198673411078018,8.02887533490218,2.0869231355560234,1.8228074504545968,7.0891343800354285,3.2562413386928206,10.835383326249984,12.199589935275142,14.813574153808243,-4.130213333922528,-0.9223117472763588,-0.916960389661258,3.2796559346514176,0.7209053563076734
-1.2076716826708385,8.174436232250033,1.1972214421123095,0.7278378360336628,8.242941896681812,1.524492943223876,8.85550433541884,8.851795296301065,13.82418442562897,-7.735835656558263,-3.062072765005966,-2.8082447774240538,4.226694894750568,-0.9178398493399113
-1.3595264858978355,3.1062372610666955,-0.1444456567663975,-1.144422622815687,7.873639676532494,-0.1731751831983081,6.0049291538826335,3.962747395967277,13.171342561997996,-2.8711178307643364,-1.685792181631408,-1.4806466544412062,1.9155544050485032,-1.5847349600439156
0.3637167329633082,-0.9095166042479056,-0.4458672593489108,-1.4370685831673562,6.317488493494196,-0.9194583998830588,3.4166138044070467,0.4254980542226199,12.018356786316703,-0.966226333037888,-2.350658230994987,-0.1707881350868233,0.3202318451837185,-0.9115332582043736
2.700886744744345,-4.720997369910935,0.6276985307247687,0.3138784856517104,4.285123526926308,-0.5208724661298749,1.5758187397114662,0.1825449197844815,11.697410225369582,-0.678435415239261,-1.0074858695385955,1.0446115408005752,-0.6947114239948127,0.614223343546846
3.934005744064092,-5.2348986959458506,1.8886284923252408,2.411075841330541,2.6001280791348185,0.4854492925805347,0.6468616252380279,3.2072734982828024,13.828083782002375,0.1061814083637646,2.377883829328752,2.0668430358998697,-0.3922930416490735,1.833724322295232
0.8293141576916259,-1.4082832431749244,1.529286272851838,3.1022664891542577,1.9821655775943832,1.2864781665867524,0.8350203980460673,7.614152776520571,15.763477008765186,-1.350727800418114,2.892862579285888,1.1415991615274712,1.7595820632695904,1.6011542487348769
-5.163263794036762,-0.9905842188625792,-1.3054238244676355,2.461211386212996,2.832122910278595,1.365577139709229,2.3006792958450277,10.834955140797826,17.75892334059431,1.8249306280248423,4.522508352612967,0.4416926636102291,2.4409283157277617,0.5667583835317485
-12.899349238120486,-1.527526744464265,-6.058363730841852,1.2616859402387517,5.016442232871845,0.8509547352279616,4.817263032320717,11.18805427168391,19.523400620623747,7.953904354637039,4.982992411424676,-0.0759770102862618,1.4893419754298818,0.0603704608878265
-15.415284765770476,-1.5545223121624134,-8.015606896995942,0.3148325612623102,7.776002226626139,0.4462250343879885,7.699101987150307,8.853402096358106,18.90244603823352,9.949898048807226,2.469086245542931,-0.6787215311549321,-0.1231361179019795,0.1816798985478651
-8.906439884625847,-2.4938789392020206,-4.635878178392057,-0.0434337410271107,9.91421695642147,0.95157780162658,10.17878570490674,5.573441994150428,16.46068431260638,6.771730643245016,0.3471303493889551,-0.4041867530167239,-1.7802605534394849,0.3649741433313443
0.5351260521882346,0.7755607533625456,0.6247236910014801,-1.0161707991921267,10.274001630558676,2.6228933420942653,11.843326909236724,3.2646862088115203,15.013875748839528,-0.5840506572193965,-1.9085238032335807,0.1076216199566786,-1.03762108384904,0.6999935596701896
13.120362999398257,5.082853792668528,7.153597874832454,-3.550003520258684,8.29428094785762,4.802987316736819,12.61740393476229,2.5504022581470416,13.353112197679758,-10.043302980485109,-4.443458778649962,1.0906826569419346,1.393030640857177,0.2309467191939559
18.955364819883936,5.539250392310031,9.724879380859708,-4.32339963996229,4.335003266533467,6.196587681085298,12.278322997985246,2.3278254955741726,10.776469523990889,-13.628114044296469,-4.589446527972328,1.6781757705462077,2.8677871392481107,-0.9726072606131893
12.232950850437255,3.2876651778681927,5.302996505302272,-1.9188081878371823,-0.4372885379758351,5.7359303812785,10.08876601286543,0.7144642486537012,8.766199693486751,-8.415693827953199,-2.809636909955659,0.6226327952441642,1.679924560883418,-1.7697690788761926
5.430948901548128,-1.3869438826701113,1.0215198200122615,1.136824085265018,-4.563869940341185,3.442025632771674,5.179876578035902,-3.3392554897209203,3.768009767223664,-1.7156269200047416,-1.9355233519262764,-1.5366920230746957,-3.136772408010023,-2.597205213660578
-3.0626852820160417,-5.753700511720986,-3.261784996287967,6.004078327267309,-6.939163433955585,0.5353074769360732,-2.364567362000196,-8.996027779124917,-2.992619261866801,4.586823892416955,-0.4559401471811496,-4.823983123906031,-9.25987807274753,-2.9808541899869327
-8.553439580060916,-5.313923560204257,-5.026384171828992,7.915960433630822,-7.244868852681639,-1.419353982679761,-10.621065803792272,-13.843126596371102,-6.101414458161821,6.604200044619129,0.6955059988485612,-6.040467777975287,-10.802911602250544,-1.615233827013321
-4.250947060667077,-0.938976533513916,-1.5011752248735402,4.115210554843393,-5.96521671237487,-1.6975800532938652,-16.20985522283565,-15.380151353740848,-6.960084433542545,2.4801404198071744,0.3726227548827693,-3.096274988117649,-5.593405092494095,0.9065970804420792
-2.872675895054034,2.036526990056634,0.0549929521934204,1.204655552992104,-4.027155018881335,-0.9168003115146296,-16.143345064249083,-12.667534124563478,-6.5587047072830496,-0.7807636960160469,1.1691848871035322,0.7438350276299655,1.8488656386415865,1.7050799553908773
-3.0309146572973287,2.5467334490084235,0.5287092068001882,-2.9184441226219406,-2.307483026926207,-0.391728510060349,-9.979498142027593,-7.009389741811242,-4.5635308980077305,-1.7043059477540066,1.9357153697163545,5.705654442004217,9.693165989230955,1.287851593627136
-0.7132130411009978,0.8006952687804054,0.6943566608362387,-5.815325357444273,-1.2758242222555,-0.9204916080573738,-0.499024462172891,-1.1856977271315978,-3.8842047133190514,-0.1026683284660384,1.8005619179620451,7.816374072112108,12.229294450782938,-0.3269754033196754
-0.7712302628087099,-1.7468695483239278,-1.2997291504018935,-3.7824958428291287,-0.9112034841319554,-2.112302208033205,7.960242795569282,2.287242857857398,-4.539330636393115,3.4881039014688024,1.596279474420624,4.206733141178679,6.914850873344065,-2.557728854667411
0.61174451423276,-0.1204651996939673,-1.0494575765483247,-3.505073367503375,-0.8708692321593627,-2.850516291418807,12.45759578789322,2.718063849873583,-4.351210642388894,4.7411941650392295,0.8840392086394185,0.8757368752664243,2.273557566435965,-0.5277640023176027
4.475848038561948,4.332613739097269,0.2364372491953567,-2.590677911730037,-0.798608041447185,-2.398965239280193,13.360465452129148,1.5513530515356733,-3.3565014240694646,3.525159683298912,0.1304286655566505,-3.188539305601646,-1.9934886808855836,3.639807968680551
4.852860891396993,6.771773982902846,0.7811867839910506,0.2990067809462762,-0.6211973862763118,-1.0724771407550142,13.564078076215264,1.1996409685727496,-3.4247696579852738,0.5116349331334491,-0.0122936853157151,-5.546583721655053,-4.504968199683464,6.164804446271466
2.021591631067487,5.209367060697247,1.3610537892459855,1.5652759634799496,-0.6611559105035871,0.1251373671019431,15.62893232588181,3.228225489647542,-4.486189737099248,-3.0736623987548874,-0.0806375072854879,-2.9420319397055805,-2.5948817636438823,5.052683310812137
0.9978444643867922,-0.1185286425951951,0.3335486667189672,3.972949221404016,-1.432610692442902,0.4591520178058526,19.30109600084995,7.216211304259935,-4.31667928403153,-2.4127174704072787,-0.1088824251645539,-1.0340864158844378,-1.7071866542152028,-0.9704331620072268
-1.1332127777098613,-6.087330370127174,-0.7250399345225408,7.127812823666007,-3.1673258859854982,0.0363433793631725,21.57931367889932,11.104939319798364,-4.682598907209743,-0.248527960311317,-0.57436326562472,1.5375746954423748,-0.8836892138749518,-8.206919138927475
-3.09769310215207,-7.812917318192679,-1.060057511969164,5.636898547399461,-5.381422803803607,-0.5225821018410768,19.245175552177603,12.689158899506817,-6.123522234856141,1.0403983345098715,-1.426785811986354,3.6857928656116914,0.7541552286814599,-10.436319257376924
-2.0362399374982507,-4.599460644356604,-1.176996503182842,0.1009836091059793,-6.898515156917599,-0.8730140605016197,11.623035515823322,11.051237430132016,-7.713162556059902,1.438310626431757,-1.6445822919169628,2.0654672233515883,0.6707710032538141,-4.833787535962841
-3.746503448557738,-1.0109852247388609,0.0569964055490277,-5.742194273990116,-6.481256004438577,-1.3031335485644564,1.2413372468260064,6.903228612241321,-11.827121386498346,-3.1836876852574205,-1.4576646366542776,0.4982998070502165,-0.4706718842894085,4.771416861339002
-6.1991987767991885,0.2209706024546754,0.5923525313458575,-14.848426891710218,-3.720722830326977,-2.260539129971743,-7.998871503628128,1.7934638548561614,-16.837728714220773,-7.793773509421479,-0.4776307030387322,-1.8496527228654436,-2.111587159309022,14.077088140662276
-5.742800354061944,-0.8585726060973495,0.2778490347700235,-17.666457974435417,0.4832346220733572,-3.5833764028536765,-13.449017282467572,-2.9619704843563595,-18.04189506269289,-7.430401351188378,0.9923538720962266,-3.974473560383654,-3.437373395715646,15.492268008927963
-3.737672280134984,-2.5289913262543258,0.1470674555735532,-8.91176285501649,4.297559701843128,-4.35594242124365,-15.024594296011209,-6.736198314239211,-15.453192793685462,-3.0430134154987694,1.6934814260272384,-2.701425700082474,-2.4601779605215883,7.389971994631452
1.103057818711885,-1.3247072431803577,-1.1892418776140643,-0.5781075526448708,6.00571305347856,-3.701711605682808,-14.49055438233832,-9.309262714131137,-12.52603377364172,3.50024296931647,1.1452298095973248,-0.9358412632165644,0.6151780157108222,-2.0618040903687365
8.657306635300646,3.6135710473313862,-1.710804249670665,12.643866963098414,5.023243635093291,-1.7997854075633155,-13.71975838211194,-10.440055252325347,-8.794786772410626,7.971311842602196,-0.0801139943009556,1.2533533704220492,3.78529174241174,-10.36860966381346
12.34220017572155,7.403238740490238,-0.7957786412813059,20.68037053100889,2.1971780856452163,-0.0184304374339792,-13.453590151814796,-9.876363380742328,-5.230982181270228,7.052067225958583,-1.1390413623124085,3.1643604302554547,4.633590790694523,-11.633281443688752
9.245852897003893,6.772786840095097,0.2547992590178268,13.276199259444082,-0.7571638288770912,0.1796229692721955,-13.26834540893903,-7.753925246892203,-4.198071573140278,2.2591476560847124,-1.3321191038252491,2.5013969514199283,2.3256716947958656,-5.691478714358599
3.255673094286209,3.3768949311027874,2.325295292197569,8.551975697302455,-2.2443886919713893,-1.3588749851761674,-12.31373119871088,-4.826363844250923,-0.2556076201447462,-0.6252487190760307,-0.0397738285501157,1.441222037606225,-0.9099548241920796,-3.5877721479858278
-5.894592573162602,-2.119744952973978,4.045452479508267,1.506717109213149,-1.569500724503209,-3.170683541391929,-9.984920159083694,-2.125736374706624,5.812308947705061,-0.2240288587175449,1.1290454676757784,0.7468564447022218,-3.501968816921105,-4.162011543318059
-11.426237410750396,-5.481202046211321,3.48162274093367,-5.00240401510862,0.8623989464141895,-3.4414696790990016,-6.134992591496093,-0.2831425003698697,7.99211807410861,1.8828942119633667,1.1933593214512537,-0.2200707635915054,-3.808009808176408,-4.908236782846503
-7.473458385182018,-3.81947607428867,1.3703101907630957,-1.6125625915543518,3.886265788730378,-1.7575338001408785,-1.025188112441601,0.8603830971408355,9.229186169560872,2.771330405198805,0.3108706275790905,-0.744065421543367,-1.8194371710074169,-5.584179369703135
-0.5844191780620476,-0.856317149931846,-1.4508018878296425,-2.7692557781375187,6.168717892664167,0.3773566072187209,4.685650570246109,1.9797042026934009,9.524721935398178,0.693323233274021,-1.026376320396509,-0.8667651743084114,-0.0631841943591104,0.7584983525817885
7.770982273955357,1.705691054818563,-4.716543729222489,-6.176006895053972,6.767727131903087,0.9034826585930436,9.952185316953372,3.589124629071841,7.382122578130898,-3.516697548542389,-1.3991353000307738,-1.8554009368887767,1.1459844047751957,10.666296897336272
11.357222121011135,2.597476297489911,-5.189725710119471,-6.879078075191488,5.489905922415464,-0.7579103112571852,13.621929608645598,5.571110678427342,5.9929922239053655,-6.8188891616140594,-0.8240207125972075,-2.0024164908949094,1.7649428035441457,13.524099157612865
4.6578670662930834,0.7693277128175876,-2.241835777548552,-8.06438756929579,2.949792919519491,-2.979065437511993,15.006796721377135,7.256024125196361,4.136884738021158,-5.592492368123176,0.1809750015102298,-0.4771920601110122,1.798936917316544,8.917195684023813
-4.289677591663075,-1.5620216599868455,0.6058831909231651,-4.56403306396537,0.2800020998495469,-3.324178688693512,14.319088916984182,7.861545984970181,0.8059099986624345,-1.741833403809522,1.3409637404799906,0.2656270345398039,2.4681370422425424,1.4752793869258451
-12.727116375303645,-2.52663924858484,4.298684332294074,2.408593187129484,-1.4429768951558062,-0.8307480735644592,12.478840352632352,6.871670047576046,-2.323723865729816,2.502777809812501,2.196211982093739,2.0910358404578284,3.900653304069506,-6.385628177095154
-13.992502530638497,-2.0870301528883988,5.687925477551914,6.697623988915609,-1.7940197107589286,2.9860562348008024,10.345054418069187,4.176110872588341,-3.098458632986876,5.141263224641552,2.4139632253817327,3.2065712622687337,4.103549883503629,-7.559369622926947
-4.396437509291687,-0.3128357582364973,2.566452729040917,7.209152391923247,-1.2360343653076449,5.393763081197001,8.060659161545024,0.118499365402922,-2.3579716800760577,4.538119276828584,1.9588462360336696,1.581164637129953,2.6998516314091563,-1.4615317220988486
4.168572609437142,1.109721131331219,0.3459294825071928,2.895953732893129,-0.7743168358718293,4.817344586626297,5.197417715660928,-4.420164204466836,-3.1676669440896097,1.0419630155728612,0.2634623223550751,0.8120775422705175,0.152179119981694,0.2580821684034464
11.581787835856533,1.5962547869383557,-2.4961031531260875,-2.0841793116936,-1.217591795907664,2.140083844954232,1.6054010767708211,-8.072179599983036,-4.624757581588564,-2.212955598479004,-2.4513165811562554,-1.3516943719795191,-4.254900149336158,-1.8937240458343836
12.66239988485384,1.6889178767038224,-4.206718578763561,-3.768591636572764,-2.583156552508836,-0.2107549721455424,-1.9337781147955315,-9.445622749206528,-5.86026340657774,-3.161375927385364,-3.863627181855641,-3.315445780970669,-6.601960484308789,-3.251441904385217
3.5677170672339256,0.7467747233770357,-1.940102293009197,-2.878648601184992,-4.119762480108301,-0.459098993390798,-4.075530565419459,-7.919099571038734,-4.847352840929444,-2.6245481985491037,-3.1146198495016573,-2.09356664883225,-5.308648359604192,-3.5503050917938803
-1.8055381693266432,-0.6729583639234129,-1.2329094438991597,0.6682354468809208,-4.925032336355592,1.0947181136165085,-4.124698926117013,-4.201146425096077,-1.430753662684705,0.0543436080814481,-1.1765651716150431,-1.511841436521617,-4.073446523997103,1.9352513811249896
-8.070991911083965,-2.870331442124132,-0.7041164892719509,0.3085153982913041,-4.625830685083859,2.630792510853489,-2.9641659407473284,-0.0726082888829395,2.183634271657957,1.9363687238293523,1.186221712525238,0.3902633119785141,-2.1915108630007585,11.203563301664872
-11.858410166832044,-5.027618993390994,0.1186732668010622,-3.373561442214989,-3.5556227637474507,2.660409197743613,-2.6978840245865,2.6502515199333043,3.076350262954222,1.7456307638488138,1.9611685138176471,2.6418217682582004,-1.0900411535686496,13.501075696146737
-6.313669200007412,-5.27014580564056,-0.7246536293467154,-5.126637590598045,-2.3565668944581244,1.3496239092354223,-5.17331727195171,3.179073456411974,-0.6497503313208088,0.7048834352340301,0.5040438920491483,1.9258817707768363,-2.4857905873427857,6.559389628408474
-3.232749348573174,-2.60042825051738,0.5495878577940178,-5.1057681807667885,-1.466163093312009,0.1346276329170876,-10.621887032449395,2.0089517430220383,-3.181783797263272,-1.2802491802497242,-0.5685342093374313,1.536989131093518,-0.8444470857725749,-1.6728865223751912
3.779175020210057,2.215792418383235,2.8259653277132237,1.1679718128475876,-0.9832406952279468,0.1492712114453684,-17.56759785021969,0.2097333141965123,-3.174568115786024,-1.7105287348327454,-0.2256496667681036,0.4707211394946964,3.641395343709657,-10.703870944218592
11.259599431901336,6.339233065908213,3.514741692769736,8.491385868904853,-0.9294250681564656,1.0839113107814151,-23.986025084767288,-1.574929543761824,-2.307183162412868,-0.8262929406673323,0.9285877307091128,-1.4334137074391744,6.891143273697346,-13.73349782345385
9.311582477232909,7.799824695440263,2.9240670312409587,9.503139270547443,-1.4641153027929956,1.5698567971658104,-28.60349851811333,-3.525708014258157,-0.4817983221708168,0.2915707745141601,2.1636726669126656,-1.6433903142310833,8.324923811856767,-6.8489450929180204
7.517660985119079,6.3101816386809455,0.2272177709694864,7.682353917231047,-2.693496537290395,0.6291220795774546,-31.23220971137413,-6.118421325700385,-2.8820573566532928,2.09723911660628,1.8009977938356234,-1.917023009721404,6.100647153965578,-2.560457158179305
1.9588443954859944,4.881642598607032,-3.449606172319694,3.0506578530847563,-4.2481969514863405,-1.2983222768411655,-32.05574992096681,-9.188184757798693,-9.179163619613572,2.016151194314265,-0.4871636178229964,-2.490080093925609,1.0720035176065332,1.0424554813767215
-5.502147551085134,3.2612183362758,-4.838038818205833,-1.5759118991962755,-5.190170720248922,-2.7540575819069613,-30.777867852906887,-11.497606662836231,-13.51809439425302,0.175218349992508,-2.6573427501220714,-1.964419260288144,-2.9433848170955867,3.656613095489626
-5.2950936500432935,1.0908246887178692,-3.1721177920123367,-1.56910841579947,-4.569459413252856,-2.639152731937875,-26.59762616888796,-11.338028987054836,-13.805082693651256,-1.201097243690243,-2.987860454355732,-1.0489146830849445,-3.5753413047947973,1.1897658564517468
-3.8037741882806833,0.1865714343883608,0.1402176065738272,-1.0974795589454058,-2.283295391353072,-1.1936280753160524,-19.114465006534708,-7.830383197915947,-9.726242049841789,-2.430245081975181,-1.293585459710069,-0.0021601986519164,-2.061214611073696,1.2276582428441845
-1.5305693586539622,-4.615320724139032,3.774532834765105,-3.3950652520376856,0.5311439659362112,0.3135268643545732,-9.33488191419814,-1.932276022897456,-3.491349084490971,-1.778621526654114,1.230772761548672,2.2996639523369664,-1.968377724301511,1.4383899874400297
2.2643861890205623,-8.657184720527294,4.74797168311602,-5.162652735266711,2.045433321646668,0.7530394465416208,0.2252054668471572,3.754177481527213,-0.293985086088941,1.133372776944511,2.8047075746389054,3.790385669338372,-1.6901051470973527,0.4574698847243663
1.9956703596161864,-7.481101825479148,2.1405716262466297,-5.530426725662307,0.92753866152497,-0.02041194159899,6.659158233482124,6.435846106891979,-2.552052590237199,3.099790275730025,2.3526189417390966,3.199612254397,-1.0368044436148065,1.7915214443214569
-1.0261105680084508,-7.864436386497932,-1.277135584740134,-5.532651713361291,-2.6889403792418767,-1.3197832700554253,8.350911939776699,4.903122498988324,-8.098347870228325,2.954545539318879,0.4059784651378206,2.5737152971015544,-2.0646284649089446,2.8577402613418696
-2.934522084964206,-4.403676827627863,-4.401149245531211,-1.893696909515707,-7.16329779761837,-2.3571105789743783,6.047941635772661,0.3293861703741445,-13.15133374853291,1.553362177119424,-0.6605094956578637,0.911523819826606,1.0465667626142316,4.606765503709643
-3.734569648750025,0.935767155875135,-4.883944444195474,1.844489527540472,-10.25088081192088,-2.698702301555712,2.4870097782089617,-4.555872361468218,-14.200814509198189,-0.8456156372473909,-0.4215223147795011,-0.7755847595361967,4.455994793135053,5.052843092419335
-2.4566999117883,1.6561774110021803,-1.7112393177185177,1.6931371230414831,-10.331558076812131,-2.1724536457634533,0.6988381389481466,-7.36376107086455,-10.353523080683749,-2.0907177743597822,0.45457209600154,-0.4736741611672346,3.2951568541629768,1.338979460019677
2.125451015758544,4.57632133799101,0.7696681290615803,2.22558634351092,-7.219383602799421,-0.7107642109130845,2.0784113431410534,-7.622385672321201,-3.579965591383135,-0.4339580103099685,1.2505199353271537,-0.5336468499727431,3.538765245230275,-2.450053377326668
5.641694214365624,7.000837668474057,2.414638404765443,2.146355517672157,-2.176574290046351,1.427751807652319,5.56086671275608,-6.862134842270741,2.324508717974416,0.7555089907201563,-0.1305042387140912,-0.9123253544945564,0.4752393171898426,-6.822516221847077
5.255389586972551,5.156245637255174,2.986464836495161,0.838251207709992,2.7547486483440062,3.3576135775574665,8.527127434158839,-7.162571756854698,4.726505081460951,0.7073066275114464,-2.0976571592237976,-0.9532468361680816,-4.039289761858562,-7.410105911514867
2.20076234163629,3.215468194837604,1.416638528764159,1.4276695543372226,5.70559260712551,3.882742768372216,8.803173972600032,-9.285354072186475,4.226679824969772,-0.196338441766699,-2.5484083891114664,-1.750383008742914,-3.8162168080276633,-2.108523225266254
-2.632253811580409,0.9435869035413476,1.3745789198334744,2.1274835067106794,5.798031695244839,2.502969261155031,6.247310971964406,-11.84185768630394,2.1736851929599244,-3.358089154057533,-2.179925354793223,-2.43230812693872,-4.92655383248771,0.1283595187862596
-6.498247794693844,-2.3524414647384737,2.3259483359348265,2.850711259355005,3.521869283939889,0.171832690776214,2.6998694232589315,-12.176032167987897,1.4520967103909583,-4.789433721997352,-0.0571195623876405,-2.4162768731991977,-5.467584352259345,2.1124290113548776
-5.666204909506231,-2.861188729089226,2.154709195631891,3.806487987938936,0.5168678080589815,-1.233959298999341,0.3833295465608852,-8.339917579482435,3.2908346101031967,-3.1915437484456626,1.9980839778518185,-1.690876195435069,-3.4290340526895133,2.2116464700652485
-1.1764431708561245,-0.8515941367064626,1.0063747723205667,3.028242655874665,-1.2018294071918236,-0.5738784324645753,0.1484179470429421,-0.6759840362985532,6.729088016465905,-1.36255119565768,1.4322229136635436,-0.3948101269630598,-2.383976564936728,-1.8989366515428168
2.1932522927050657,-0.815876453834812,-0.7366562341851636,-0.4306929524953184,-0.2841305635922069,1.2809204293178809,1.092105547350375,8.220316130030138,11.03634580563038,1.7998557450892405,0.7392478052225142,1.197187965019701,0.6200758857213646,-0.2475760292408502
3.990679070015738,-0.6879843813144935,-2.920000136493722,-6.1929904504509175,3.1599386163663867,2.001533971447389,1.821358492222917,15.14905780007128,13.812533337866215,3.585336681171879,-0.0957953591097996,3.1326083107890166,5.256288300424252,0.9704310787404496
2.9436295636402385,-0.4204048785010338,-3.803568865031615,-9.365912521198789,7.514844639142102,-0.0535155531638071,2.0897938474760918,18.29167040764777,13.910626265841769,2.015007429242541,-1.1234578225330114,3.306236505625632,6.721137471704688,0.1222606980900553
-0.4732095362406595,-1.7195779451097246,-2.417130217782778,-6.9984965589719605,10.51440030308275,-4.050840976253996,3.159246578850372,18.02120146952464,11.9338123941993,0.7552577992329008,-0.3800187620961515,1.6858785835531067,5.586236961362099,2.003495501054358
-0.6097576404776552,-1.4127364976886712,-1.5133406361206792,-1.5054462800069714,10.58316981491417,-7.098310472522409,6.4703220407878295,16.041862137865362,9.89935757338506,0.8661877108514687,0.5934464390357166,0.6453473548351163,4.13760623394325,0.5364835623712914
0.5479664869401922,-1.1957371794178222,-0.935966882203432,6.4571165038681,7.843335354840693,-6.690720355261069,11.909578005319334,13.764142923995449,9.127864974635733,2.653128271659733,1.1016986981065084,-1.3155133027718495,2.236462101283338,2.965323362549685
0.925617487855682,-2.0372773413322105,-0.5617998694143765,10.081165635183842,4.081602405792122,-2.983440175819082,17.4428896387729,11.359071294237996,9.395792820847836,4.807826324253028,1.3951045485892268,-2.431266123105458,0.9685684045631568,7.865860678605372
0.4907188644513685,-2.199287303534045,-1.070882905812787,5.088220227608523,1.624515337765338,1.2789469129828603,20.599551307413027,8.16379190404432,9.946428820785414,4.41316566449244,0.8202362758791913,-1.1493088752289524,0.5828483037963509,6.600261305357493
-2.206684742118295,-1.985109311888812,-0.2872874363489599,-0.6656258438578919,1.8462567684983495,3.1791884991485717,20.46419985777629,3.828848551787688,9.435354854371187,-0.0045014012702166,-0.4801828379654637,-1.1118975274305103,-1.642429304786012,3.850216972982176
-4.026576991352303,-0.6112207501537867,1.7220681131930375,-6.517492908048207,4.339186828087112,2.146142134012555,18.297800622725667,-0.968365359849864,7.504246368267158,-7.113066928676965,-1.5430769735528698,-0.2920481906596428,-5.910820486927534,-5.502349527634365
-2.733040376788008,1.7598176202057592,3.343314021048049,-8.596045600140403,7.322780648836973,0.2364384835244823,16.2390953426735,-4.845033920217169,5.020739076147786,-10.1131117513046,-1.4013133069348809,1.3446689237492857,-7.319062783959598,-14.58610464103386
0.4917712102426673,4.091997909960572,3.9281323556804018,-2.70672848363512,8.947608649240294,-0.0044191531483868,15.409294929868985,-6.664510499059771,3.587468261426288,-6.3940744790629855,-0.4653346583971084,1.194962125361943,-4.792497314466182,-12.258045377698698
3.490910695141601,6.322389085973877,2.97656411231268,2.7145588121427737,8.479676638020967,2.013480169937821,15.263559643514792,-6.273968501119267,0.6407000936018075,0.3010626856434675,0.3870199007108921,1.5498116421466648,-1.6586129819902615,-6.661767495633304
4.654724231011387,9.095232290594172,1.03126248442153,7.985350161605634,6.483135320823463,4.487605914022545,14.688688576670906,-4.54793184372636,-3.4193570597469165,9.051304195981196,0.8777010950395604,1.3626431250990916,3.444374390028042,3.5461130269416667
2.7402474573562463,9.05540826397576,-0.7576528687222293,10.37216936567895,3.983570355961224,5.083974774739399,13.540279046948507,-2.8528581566418403,-4.733282939042017,12.3969276346411,0.4706847606909135,-0.0334424190837981,5.717319025626686,11.70952289361924
-0.1191548864334923,5.018463936064191,-0.8604814520451538,5.898101826452522,1.4705401626236494,3.1876050311414623,12.90508849832937,-2.3071017083064795,-5.537556276158982,6.80344965817884,-0.1916526174351415,-0.3424110345256916,2.713555495537951,8.310988426710257
-2.4491871710888,-1.006556114320809,-0.8097575946718101,0.3411899632098371,-1.2990893047016456,0.3956926410131629,13.769506170089116,-3.151322473361347,-3.9339845517496896,0.417299312638527,-0.1865972398668601,-0.639237040154376,0.5181367318067077,2.381912316291732
-5.6567552123211895,-11.479078538793852,-2.0431340241373896,-7.734255035425644,-4.548548540828293,-1.0698386963223534,15.50732331778611,-4.497511575044953,-0.0684210607635541,-6.803874164091786,-0.0335007470443518,-0.8524056736345265,-2.8261730410891666,-3.614089601869456
-5.461289490583106,-16.854499479136745,-2.1398999543320665,-12.713402040938696,-7.628031187086492,-0.3752230839257997,15.871657238615676,-4.709415709781986,1.8757866811403463,-10.538123444284151,0.1742589142273526,-0.0180561168750451,-4.435515960957106,-6.643467057802824
-1.576561082711895,-11.582030178372214,-1.6079929393544248,-9.132434893822806,-9.100892837251166,1.3657815270450229,12.699661830437424,-2.4032803716500304,4.70466721125504,-6.608524769827882,0.1995827315331455,0.3526280777556385,-1.176674414399134,-2.524612514429156
1.964685560207331,-5.008103001190089,-1.6783671317688231,-3.798040694187418,-7.898556715059261,2.303585576320625,5.803674636802981,2.487286327738957,7.379844676710909,-3.198128978682502,-0.4212433476021974,-0.2761092714012011,1.108729896623157,1.8682994211974369
9.192705827459658,6.090557233947865,0.0666669220774341,4.519057718217685,-4.4913527361287215,1.50412345277649,-2.734840597245718,8.441195925936391,10.500193932096186,-0.0960278487934627,-0.9429252030007832,-1.4111358725272831,4.498810491339198,2.8651220609819776
12.403865889342882,12.9813203982696,0.8447662865986729,9.916522184212909,-0.8050632535773588,-0.4588280753724056,-10.176627526324076,13.262577286082674,13.906498705513467,2.3415158645448155,-1.1062840680355013,-2.7419889671475315,6.086916721534863,0.7641374201345321
5.374669732246804,6.768477335529492,-1.453436265657078,5.414822870564507,1.2591117500665412,-2.244383301597388,-15.190882036951232,15.556676433072557,13.935185831268678,0.5681792606869831,-1.25364333222582,-3.235510217683868,1.461140186905137,-3.775486103126698
0.0017463234191833,2.060737000452096,-0.3093646803329457,0.6257759410671762,1.4095570051457322,-2.8791249099904626,-18.552371193306563,15.550288302708228,15.371980763645304,-0.0080237791254745,-0.4309619270581045,-0.8540543673472608,-1.047413530553431,-4.867046623883866
-8.779610270462763,-3.1590502728270904,1.189918051166825,-3.8625482589830105,1.1194849424502775,-2.2758707404850758,-21.942574394461964,14.55109676135206,16.547745087162955,1.1554109300363091,0.7013096287417054,3.0342160458363496,-4.147365066325734,-1.5556772277278514
-14.67014338878698,-6.839310181632413,1.204179898466947,-5.729457965623292,2.148455028102287,-0.9714117802782312,-26.01383442236212,13.587407982529152,15.4506545261535,1.9058233573505896,1.3927891003538408,5.1320991492068,-6.041894044126906,3.051120876781216
-7.2530361454838,-1.241349069941061,3.0906090216055384,0.0833662049513004,4.8449466882674805,0.3854592750684347,-29.432777656936175,12.5460591545296,15.635419027611196,3.8550191929505897,2.0858406606947075,4.502268760560005,-1.2044831106912517,6.842539442617764
-2.1616654458860225,2.1536986757458774,1.8125579240595877,4.713744475620801,7.86223746292011,1.3314907681524597,-29.685537307355027,10.618666524414303,12.784093045332911,5.458894542006535,1.8684235704804275,1.0514589748468517,1.1984507364138612,6.096532499139288
4.747120739108773,4.032762986661267,0.2975917220884526,6.484253987733704,9.4677659538382,1.6635677176417296,-24.970448196072116,7.529810836036891,8.029222043994094,5.43061039066402,1.3867986645980994,-3.150010024386007,4.446723733385129,3.980823531594986
10.156316085492785,5.2909622989084895,0.6327422837944283,4.865586716932104,9.027865425288546,1.4680446040226762,-15.747368915407977,4.184499909563908,5.732371576189402,3.397888114576371,0.5943084804951271,-4.759218404445622,6.982395610743117,1.6486776199191395
4.804492886414401,1.7205177734379795,0.172059524312381,-0.9654323795650088,7.208388910780783,1.0879953720897593,-4.866129537443185,1.9366396270080664,3.275461338823836,-0.4292365823692624,-0.775339371045502,-2.997314004077521,3.382160177001082,-0.8119341258619186
2.006469095488044,-0.1809605016765117,0.4232727661280366,-3.046399411879353,4.938653556095053,0.9002121557291787,3.825895223737117,1.1419082765068431,2.9260506662780683,-3.22138866130213,-0.8814320353508007,-0.0558360742711793,1.716244394097912,-0.5366367206995146
-1.5652737046201186,-1.7887330639680186,-1.4810083789322954,-2.2787473977854207,2.520485848004788,0.9987361918129558,7.604079118025705,0.5417707958927345,3.344624778247113,-5.45994653782428,-1.1371024898644793,1.8028883650543608,-1.7170848377870258,-3.688605312205615
-4.866992601148059,-3.375235449433486,-3.4131353735672736,0.0239670843632684,-0.080416340610177,1.1261492081856028,6.490221548052523,-1.6707909769953488,-0.0938356954286796,-4.963302930724856,-1.0466327704711798,2.1309274739624464,-5.527548104689751,-6.489444604304954
-1.66813044725366,-2.3107143813481694,-2.55910526243645,2.482087173748546,-2.3026314299740545,1.0036341166286649,3.3132337139087,-5.96196781427059,-4.620465050266829,-1.8584914213798005,-0.0850831765659965,1.0625961129225807,-4.701956608460436,-4.634649663686648
-1.3256083365841438,-2.8192499369310746,-2.0065446205720927,-1.9353001883693448,-2.874219531333463,0.7270630160096028,1.9286792481727983,-10.613768771047209,-12.93888319799482,-2.5162951565776543,-1.316439600079474,-0.2187218263647338,-6.136254902523375,-4.79678846876876
-0.0463553330845806,-2.436600217788791,1.3234919864716497,-7.954354945528582,-1.0639551917647263,0.7228560537024129,4.535318773363451,-12.957743250633309,-22.43741661160285,-3.024089192123748,-2.1755615004801263,0.5307073778354345,-6.47355510807951,-0.1663401761458822
2.9519715848567096,-0.2003052598998543,4.264738071594202,-9.705503567928345,1.9183978053095347,1.2195432394734156,9.93128896994332,-11.710208787264124,-24.572225014449945,-2.27433018965245,-1.7186757905278434,1.6644492766365346,-3.5239322917039364,5.245529326898358
2.388618362983597,1.1911626451972015,2.7776532395275773,-6.39876776606685,3.153083720060798,1.8053049636043528,14.214358968339894,-8.237860520378364,-23.135619836344947,-1.322945148730784,-0.7861735033587729,1.5691502157264634,-0.8389045227353984,3.787527073867962
2.8207402548141625,2.7661025040333103,1.8751304696173143,2.7291806894527126,0.1850240638684042,1.6600369730565523,13.705018173554848,-5.486978849411665,-20.472802632247987,2.51335795003168,1.478587198839418,1.1381532600070858,2.8122969698054874,3.8557875960051007
1.19166844630265,3.357764766309805,-0.7791042184892054,11.25919199433087,-6.63025499156678,0.3548312345692164,7.965269386400115,-5.499757492039141,-17.406286086094266,4.559627647527614,2.5222469224621995,-1.4460377511637783,6.6101275619398026,0.8122625858643993
-2.8811152510942417,1.383494473581404,-3.5399957219959868,12.195285427847343,-13.871387816113682,-1.5652452048117738,0.4368965017092598,-7.762865230929268,-17.465904426109095,3.5721404115628945,1.8311668965259544,-3.685127259827984,7.067728150965121,-3.680255370081295
-4.243711786246251,-1.4361182247736488,-2.2466202156045543,5.982129129555279,-17.394887151277405,-2.8788686092378306,-3.979858042547521,-9.788243270214773,-16.356205566494705,1.9966007953118945,0.6764296876154763,-2.843664638901781,4.74151321532054,-2.1607364287526565
-4.451222411072471,-3.042832444519444,-1.4862133939195,-1.9693737406887029,-15.41055510009666,-2.6792954952179926,-2.532163938629313,-9.22491046007135,-10.29842986975808,0.689288622621074,-0.2755441376811651,-1.6381857689520136,3.369476277326482,-1.082724727056237
-3.0557910540213618,-4.81412937608771,-0.0925826813066243,-7.858917941038578,-9.710331030796995,-1.1642299297201075,3.5019128762344867,-5.54818411477131,-0.6753198502101762,2.4934974668939707,0.6545273069765518,1.0473355390235684,1.378571836143923,1.5812296718594654
0.0749358681384503,-4.738371370634103,1.774539831206634,-8.135800585397877,-4.09565615677489,0.508963177891804,10.07603850054656,-0.070429649515443,5.629267701568021,4.784075534817347,2.12609178511848,3.360566551509748,-0.7310786198451944,4.7805201059315765
1.2817527458825553,-2.4258895706728394,1.0373030935552252,-3.782900930505517,-1.4567430869989837,1.1649960340702172,13.524977937981284,5.2958628972268045,4.889469636041093,2.987753377417413,1.5816796849995003,2.301355293569881,-1.714838994896665,2.6298689463715443
0.7280462417224517,-1.2681125427258184,0.6808645791909375,0.1270687117161152,-1.9526901701449333,0.504196876244599,12.893757803859792,9.190553582218996,1.6043326336304635,0.6750408812424378,0.7478833996349808,1.2988346216703155,-2.5136385263178824,0.6354387208935506
0.0603263589347249,1.4056756089944744,0.214875376192853,2.534260687558459,-3.552851792130838,-0.7908433185939714,9.752315506802518,11.093387682475791,-3.212668144710786,-3.630640209457857,-1.293531371007117,-0.0336104070485387,-2.268824670462989,-2.3025555912414863
-1.3726977240903846,3.985082815481493,-1.034630713779518,2.968687604107875,-4.09141289857439,-1.7242059045806144,6.176900432596383,11.03305161459442,-6.141078600429912,-7.391793713795393,-3.5715401417927968,-1.7566161706132033,-0.9827103781501876,-5.637275937049648
-1.6150190347853484,4.680545472208872,-1.0795253870778596,2.149320555989258,-2.907724696011691,-1.7778413017827432,3.0266055968114287,9.350851393898472,-5.361892080268452,-5.041297376389927,-2.769079620579145,-1.6134158093082676,0.1845678197598375,-4.446447182766317
1.7631343001649014,7.575371018961272,-0.8610806358159779,2.3978022975765048,-0.8810031785630841,-1.1849087297917578,-0.0522106999585076,6.665938613071731,-5.947896252701548,-2.940562717384691,-1.5856731085054792,-1.4953543165397891,-0.9294183802712424,-2.800644741977364
6.178333827471939,10.498262045901376,-0.4150968477734592,4.214022176568019,0.7232733342108304,-0.5903148162494318,-3.385248547446736,3.730086137360473,-9.088432861612072,-0.6991240361602397,-0.2765117648040497,-2.055134391804876,-3.28365563904314,-0.3279198277076259
8.40177093724429,9.704083748695544,0.4963525734342932,4.980221379267083,1.2865365947866394,-0.5059341304114184,-6.424546105793496,1.0446094021535046,-11.07931391615529,2.1161511683335883,1.2350061488378108,-1.7822068142636387,-4.410376457527984,2.6386615216768816
6.24265127605112,5.908616953445338,0.4268510426962674,3.5072478632995314,0.933295226304608,-1.0159580334349343,-8.24510083531645,-1.4180025417568345,-11.534103150073811,2.52295906813974,1.2839758369342855,-1.0368348387504756,-2.7144662835985414,2.5389783868213103
-1.8945052277427323,-1.155341883270074,-0.2801461262348085,0.2592321661006718,-0.0095265929057077,-1.8556518510063995,-8.700501545374529,-4.019955422209449,-11.95319047404581,3.0017590051834837,0.8584480748383201,-0.2010507315908747,1.6096282133246167,0.6942094294359332
-12.836690608803366,-11.45213837854858,-1.0973430745390362,-6.3458073830751935,-1.3697884521782413,-2.671965329488309,-8.788462944829405,-6.929479067099102,-10.608920958537432,4.640706645761843,1.4001319052791137,2.291759842236537,7.001649353877482,-1.6970507162006805
-16.25134130876837,-16.302115499716685,-1.2584165014494373,-10.554497276823936,-2.9671934385471985,-3.2379067672349464,-9.684987942322708,-9.80490886536198,-8.774200908132675,4.57504541687219,2.001222254545578,4.315540242636464,9.393640521694389,-2.262578888302103
-8.082059594461457,-12.815743639443616,0.4399213995968799,-8.543795802000433,-4.355384628730164,-3.544339749481125,-11.459689054851964,-12.03325461927264,-6.840896784479488,1.3639341877046178,1.3602160406747896,3.836577017886424,5.892693119215881,0.8065307173161789
5.412497463044065,-7.936203282819984,3.138090260937707,-4.575333009337362,-5.004801883367435,-3.789209283565299,-12.94512539535387,-13.270836833880692,-3.9518933310268505,-2.599115166853943,0.0558640919816821,2.79946202857857,-0.1151774105992433,5.870353966322377
21.38732889903255,0.0687410891520517,6.144844936964541,3.3325920489265988,-4.834751322243164,-4.252451743783965,-13.013298356652117,-13.73024766401916,-0.5071770491582606,-9.081111781867806,-3.1382790816391277,0.0396291955223837,-7.269578121746411,11.235504761984258
25.57484372768947,6.52000270378856,6.600131578452206,9.439076660667194,-4.434322991222132,-5.041976091781777,-11.903987157662527,-13.944749820269053,2.1996725808975643,-11.606437051784525,-5.343995382321868,-2.633573495680068,-10.384884181480183,11.38281041440299
12.055707525880194,5.374363652070157,3.3723575287044336,6.872606890502545,-4.538631849263794,-5.840508306492325,-11.058079962224753,-14.264225024688956,2.8565633552777374,-5.640731128175803,-3.460406514991813,-2.15103269214672,-5.918166078015775,4.874399596426273
-2.2048541274462767,4.157232663566546,-0.4820812798221164,2.110362756564901,-5.149499520598027,-5.925815384901597,-11.486857257468372,-14.544966891821218,3.104751390219784,0.9442792771857176,-0.3836691764131448,-0.7816755610310894,0.9278326235993076,-1.4741996397433803
-16.933698942209066,2.8683408697735,-5.099901757708423,-4.822960813315399,-5.2112192322159245,-4.612394893417388,-12.427945352437844,-14.256514468315842,2.7391584315452806,10.356404753915324,4.116233487128512,0.9286440237125104,8.795321222969799,-7.9609992243112435
-21.901036124724616,-0.6505621747865715,-7.062071115823304,-9.555174178441588,-3.346787653837083,-1.8642721406411056,-11.95733498272584,-12.86016247572394,2.242995404381526,13.90193414600986,6.21635710294896,1.59537592293483,10.77614592992573,-10.56346301022962
-10.54161209800728,-1.1972211377326034,-4.92779476494643,-4.943627228935304,0.8377829417997305,1.4557682913289796,-9.229700462556051,-10.166947098821652,2.799475105674018,5.599494069345653,2.959150604049255,-0.6403595744713715,3.336478319912244,-7.293801335492393
-4.555149807358821,1.3522676671528775,-4.177550362975533,2.827106137939283,6.010675889573975,4.02523737537912,-6.107248724038705,-6.479684991349359,6.242882271944183,-0.5479319061279604,-0.1867196782910939,-3.4243409610800475,-4.941408334903131,-8.223593945901813
-0.6036972461328601,2.547453116038064,-3.4465841059298064,10.834512336354283,9.707930877586676,4.910406942530706,-6.220177518367855,-2.476641187297247,10.79429962677336,-8.470579021218557,-3.4402118344842934,-5.2668444255060205,-13.693598409600886,-10.93456969465282
2.2152843340552977,3.3057040369889954,-1.9562097593851264,13.41227464546134,9.965262635486964,4.126847309425671,-11.90153811832382,1.1151246882603516,13.050710683430768,-12.202599269083043,-4.712473768251801,-4.293664035293507,-15.52518960246525,-10.373136952810402
-1.267702496956232,2.795618843979254,-0.9581064460091152,6.218822392797484,6.795659471685553,2.451138572846247,-21.652088407091554,3.923261121444668,14.531786761158347,-4.78228229037132,-1.949072833908307,-0.4184453054323453,-6.403953628725475,-7.008277919660741
2.7469038644721144,-3.2896491929611185,1.7478750893578496,-2.895943487309088,2.343169667095623,0.7155582104065985,-30.55288416575715,6.163508462570519,10.889109430879431,-1.626725560820723,-0.5029827037564809,2.1033325988334832,0.6336548410409573,2.129403977829024
9.47490733939471,-8.019180522203067,5.321805338956774,-10.880456709092124,-0.5094298380280264,-0.7188768470635196,-33.48714839013956,8.447333871169434,5.534109967949776,3.081269845514975,0.8350735280810195,3.3544410578825845,7.991753929526773,15.298706803064976
9.92340992238252,-6.326408640613829,6.000025780023798,-11.48093437450063,-0.1172122376997322,-1.8614775937367651,-28.557204330126662,11.173903711892812,5.024025384804294,7.898157832703539,2.2332404909441035,2.554019906246045,11.903246069435216,20.657794646918266
6.893752403836638,-1.18805120145261,3.7799001216618047,-3.3064595016338,2.836693075155196,-2.6116440645921344,-17.982316738345155,13.947755780893893,5.206248483775612,5.020809680485369,1.8312729828922016,0.2052106520468322,7.301029161480818,14.981977413814564
0.2189000993202405,6.363798260440378,1.862488935078184,1.9309956203002607,5.985276157614862,-2.5433473943774274,-6.007925656238868,15.62829344348835,8.761378015546615,6.153208253813047,2.5301733782742755,1.7326295419347746,7.375189076528752,7.314182050484733
-6.797711492816867,11.691933949781989,-0.5666004330020774,4.771096340771621,7.152473803105174,-1.2757916565009353,4.206997966414733,15.183618475561378,12.4229025719397,5.465053500892451,2.73998324793753,4.309704263477884,7.708232715592497,-2.259191907796545
-7.213784958638928,8.53911538491265,-2.005604118517504,3.611537404665224,5.935531684017512,0.9545352188516532,12.2380718512286,12.732290109244357,10.079748530946349,0.4476888041866949,0.9124604287715644,4.843446702985461,4.31367558129251,-7.395887528855258
-2.609956923946706,0.5093028283553301,-1.605685482119739,-2.1002212804719718,3.704495636657082,3.2119268177799114,19.647770071062983,9.771662998099847,6.03555294924984,-1.2004077456041204,-0.817638610023816,3.205844840511252,1.9487897073105125,-3.4992533663185026
0.41497685356849,-4.343067568516765,-2.3222231829744127,-0.8154281637693934,2.11466292684414,4.499886383111022,27.90851005322053,8.16000424716305,1.012719793764543,-4.181711453310796,-1.952295273783628,-2.191490991220968,-4.680528142934886,-2.178593736816129
1.108332436240124,-6.898363342374978,-3.091452211029447,2.719773767908844,1.5707722043483656,4.569321715253205,36.82757715609321,8.574809566954956,-3.3780416607978285,-5.489560100660992,-2.4286394944257834,-7.545604543731731,-12.993978934041309,-4.0037342067820525
-0.535948894298217,-5.084246151960623,-2.270076666248748,3.692706504554519,1.112023212760341,4.077988157737197,44.53033544886594,9.812335672707086,-4.545003095807154,-2.0840291178891523,-1.121220574930968,-7.669813303286604,-13.302978035117372,-4.946817898467479
-2.9484534883606326,-0.3044711506869527,-0.1986941063337361,3.386617770652768,-0.2087343369693268,3.87911024797948,48.73035027431992,9.664934390200074,-4.817968205116073,-0.0148375201351763,0.4778837204330943,-3.1341131194506016,-7.060811930901784,-6.175152097770569
-1.6656965490779094,-2.1415260962307388,2.4209402285441004,-3.5097733629108787,-1.8956025307438156,4.113054438575922,48.22162039784345,6.687348477538169,-7.71215120480927,-0.8052901359765879,-0.2488862178193351,1.946452998738952,-0.5901540364272653,-4.536442412885066
2.133416447935386,-4.713991913134827,5.715568836830172,-10.763783597340275,-2.1030224369366053,4.04054069566833,43.61488690941792,1.3082772062255117,-12.867000852841755,-3.281374243712733,-1.0564676808590772,5.445275293195953,7.76835552845637,1.6281437356079245
4.11160291206488,-4.605472611897741,6.109295118840469,-10.817109273233624,0.6415276548792548,2.8523703155539444,36.94156036332007,-4.661847474777332,-16.204480732750078,-5.824830018466448,-1.2758476343425516,4.4173417222485645,10.46278290950106,5.823803614654071
2.6096243512971693,-3.7197374087145993,2.708039701137941,-5.505593901012055,5.664117385828796,0.6773589176278279,30.40229419909422,-9.58510812842892,-17.128919153613012,-4.450201023440394,-0.8605722228286155,0.1570813870151626,4.3668435794779175,4.827217962974617
-1.7332793841058378,2.745915661878403,-0.359209719445374,2.579686118675422,10.130492780780996,-1.261141572893493,24.995008193294964,-13.138973497914089,-15.41635512419402,0.4496052056734604,1.163448124382797,-1.6490171553363226,1.1449613388963369,2.759375250353684
-6.95236178190457,8.092153622463645,-4.724663634501635,9.367996925432124,11.06495471761064,-1.5916234140242551,19.879728193266597,-16.079563552610708,-11.262079267714835,5.8236226919095335,2.03587399391703,-1.645700542768851,-3.08112225704007,-0.8738161114904752
-6.869295872806408,7.459125798483519,-6.426300122214368,10.326649407042051,7.770427085463012,0.0059327701629854,12.992562164924465,-19.01742182902012,-7.925891756451881,8.128847268996987,1.3721295050054765,-0.0488159561983108,-6.035165689462079,-3.737149990542689
0.0873919893258113,4.922077116636196,-3.101724404000269,6.759679696276769,2.5354546760422068,2.4779407500186323,2.641021256006596,-21.461560400653937,-5.400220092226403,5.220720704425373,0.341120934084027,1.9352933814292637,-2.1202750208331227,-2.055673964761257
7.8014627247870525,1.2943638908354798,-1.5160846448109548,3.922968908414832,-1.060509494967576,4.25377997764258,-10.959090926563109,-22.011279532630965,-2.3079495725564696,0.9908858815526532,-1.0019079389249863,0.0362691122612336,-0.9816913000920854,0.3000126557683177
15.52371324528412,0.1910632825517539,1.0792030580655505,2.76221863295394,-0.8703906884249193,4.4729235774005645,-25.3667012421854,-19.470173975075724,1.5988757749403542,-2.058326019063444,-0.9454425811569448,-2.8068202186207447,0.6523508852838463,1.594819683642767
15.266010169930087,1.835998410416787,3.057871287442106,1.9551142386772515,2.2926240450786395,3.48951790292746,-37.178130568642246,-13.90266036414654,4.345938952625319,-3.152696254246921,-0.1011636620258661,-4.145524474653201,3.007902208876332,2.0667263739881685
4.704603065605659,2.0137606499250924,0.9660513535074996,1.157416945720798,5.471437041149912,2.3222096536505035,-44.024832397865296,-6.812390787367278,5.693551921736983,-2.602506451145264,-0.3906424256844539,-4.109617824120727,0.6395476611269764,0.6847294398268544
-2.9419229662957034,1.4200943196454976,1.579256982042432,0.2027239107034566,5.890122554794999,1.696224663391746,-45.834796487525566,-0.3558629703789933,9.74311235736518,-1.3241489299305187,0.0215856065344887,-0.1318386984695301,0.6109252325347404,-1.1243929312546306
-11.435604271903932,-0.986793877387872,2.203551602643082,-1.7366337278938144,2.831047157720178,1.566623372774103,-44.425823214134766,3.858652495109709,14.400969342949486,-1.5023963901468078,0.2020554158463375,3.8139644983744505,0.5362163305239401,-1.235357384919305
-14.753678759084966,-3.732213015457197,0.8018209431019732,-3.174567324306138,-2.261843794805742,1.4026528344851954,-41.802943753712896,5.665809513983049,17.836643295082716,-1.969312557125084,-0.1411183608258499,4.418822622130404,-1.0466765622013012,-0.1181960762075791
-7.693297573166429,-4.384814140405921,0.2812558963643118,-4.281670523004678,-7.144460953691862,0.7871410103016103,-38.526338561119104,6.434587240025905,20.565276584273303,0.0823649031307357,0.8643702833221498,3.4301982621082656,0.0265800725642234,0.9712893618133398
-6.765201332605393,-6.816401438273562,-2.600430423426808,-8.711952005243436,-10.211940197535938,-0.2553614652491944,-33.40722389270829,8.268901501180324,17.96130560375832,2.1193104728260623,1.049971794691526,0.7175448878320672,-0.4876914726386844,1.5753890381107751
-3.765944191450045,-10.564892497255082,-6.315443245088703,-13.98048372365125,-10.977048362126482,-1.3660308368375524,-24.718285439551465,12.684476644939563,13.074021284955435,6.3392810196605005,0.9704054824655146,-0.2294850203223001,-0.7051325902741556,0.8565233900195015
2.0221703176903345,-10.710367063690049,-6.376832047782231,-13.313870796112594,-9.716832988247006,-2.138924664973672,-11.971577753478442,19.47949052357768,11.383613649893784,8.745466594200554,0.8193332302328213,0.9576228837929082,0.7239098690989002,-0.574854208191963
2.0391752163767167,-5.82356075269483,-3.4057152455690267,-5.572822742175735,-7.09362602959672,-2.3073656394462887,3.062009497776984,26.52704654079139,12.125777241192525,4.916277119508483,-0.4044927414606695,1.2457117245380884,1.0104036065774382,-1.1143640364234777
6.692967349092919,2.318596203666151,0.8167338826222463,5.812852962105354,-4.141302222028799,-1.7936368165358374,16.876929862746124,30.75494580768444,16.970315977429017,1.0292408134675222,-0.3935363452025246,0.9347502784743164,1.5540395960240074,-0.2890027000395452
9.270984239280915,13.944968122433783,5.917879728424277,19.78636233804796,-2.191436862162988,-0.7277807175560724,26.07173541323257,29.8346588831364,22.22080025171247,-5.233966844541773,0.0094803930143789,-2.367575305497521,1.0066129166948912,1.6025193724312086
4.840087409441571,18.92359696334476,7.77386238541756,22.7313927366132,-2.2082100344137245,0.5439854074379298,29.397880260465115,23.575803592202163,21.81729735912108,-8.953020690927797,0.4240182495160278,-5.235120004294759,-0.6837796170911847,2.77072042180525
1.6340846090351588,11.828196426992587,5.093381343972236,10.684990208884416,-3.8170065635302137,1.549257996376582,28.661242347989543,14.14486250508628,16.348272955947515,-5.32618171573113,0.8481056697116685,-3.750336498729336,-1.4809804552670864,1.6364459337099162
-1.298711666237725,3.967074549251927,2.958744491807254,0.3134037086662755,-5.065074522829207,1.914177249833216,27.69784809180331,4.965740922611815,6.376684470937078,-3.934787041581533,-1.2895531540576337,-1.7134522782453794,-1.7283352911861876,-1.577893483097751
-3.358274156637175,-5.956379271863578,1.2451838106125095,-12.058384670344113,-3.592653349555889,1.5946982263403413,29.87781670012987,-1.002194831740951,-4.419411947973588,-2.260441209355091,-4.179677455779211,2.411340395314391,-0.747418300656043,-6.191175535624968
-1.4259671204272406,-11.113800606126125,0.3611106545438968,-16.142905681413776,1.431127683561073,0.9230971381983863,35.75633196860477,-2.576384258569732,-8.909370211504221,-0.0058724882698716,-5.050208060118549,5.1818262545598,1.295289231533927,-7.950162614290641
1.1969688765296942,-5.021284383586608,1.3661263969803872,-4.428908832124563,8.22665141438128,0.3997673656850224,42.62481689982943,-0.5948372847650489,-7.144786128451523,-0.0586364595011128,-2.9849014524434647,2.961217557815931,2.7900646695625624,-4.195866022369259
0.9365839218275156,-1.3579848063366406,0.4403897547464964,0.1297478803148792,13.302162937115412,0.3595668447738092,46.43505827099793,2.8303551731447385,-4.016326590836998,3.148622437726485,1.2360930842680666,1.1705395248013972,2.4612013812968,1.0264947737816406
1.4015115874316364,1.5986981038187762,-2.1558386317520606,5.209378101065085,13.8049378309656,0.7420208615362753,44.70142006436575,5.450277400697928,-1.663818770314252,7.833451752083617,5.510867919353168,-1.194529817614311,1.1483801916286216,7.290610253481621
1.5356024329839637,3.375909563294476,-4.025695294753238,8.073822906055389,9.50159563159508,1.1275565183827894,38.12936933237978,5.803983375429823,-2.809927848661135,8.393394340603377,6.731522382701326,-2.768871869509152,-0.9663053281559336,9.72972907958583
-1.1879683062131914,-0.9324792503291311,-5.181678097906679,-1.041606036640604,2.847155546307391,1.018833022785543,29.76981980247916,3.660980122587432,-7.884687832412913,4.265973974711326,3.771548054979318,-1.1483574002855237,-3.3171256389799413,4.713412094388611
-3.545362995888971,-2.598731849499888,-5.564473136729336,-2.641657404710225,-2.8022181673703983,0.175772725789713,22.60415460998108,-0.0185570175981837,-12.12470102568657,-2.5623768813724266,0.2537685247488742,-0.8976722172233886,-3.47011126143135,-0.19477870743388
-9.146106010893403,-3.256909849099652,-5.878294971587212,-5.981096907876109,-5.325167538550417,-1.226418359873989,17.6883066195942,-3.560249552399142,-14.361047081978436,-11.634421560603888,-2.295867269369038,-0.9616804154724304,-4.232883550265984,-5.09698824901489
-12.865092492223736,-3.725845565148208,-5.080356672996841,-10.197590467378006,-4.742328825142167,-2.721530267055812,14.193996089720102,-5.42828777388948,-14.990760529255237,-14.62525515970624,-2.655741258623057,-0.3662243373184255,-4.120051773527206,-6.904204926799857
-8.080861724561526,-0.5451329826285745,-2.081931082244186,-3.944821002270512,-2.5263309220976424,-3.8511926793513567,10.77405090658037,-5.177845630102908,-12.694262914380037,-7.918341035288541,-0.5702730319164604,-0.5198294227857893,-1.4893453795833036,-2.546292370564913
-1.2494097021347492,0.6989917352737787,1.2208256974916794,-3.5731051503953424,-0.2284874568339034,-4.396334158523146,6.62470275267394,-3.9357935964456345,-10.317222389076042,0.1709895154669489,0.9652026217849766,0.6819531092231347,-0.4541541861569594,0.1042106647324994
10.01452966380368,1.8795256941641605,6.854381211978568,0.3893561603445634,1.3942056364691524,-4.375591898765784,1.3808263826778102,-3.8852340376031833,-8.331306871074876,10.58254142877913,1.3707882932930255,2.092575787086653,3.222549258111607,2.1594348241526884
17.196229654245723,2.8480885324431124,9.965378608524963,7.876754072561554,2.31477532199828,-3.869064973968243,-5.493544425817653,-6.842097798140916,-5.673931045518948,15.08329242459468,0.3426669559056623,1.600184186865555,6.245686359439745,3.1800968154659133
11.987892393891594,0.950715351909467,6.6766148624169706,6.904086622928503,2.6841073264109374,-2.906853286129261,-14.663146826012126,-12.812294187325032,-4.6570972504716535,7.972326233781636,-1.8225107178047044,0.2226436959415925,4.3525363790581135,1.0212383372739948
6.672108046896223,1.8800320253963203,4.118674229694458,10.83009233837309,2.4662738877011776,-1.5973263775699529,-26.077731651647237,-19.671153488285672,-2.2074224511783225,1.662174762476339,-3.294581305930661,-1.1963455618021466,4.348769096395556,1.2725898012575687
-0.128151158098886,3.268923500576145,-0.5093995258623382,12.330935086267967,1.511715213224022,-0.3886809024253992,-38.36132477909226,-24.39686945165994,2.312461128799192,-5.696595173886634,-4.662436952462638,-2.0590078801964293,1.9734133037582635,1.6737971231653297
-5.354972403046686,3.099831913953357,-4.555168616219948,6.127467108155322,-0.1696388959038444,-0.1108406431851136,-49.33984271756879,-25.066454542358656,4.28725084845277,-9.820968346292114,-4.457440076880556,-1.2185939832820114,-1.801740532384416,0.3784981491589207
-3.2785693636353788,2.176744925243703,-3.612070775594941,0.4477606552592343,-2.261308614246033,-1.5312216356735888,-57.3172922774894,-22.09814393911904,5.329400334283598,-5.107557239138072,-2.1791207362182776,0.0734550984440881,-2.3343341832718982,-0.7714250738215841
-2.8409084062424608,-1.816594285506308,-3.512450089159205,-7.18822979323073,-4.212157547376705,-4.607581476986184,-61.81077080107379,-17.718833878687832,5.349467607055731,-1.976773263503712,0.1885782331632317,0.3512644773688405,-3.908536200586719,-2.112818524441349
-4.453743250527355,-6.575065941871577,-2.8015871249067765,-14.93499361585167,-5.429173022230486,-8.075148124214792,-63.06068652769869,-14.047653261791368,2.341006663301477,0.8734988940420138,4.171430067265001,-0.0042883775505704,-4.343809942052439,-1.9788530932072588
-4.868257986662776,-8.014336422165785,-0.852436332780429,-14.217927133160035,-5.4991508751755305,-9.956162444982256,-61.04790842676198,-11.365853036030671,-0.9091947013163746,3.045085608241502,6.407808624160218,-0.794327008968817,-2.245146572271325,-0.3033928196701055
-4.387215350249046,-4.753302747609699,0.2742846347468443,-5.649484032133569,-4.399076295074963,-8.877153004097295,-55.30903008567685,-8.04755353388046,-3.905748914205322,1.4422317815709969,4.811280924855375,-0.6014721622636301,-0.0153086973495257,0.8611212464791168
-1.853454017242619,1.2732849849628418,2.068861429889366,2.335479286360797,-2.6127797093002982,-5.243748925250202,-45.86735903921704,-2.2603570376677453,-7.26738640587541,2.483549184415088,3.738869228419408,1.587916092912615,2.493453464849234,-0.0278145048527604
3.8884349620650767,7.8798895921069105,4.6184353401520495,12.72483537481546,-1.0198633942353013,-1.187897340990162,-34.205789918621065,5.9706107462906175,-10.10745824408578,5.473131718170299,1.2383660289005038,4.26748048882579,5.421619941499929,-2.600983848496278
7.560043146200142,9.931983144657377,4.852834307404236,16.910905658761937,-0.5263846924535756,0.8929411632470305,-23.00211341903679,14.112477200449348,-10.846707400047311,6.499456680827619,-1.3199798916077692,5.046005711602596,5.717446347805135,-4.117139053606015
6.378824793249286,5.763156978501252,2.896316964717511,9.366881649926244,-1.6200732223094292,0.1219737859702263,-14.593642866210985,18.54595586589022,-11.45978439735314,6.039118510080442,-0.7603787291855286,3.227528352735937,3.532390627370645,-2.305480784773377
2.365013870530064,-0.9379492477150048,0.1080879347887018,2.845255666746347,-4.120839800975546,-2.250599781473511,-9.488114918816905,17.038395599625005,-13.333553120248396,0.850836864539684,-1.930036549023998,-0.7825534174975699,0.1177636854524156,0.0270001738016253
-4.268288931490707,-8.129378852882489,-4.16703025119818,-6.677774243484929,-7.24116938696045,-3.972328802369475,-6.249567131952063,10.40920135211229,-14.729243014333791,-7.956450123882332,-3.536729552570131,-5.285008130386313,-5.576206923954208,1.3220383306308343
-7.749455260470381,-9.429173934575548,-5.339905772062105,-12.744334663378188,-9.847856595807457,-3.659989423366028,-2.7915962097987403,2.174008161948564,-15.496793722942646,-11.682844108838738,-2.735096343589021,-6.167270672208303,-7.733231073076685,1.871423051989734
-5.439520293972564,-3.869114566552326,-2.851611858275919,-8.288418952965733,-10.780395555559608,-1.7799233003592008,2.121616602061522,-3.519218249771143,-12.529120543799383,-8.863365839655943,-1.9880189682721188,-3.398181106932211,-4.753179116626248,1.1791328237700256
-1.4412474424534438,1.574551553980669,-1.654917771981275,-7.155056416831291,-9.220781817901866,0.0315491367528011,8.3447393734873,-4.199220275205107,-9.031687084834576,-2.984788580471992,-0.8260400042792404,-0.5665661548319054,-1.696496305587348,2.7123697877712214
3.2464854355149417,6.502579082214553,-0.0576380192236879,-6.432846318825057,-5.1550611515131095,0.5323474622750837,14.889811726862716,-0.1907712818027676,-6.320464482830927,4.827395952019323,1.3076836292230374,2.008652801819545,2.9599645878513487,7.904018723563181
5.5242048060572975,6.91486850404495,0.688700736065245,-3.886882624490923,0.2517075582621828,-0.1623353473655697,20.7142816377426,5.919773401299267,-3.695465129843072,8.267484176941343,1.8022743964365608,2.460664495571801,5.0423150805285015,10.449104637036312
3.372246403412792,1.550967873822105,-0.4978916187712466,-3.328758070177542,4.797211371266144,-0.9712116787829927,25.04119478112864,10.880443646323442,-5.517556332513761,4.430383495709007,0.8417228743659314,0.5107864992050101,1.6006262302335013,6.877374877481597
0.3868832416811586,-0.7744140105800826,1.0924673374366416,2.314576724127171,6.186295065904005,-1.006396119398687,27.28838566297975,12.40559908549426,-4.531488901267345,1.100252428441464,0.736446228940407,0.1653186852833083,0.2743995183557807,0.1396391118064155
-2.5893194310470884,-2.1679195335080195,3.0876502587783934,11.775999853519258,3.439372268759371,-0.3151318786525507,27.155291619246785,10.064527709707022,-1.1147169269142676,-0.8756937623893605,-0.2330290755432917,0.4894494321991515,-0.7275042985498674,-10.606744735317942
-4.6566460927142606,-2.996027880426392,2.866680448026726,14.842946679789256,-2.1907566958379903,0.3864988439335093,25.045187671244776,5.195385170804229,0.2236875050248759,-2.709356114280181,-1.531303686778304,0.3629341397003982,-1.5788882372327178,-16.511677517251606
-3.4896012123871496,-0.8365955724590712,1.808203763731736,10.052535824541945,-7.666937944441997,0.5407919609565397,22.30870629813512,0.0788316432167448,4.395082229864904,-1.7766875154620876,-1.046795463893624,0.6084465954333882,0.7451197071641915,-11.067620849386335
-0.0593376962254573,-1.6809120576828822,-0.8102505386644686,2.2745882526847576,-9.919904998973609,0.2624239078442087,20.70655716426916,-3.157188178289971,7.230558343320315,-0.9612623490562112,-0.0190357775321656,-0.0734612930414379,0.9408846125955708,-4.029579515047315
4.19597187468421,-2.2080514496021086,-3.5698622382593466,-8.383061278024895,-7.750551123353603,0.1290703959778625,21.22904659580649,-3.411673098918186,9.40188367620329,-1.9122814036491391,2.5030390267220213,-0.9109908657965334,0.8004178713136303,5.032230364299899
6.711691430581436,-0.2990680028392054,-3.853540301150344,-12.981495059260949,-2.4711956394748995,0.5811838336024948,23.2217328129982,-0.940506878982319,13.070589561633788,-1.055557182612713,4.825094142634862,-0.825183069399934,1.3361456148359738,10.49272311505256
4.165591988859347,0.2584004252926304,-2.666202720548566,-7.574437016876429,3.1885114098815848,1.54126676662338,24.69639905758993,2.897096334754337,13.13167504650739,0.7746571755352915,3.515506798780328,-0.9005324273275571,-0.342131843058976,5.484850838860857
-0.7758876637160571,2.2095877009367704,-0.5296376222004595,-1.7632246279607915,6.9929815218820295,2.541511780312703,23.708686578478364,6.261379930336716,13.311651830479809,0.1756377103466697,0.4423638480807497,-0.635245593307297,-0.1237487991666617,1.528393828555457
-5.628170862352916,3.03579109366453,2.2582365501397472,4.546637296074703,8.401920616503048,3.152386506085236,19.70642710092443,7.54027931364908,12.835699590825351,0.2953725462995267,-3.898639174458612,-0.1911691001824382,-0.0851374281610116,-1.4520117605927636
-7.5117756920395315,0.4182365630445863,3.4831928589438164,7.764905157348244,8.267743174773727,3.310948343786663,13.78681676362612,5.952004332793536,9.863208153481926,0.3221829177691894,-6.5449566202767295,0.069744212787129,-1.2458418594573786,-3.90412136666841
-3.5290084429967563,-1.4499064552744607,3.003656937987409,4.551434926798121,7.604773322652704,3.328688510434972,7.797632510886729,1.929707431962811,9.23447382460652,-0.6173741940376316,-4.291112168245554,0.8877320315419156,-0.6499897729645214,-0.9126537149076313
1.898188649751408,-1.8903597631591735,1.6579682876023694,2.188993062299873,6.704486625997447,3.651617555622465,3.169503537133778,-2.885110925551203,6.660915581191065,2.2802755809805864,-0.827621122128345,1.4077108714143791,-1.4842000992189963,1.2175851446015278
5.955071419717228,-0.967545970499076,-0.1968162042802882,0.4345555803727415,5.29940406655146,4.578761219244143,0.3853954241449173,-6.259294673041495,2.198354074375405,4.808889216440635,2.5920978161040025,1.84331740482449,-1.8513291711429336,1.703902576699678
6.5196681273494015,1.6725870310216018,-1.4550341029923146,-1.6841593726227884,3.3369922791241606,6.081366653573241,-0.7795933175110576,-6.562097451349473,1.3021211934284125,4.4074910607764,4.083147637299033,1.67920998440918,-0.5678681343920907,2.5125429263797754
3.0576896643481484,3.435636930476773,-1.292791048212439,-1.481388070097515,1.4114795844824355,7.763777561205302,-0.7717781114275795,-3.954345319233312,0.5898634858001831,2.986296131496135,2.0983504662416776,0.6006015326156504,0.3658482688083142,1.802822698998224
-1.2182369367128945,1.0265421859707642,-0.7036149923982775,-1.3540465621084072,0.4402127269750053,8.983144319899452,-0.0015233764853519,-0.6304437369539073,0.0216907907110566,-2.0314033612028832,-0.247347824292318,-0.4365979470061868,1.1737012431988922,-0.2126251103123972
-4.828521277126411,-2.681718519501247,-1.110093338374431,-1.667610522586833,1.0202582576395116,9.15064085787992,1.1810021992720294,0.4230102864854643,0.7025457778197357,-6.9336782864594655,-1.8831213493372687,-2.4844891625180936,0.8508699683103681,-2.1085385531723317
-5.146549532032542,-4.303635773937028,-1.2430673522717175,-0.3080625976446596,3.0996565160194223,8.133915872109469,2.495046242619651,-2.443316661859626,-0.2431958569768795,-7.286858722860481,-2.050183545208492,-3.3240919531171524,0.0305524160369207,-2.7313559712119733
-2.5339983179619723,-3.515759043157892,-0.6930234070871263,0.3191503236443948,6.0753496935429325,6.489907269465789,3.742913683179495,-8.090010547097677,-0.7161944674256475,-4.724565817150848,-0.5519546778418858,-1.7697161444003928,-0.2573242764687274,-2.1688219115448866
-0.2050915255376479,0.8565838987229071,-0.2357837466759306,-1.894121548889431,8.972071309688658,5.2193640232156895,4.6729655252365205,-13.156797323261742,0.7611049410198355,-0.2508682988230056,0.8294218936593113,-0.3037861880531241,0.2449147904194036,-0.4806682625757472
2.4844714559836283,5.183216523490759,2.427298921657394,-4.478105537845974,10.54432165469524,5.051029892126223,4.741774899629149,-14.472054300960735,3.3253131857441023,4.439401430654885,1.812342079886892,2.9173938599980245,2.0437821364024784,1.3301644242951207
3.602705220174947,5.4284781192406895,4.527309798206915,-5.981598071423664,9.60322667042766,5.763810295100882,3.1455076481803417,-11.495036268481329,5.600722926155974,5.906832480648003,1.8586902411435728,5.050953739848424,3.0527949928516374,1.6595537545842771
1.7680162299055788,2.2941940566979504,3.4341793226814947,-5.017416068231346,5.792926293875951,6.217062973101349,-0.6221024430440139,-6.7525573268465,5.274226244415012,3.923575325720229,0.5690569885015555,3.226664892844833,1.921667321498561,0.6927342401873052
0.4513492379758163,-1.8584330820380843,1.509912161030611,-0.2860021527429813,0.3325002639366516,5.256061835896304,-6.013917679324834,-3.7963139544487774,3.2408332479703765,0.0833527837500839,-0.5933713338888439,1.3105144841406984,-0.0007606366180012,-0.0402369598514821
-1.436338376462334,-4.848404012830717,-3.22374446116492,3.904467983717044,-4.216773062597468,2.8243800858318195,-11.2323536536949,-4.307888979709958,0.2464855507134611,-4.96357849248272,-1.8754386977266275,-2.2551425613123213,-3.21504537964119,-0.3126163905952134
-3.062394706964176,-4.798040048013413,-6.99174977568895,5.012561838336127,-5.479230229456078,0.253505264968993,-14.032848576584373,-6.758162708378336,-1.9258164684763608,-7.3196658367624305,-2.2425545291612807,-5.118987893490285,-5.085878389731389,-0.7376412138972682
-1.7283140875311462,-1.9075340787568056,-5.469957456922227,4.463910809604355,-3.0877092030888207,-0.6957742888686766,-13.112885403527542,-7.737943120922381,-0.4652105196054303,-4.223256622181481,-0.4942162814790516,-3.6939951079621713,-3.223572111154303,-0.9529739732724818
-0.1540271540336101,1.0759391969762857,-2.48726277682017,3.993179679616575,0.8363237629733646,0.6583675743668636,-9.073602585246306,-4.81314988191113,2.5759339497937352,2.483237482959,1.3280259900377365,-2.212625258090372,-0.4543201074991997,-0.7980355280227213
1.6126954445714672,3.716239316928347,2.7379971586671243,7.943527184610473,3.2342960779072456,3.163133327337277,-4.186172749943225,1.4908254338825628,5.720580392966543,11.424649583211169,3.5363020376275136,-0.1062675777969365,3.762371229276004,-0.3077114856744909
2.8449882509878304,4.791358874539283,6.679748943764338,11.61082884045038,2.5531346339196546,4.577111602222942,-1.0557264468009748,8.149421418575152,8.076212565829177,15.257215669814098,4.284471522036931,1.8874617199460544,6.385512547801713,1.124530086930961
1.6556198960286466,3.125320738974573,4.550476956342831,8.781666453536305,-0.0153312164949355,3.2922560749957768,-1.0309433164166035,12.012593662785829,6.973334293835293,8.935243496840537,2.1017076975798203,0.9277611857559462,3.802159892877257,2.3132305949216367
0.1039793843109822,0.4558726956576181,1.0889015343231994,1.392024326380172,-1.6282012258393177,-0.3562137974407164,-3.338934069198575,12.05213821597025,5.064997217744048,-0.6418583103873656,0.1864630762521942,0.6017945126496544,0.6497145844486623,0.8398796512282227
-1.2319042550793853,-3.229321177686142,-3.001763219149566,-13.2983521079837,-0.2808636924418746,-4.259288263931859,-5.465513317977791,9.75410079543682,4.093221379614651,-11.732847752063469,-2.108767741546152,1.1737965601922025,-3.3960698070801367,-2.1370865800356933
-1.675661890126641,-5.424151914695736,-5.5678265116401295,-22.268481829289684,3.491161772467457,-6.044206412051203,-4.603907201907859,7.623251293663728,4.141585205062187,-16.997323447308567,-3.505505583902772,1.0194105981227564,-6.345098801847355,-4.173294681028237
-0.5379842246134776,-3.685324962291218,-2.943892398824797,-15.283538228473104,7.134517093964774,-4.734432880326303,0.594793724120656,7.255796823328211,7.942533338737905,-10.6348337662611,-2.6595825324310187,1.2387019375584143,-4.244350144975756,-3.4146558073071187
0.5077567473264127,-0.177655874536381,0.8292667488790155,-4.853535736052344,8.25967176651011,-1.3270876338498994,8.975070931232665,8.511257231216305,12.113831745765824,-3.2844739421622564,-3.1179742080975914,0.9215175993953476,-1.595391839834864,1.37434839878032
1.4309265661402768,4.4019257772235445,4.0784502354416965,9.907907729535804,6.5223903038065885,2.032585915932998,17.24616127829762,10.133278604304408,15.340484807908712,3.777547634118247,-3.7888834086301406,-0.6093345001685756,1.079167969910079,7.269369257364763
1.903020042890263,6.820268072533032,5.226398713700656,17.835450965549857,3.663361612734718,3.5414888958969755,21.68906720104458,10.951826450726813,17.259742997630607,7.778324925575736,-3.084749834084848,-1.458513367199006,3.0563345843065544,8.958090137306977
1.1222519685703851,4.399313712468113,2.3814079388398697,8.703143937836478,1.861082034992208,2.776168173813176,20.249064576007413,10.581681615584571,14.82158033397822,4.25588718667915,-2.0390274978948053,-1.100324892965291,1.80328495545139,4.8185860141165815
0.9851758152088528,0.6280454573021456,-0.7945134911658738,1.4727193331419912,1.9319888097174955,0.6568698896764147,13.72788944446124,9.285330181763127,12.116931111709512,1.0094072424213116,0.8940787771304668,-0.6634865290106395,-0.1864512726834863,-1.5747558665794494
1.164120157010555,-3.125707643173736,-2.9106820859353286,-4.164534033997326,2.852153149286437,-1.4224894541732738,5.327692575207351,7.4911739756499856,9.784372343343216,-0.8844411154613914,5.003793617360202,0.3968860599494452,-1.6533432265041803,-7.357841307943979
0.1081455124064798,-5.260841343354489,-3.20097652964028,-7.552112967608732,2.829418689993417,-2.53295820033145,-1.136191859839073,5.574401993958418,6.839353671173761,-2.2652350779257096,6.139343812894213,1.4135656727175074,-1.735832044992389,-8.473718077040532
-1.4406958576572926,-4.161533218815526,-1.1332119242956198,-2.402690067446149,0.907961177128186,-2.5900589907431595,-3.227486038592758,3.979388565594064,5.605123214326009,-0.5155330455693967,4.409833318369856,1.1531295964664832,0.392748614937325,-4.052756794285844
-3.6147543882345294,-2.81948298451068,0.0510607001114784,-1.8606492188156496,-2.205256329080072,-2.098986163717456,-0.9548952727724328,3.278740151566268,3.878163175824791,2.5255286698060164,2.535592867107197,0.4547991246356411,3.2191622153793173,-0.1789321956783969
-6.857786406088222,-2.802852637245944,-0.0622069725632265,-5.1282308230091385,-4.682592527110529,-1.6471477613733043,3.526566164810504,3.861573873921145,0.7781137424180193,5.383692762037632,0.1355434491877982,-0.812138894084713,5.810381493771567,2.211022048359143
-6.800111394167929,-2.355796458094726,-0.5154982065737455,-5.494493818479486,-5.0093339393012855,-1.566522458425652,7.212286206978973,5.457302882205539,-1.8129839708027773,6.980314814444432,-0.9351960616281128,-2.153263878306261,5.796302864304974,2.774385416769728
-2.2067372054819985,-1.2977296351056602,-1.0044859867224267,-4.625816119096949,-3.191512305652253,-1.9140838977938583,7.766617535939048,7.013909992842656,-5.243472673790412,5.1223024825434695,0.2584942032414508,-2.044763950169649,2.584244182777081,1.117269343102408
1.6544503370821613,-0.1976393629706545,0.1525763964678294,-0.9648979277904156,-0.8157062287916403,-2.640578986907741,4.546663495900788,7.2001997457234665,-9.493377572191656,-0.4924121282120386,-0.6103743408310413,-0.5766235755386293,-1.0472941457039495,0.5890483503530275
6.721079827464388,2.78756468567253,2.499551119877578,4.385449446722371,0.0812197061417236,-3.741410135847218,-1.2640691680934424,5.234202187365128,-13.488095075494238,-7.944961765512916,-2.7439167732240324,1.6435522872029265,-5.3726904402853215,0.8235687725725811
8.371081691923203,4.60013769592768,3.317025492231303,6.834218618778054,-1.560551698161305,-5.279011054895676,-7.4207268076883395,1.4217777612310272,-17.64737434663318,-11.83727537508132,-3.438248197681818,3.1240332309038408,-6.954912165837163,0.5350668048784963
3.2267451522307917,3.657397392303488,1.8939527170645485,6.297626643183476,-5.232312439312665,-7.290726442588806,-11.90503777494544,-2.9967793100437063,-20.232335329735147,-9.05618618081017,-3.3972340673255803,2.355605449595208,-4.181233678072739,0.2212939141459408
1.063092669679178,4.352798613780724,-0.6256359057963629,6.571679206431645,-9.511857423034314,-9.65970215462039,-14.05613177240133,-6.579348810340377,-23.16246138164306,-2.44139399364246,-1.9960671775693,-0.0655728482322435,-2.3035377837317603,0.0661277870084692
-1.5983915972263216,4.433842382932609,-3.783430762076076,8.630598087129185,-13.266106900111112,-12.044667710353425,-14.84624885117296,-8.512272501871962,-26.97651601292832,5.558053732587496,0.4366636916025003,-2.592388144582321,0.0586894324749979,0.0001742935213827
-3.467075931610676,3.101568673657222,-4.5175134985126775,8.405823094525822,-16.2386622797396,-13.940216679830629,-16.049811323915975,-9.053302856838314,-28.79878991327549,9.315014822102295,1.2875940688774932,-3.2312622516995613,1.7525468150378596,0.4486970548151383
-0.5229217631978154,2.1393263075388407,-1.394469315669566,4.45381585640114,-18.54751530126805,-14.876179933839095,-18.805171230702054,-9.354304837662085,-30.493305592048767,6.031915320193263,0.4652859705617166,-1.16136250538936,0.6290584919016166,0.9931636154283084
-2.1151316886274287,-2.1657990637454576,0.7901306191865789,-1.938585825960466,-19.80180735172337,-14.663715721597043,-22.59515669974201,-10.737484376757635,-31.51639358252999,-0.2799432328781209,-0.0341946206308741,1.0095968769094408,1.2206422810361346,0.1270419430718594
-3.5189165649321024,-7.839340543921391,2.7672808816806658,-12.084158806594427,-18.981333877978187,-13.525719117498396,-25.460073575791117,-13.7709131186607,-30.32045215008296,-6.181809192075648,0.0731926393036939,1.8229746658391144,2.268384418979944,-0.6541270445434111
-1.6277456816858016,-8.604468769465228,3.728481899440551,-15.37186041764028,-15.389547577651,-11.979645934465054,-25.347472227719837,-17.67973748041362,-28.477556358711244,-6.989500939697004,0.8453502582432663,1.1721647459843096,1.9671935355210723,-0.6209818158994316
-0.5298536488225102,-5.024676867295107,1.2432116474662005,-8.079995001006193,-9.735399313225628,-10.493521023701632,-21.603309263674007,-20.5808414913964,-25.51612266677135,-1.7962802680418055,2.143560230281001,-0.6101194637708918,1.63551716971322,-0.6624520144166146
3.544357050977383,-0.1146585051241362,0.0357807082909556,-2.774591180204048,-4.0943062933946806,-9.12875232671844,-15.491406453216698,-20.5912364013233,-20.68909959003828,4.932482417483433,2.645782225103257,-1.001608050067858,0.3163116775476482,-0.4864095691174147
6.548142731727572,5.876598933538479,-1.2176955195967796,3.9501043187921914,-0.5579536587832479,-7.468710508982241,-9.417508373269186,-17.182788630622625,-15.398073155220818,10.745332245490788,2.232975705684088,0.3522063155748132,-1.3497786363841664,-2.029716382436103
4.280055123763328,7.289076338357265,-2.587969993991828,6.554860931920082,0.2614923781133029,-4.982256930352676,-5.521477287734911,-11.772772185995407,-12.305392892621906,11.022995651786992,1.1217209424956371,1.6621554509786056,-1.3231405843384685,-4.170538274764758
0.4383127330972229,2.5695469328536777,-1.814448104970352,0.2153502593650691,-0.5038296772676745,-1.6202010937230824,-4.639668284956997,-6.94412599674142,-10.8488794067402,4.333325267459618,-0.3136888272670926,1.5266583416393642,-0.2138700219117359,-4.093829438672718
-2.8743956212019373,0.0266234898130068,-0.7642525956068502,1.93973959350138,-1.1350551322071567,1.8511625648728935,-6.139875893404749,-4.727678832016139,-7.274979989432046,-1.672995826461967,-1.011765679976718,0.3206187522248837,0.423612213316434,-1.6358434207006267
-5.032545565307975,-2.115596814976843,1.121709083382806,5.795323249548294,-0.7302860800368052,4.194942557453118,-8.418150726270511,-5.217747895597967,-2.8512699802674337,-8.133408059006495,-2.107416608176257,-1.2756037160385594,0.0939996383527393,3.7725806647152247
-3.8268561820022793,-3.455563350710106,2.14402667026685,5.6608769443888285,0.4525988524993991,4.616117517806593,-9.595775978877803,-6.613325068460121,1.5250439061428709,-12.284423646251364,-2.665442910313492,-2.146247223194356,-1.307649662516687,7.927937969178279
-0.526988331384896,-0.8881875329249991,1.182131167487848,5.600854997330083,1.8201980330865268,3.5392556145232774,-8.200734330203886,-6.637995330659663,6.6335740276270085,-8.933448126944674,-1.7458270532723297,-0.9937435262487274,-2.346299334155161,7.181657222639694
1.2258334155431014,-0.6214615401641751,0.488863647304155,-2.525979225396596,3.312302072473265,2.4865275910532887,-3.8114417975166575,-4.180907521566553,8.270265101411443,-5.278145399810772,-1.3264166472241348,0.5716053555010575,-0.9384329891549514,3.997688051191398
4.401283099427234,-0.5020293694094324,-0.2020387351551196,-12.987464139584178,5.262038209085628,2.972751695290725,2.549853560228179,0.0887144777734363,9.504577512275326,1.036330733533796,0.6933994042969016,1.3324918092293605,2.8619116670735805,-0.3882297120386755
6.993061931174365,1.0494763630455997,-0.0216739198006396,-14.787403819952004,7.461868684010724,5.254363664756177,8.721665056868115,4.420265539165687,13.800273780825869,8.216137594159267,2.82836295639581,1.2337724180425067,6.150908251173474,-3.211044062335338
5.327741757373175,0.6455416947079868,1.2688942762998705,-9.330977960171063,8.70352550188782,8.044689899410216,12.55684249375812,7.229205263599635,17.328138591014845,8.47577889275792,2.126064767740953,0.4395244652752924,5.683169190546026,-2.1732539780140288
3.1048451256592378,1.0431866207109537,0.5070898671906803,1.1732241426121257,7.657837392571477,9.55362795200958,13.292867730592953,7.918792011311496,21.85071878136432,4.590007227514963,1.5876270295050887,-0.2457905284415694,1.4365067707383248,-0.2353945344086012
-3.0295395905968734,1.0144154179876144,-1.3356994318544222,13.137245641563071,4.433168078509175,9.014679428385843,12.036434665645398,6.930679870877055,24.33937485839977,-2.197731701331511,-0.3499852375616372,-0.0642422758752771,-5.170780918382935,0.0956551912199665
-10.127014994705796,-0.5667152242241693,-2.47551344838889,16.647528945273127,1.1380195505301005,7.346755912776619,10.803190279915349,5.339067139044228,21.988075426462338,-8.381957820595705,-3.0430763502299603,0.3052269471111084,-9.846396641724862,-1.020778134330884
-10.561114024909967,-1.0958210128005692,-2.809786134488411,9.6139277403244,0.5110560893737688,6.323393114097069,10.792938255433436,4.364965912013151,20.786453397448923,-7.4258208255234415,-2.8964129090191126,-0.3348056153475315,-8.427291011997374,-3.2757540717186107
-7.746699329114963,-1.3565327780242429,-0.9638516858592232,-0.1283108297398896,3.59788231052924,6.976336252491048,11.359573535404614,4.876780416348041,21.385587248108223,0.2647273371847083,-2.053477253471329,-1.5683552054601386,-2.756882972445528,-5.842761906741189
-2.4932619373453657,-1.3758671688208186,1.2014853287293956,-10.382248598820974,8.61785850716246,8.678409594498682,10.61747973246374,6.881695446159789,23.6713241578376,8.812096077382087,-0.5446872922204656,-3.246172951009787,3.68778750440395,-6.433615022944895
2.919402345393644,-0.5075503733489553,1.5548691863741135,-14.39130239349639,12.24211815643023,9.734680644976343,7.207341599569744,9.331485591844933,26.95150924536073,12.383332174671922,1.4944763113339985,-3.542789861640654,6.92786329614828,-4.438540819985336
2.872214835603029,0.2319137692462262,0.4855120886742863,-8.022927201442553,12.265109153926405,8.921582976349114,1.7331868850269814,10.68203648353019,25.705317487021794,7.712341524702366,1.5977815077814157,-1.6318402746723422,4.261032875834437,-1.473383009872874
-0.6306381542419348,-0.021614086839875,-1.3547509469936692,-1.175851607373869,9.289073194616217,6.561773904313597,-3.3198372610214903,10.08468074942894,18.71715973505692,-2.222510347284824,0.2468331660782276,0.3852305321442831,-1.824168240196864,1.352675831007198
-1.707791000590269,-0.3103454887628395,-1.8518237540814384,4.275567816516155,5.943210873936415,4.192643706004311,-5.10791769737348,8.273774351393776,9.73855102480173,-10.269723883944453,-1.173784313838022,2.587854362893143,-6.1988704048392265,3.7423022552767407
0.6163230869770706,0.0428561323920211,-0.2041645627095205,7.675477220581591,4.463209795900887,3.204589802859964,-2.2317655021169003,7.148116411270031,2.700921213841985,-11.442187565763158,-1.6514932170250345,3.219008692655416,-5.1388495923394775,4.335361891914224
5.129254787860823,0.778844210364756,2.068147124192192,5.916578894789726,4.894626496581552,3.72429475518198,4.394422576852932,8.113645660598849,-0.0521923978679037,-5.535789602732271,-0.1095120016733262,1.9575649127685084,1.017291062986856,4.1396011434021
10.653126179308616,2.478841052166942,3.6417075307666313,4.571817361577821,5.417865259386048,4.69046903854813,12.032584154723182,10.555693385687889,-0.2080505429503512,2.206748638661057,3.227798748046447,2.284911078040993,8.405956955635157,6.287298175634162
11.745038913142183,4.415089162202523,3.661641288468202,5.869658585120286,4.216853539115832,4.913561510528496,17.54489469634325,11.957329858211535,-2.5683675056329927,6.542836559253659,6.660932044486381,2.9027949271438085,13.230700405477224,9.556495807787185
6.239726171588986,4.381733947628272,1.7659165392782137,4.662624689398449,1.0310672811342556,4.06425157850164,18.964339702329333,9.808569140862376,-6.242576501484481,5.924285269818892,7.112308468835646,2.7222267541758915,10.933840897125284,10.180081142711074
-0.5543328042172257,2.646863432300028,-0.2354940991859837,1.450596921105964,-2.8569099901163355,2.748281004358333,16.487627623120844,3.774843368445417,-10.03148586569906,2.8398423050781068,4.150710912323213,2.3807020001066204,3.468941274828973,7.106507949079656
-6.541807198974482,-0.4610861369147245,-1.3248643790290853,-1.393504473717254,-5.81057307962017,1.7728277224453135,12.395072014302729,-3.760987993690932,-13.650903974608855,-1.0127341417943112,-0.6528612566245862,-0.724937553312387,-3.514753710539882,-0.8572425914954935
-12.66924012220406,-5.120014039572922,-2.8030841227012164,-7.385348207026674,-6.888459363034997,1.4131547591825466,9.769659717604211,-9.302093600140452,-12.682673293939834,-2.6338050116326626,-6.166721756817631,-4.830643837829042,-10.844890355690564,-12.832669575773345
-11.501097423769746,-7.188584905986204,-2.8077910054518624,-8.993753506869556,-5.955636053681516,1.331572721702457,10.517770762131208,-10.682156506721682,-7.764184631405948,-1.278549144082699,-7.833267762941275,-5.62617857372596,-12.209840210685028,-17.749152509373566
-3.960354206515836,-5.473683422806476,-1.3614479676795042,-3.99982603223114,-3.1981186509524946,1.0740485309534478,13.864416888903918,-8.415108645381068,-0.3849802078278036,-0.5147352496978879,-5.208043713257456,-3.810231512845417,-6.783594767083543,-12.175366041283652
0.8958516057755235,-2.975594435192522,-1.102575761659683,-3.164774051225896,1.1454059315542937,0.5587478894024258,16.55447485853213,-5.031168596441205,6.865878840069781,0.1703753904548323,-3.246853427999617,-1.076287575437794,-4.113035356769569,-4.339256123951845
10.487653435535702,1.16734445674148,0.6751910759279858,-0.4426196115762575,6.552039903210556,0.1100144403740444,14.992107544142186,-3.1088099537348057,13.216429207978306,-0.2863664911208821,-1.962317469124536,1.9008117370320483,0.9963078010891832,5.835836184069981
15.333307552834343,3.65875061971827,2.0221695661652013,1.4845398138946164,11.953042083219856,0.103784933037403,7.991582758682895,-3.5486859318865958,15.558154405654207,-1.478252069637075,-1.7142512239553271,2.4430580475261623,5.171976727422398,10.132378487377547
6.617976667461551,1.0086510894684189,0.2403023284716996,-2.7574257319675497,15.989302004560798,0.6177946334634896,-1.9894157266758583,-5.198034128856307,12.354353736139934,-1.73137147450712,-2.772788705660539,0.2739087692430224,2.1536634047874648,3.353382914160278
3.542346610926341,-0.1474371803584869,1.0019294020444969,1.9871282565808024,17.71046948670258,1.3684306123364252,-10.338940457876646,-5.840777247533666,13.90963732409351,-0.2546883409263568,0.1759637163747798,0.1476461789548959,3.5458918170802907,1.00547153458381
-3.0848919015316234,-0.5688715231485105,1.587007204463,7.555077616858872,17.07310055722185,1.9056467855375416,-13.558839467109024,-3.7367938071316473,16.290608686903894,2.702877957612471,6.288991840248846,1.4576169086236126,4.062196115072126,2.606652556591995
-11.030669183801589,-1.2444556789131496,0.3281920696057516,6.475458117026379,14.728883769906716,1.86536433877356,-11.77426893575,1.2495895396812386,14.8502343212991,2.7076944171085446,8.918765370633261,1.6600280361136046,0.0899801848735351,3.04461222226978
-6.674794691266287,1.76782113064436,0.5112145993491521,5.571432122990765,11.29525433842712,1.1266906743337302,-8.430863486765922,7.508649604841011,12.742246882521448,0.1757384620046049,7.060910398109092,1.510871092678448,-0.3834119836174846,4.401483877276502
-7.94577516534845,4.030072035772413,-1.64161340673343,-1.8298132130764904,6.8374158897076285,-0.1645222017395369,-7.4323642195850255,12.54254795104579,5.227516944599687,-1.7540253148606566,2.319670297442923,-0.3336812347949731,-2.14496781778832,-1.1248628469760131
-9.072273174676427,5.334352650883004,-4.434335663145816,-9.074074141777142,1.092004417270438,-1.6786635055711585,-10.112994484060875,14.32723703067444,-4.397296369894052,-3.885404963700396,-4.493543262864523,-3.500671089022743,-3.865590892630051,-13.055149497784464
-4.045996477050977,5.621991356281878,-4.007501080005454,-7.381520402317743,-5.793340981495447,-3.0396970725584183,-14.495446136474612,12.418049525791991,-7.028519032456225,-2.4884580233698457,-6.981932828330884,-4.027640994776592,-1.1595587364842064,-17.813454576510214
-1.1772258560849056,3.117664440611289,-1.5326525939796831,-1.136271663018607,-12.787615968886648,-3.941128602708879,-17.218421039336555,8.167006882843289,-3.700418354164862,2.442901741307437,-2.9316287754858807,-1.5713476698549829,1.7645281108403137,-11.238309837727709
4.973546057657909,-0.9783758970296138,1.1246889341880164,4.237770455488569,-18.32796586335381,-4.193370586731781,-16.234114474273213,3.944169252565878,-1.8461073008683984,1.807455911861517,0.0271659252757471,0.2880682036405279,1.51255487185287,-0.7753254905442133
13.441885901943817,-6.607320095017842,3.4313782894883187,6.520824985085058,-21.226593210031865,-3.739300618002254,-11.950094492314427,1.8662369796865192,-1.361016739832999,-0.6383724714895769,1.5464951151829416,2.274927210463314,0.3191924192460582,12.8518931770653
15.129108548532562,-8.192561100676107,3.785103767667713,4.947691327851676,-21.28254921519226,-2.7116086957796526,-6.175076522695711,2.796083332289413,-2.5973436872042157,-1.939936383149506,1.716762866903646,3.1424373697986754,-0.968524030631785,19.58734829499575
8.94854873670853,-4.799331806167157,1.6794337020408527,0.1085309462171209,-19.053436178384423,-1.500661992040186,-0.2957954065295283,6.1023508410624885,-6.511564304111605,-3.245074921367238,-0.9339988248825886,1.3202801929740942,-2.0360431425615,12.502007014931529
0.1902081369189604,-1.6494583052253742,0.8283188858590594,-2.729724873253653,-15.154044880467971,-0.6694941187209729,5.426977925126057,10.12646172792645,-6.18560330374634,2.541495456904069,-0.9754519817542872,0.9230720383543282,0.9694482892353375,5.768407394831909
-12.26312273323932,3.574492888223489,1.2569560456115734,-4.122830825621297,-9.962679517523696,-0.6261378004717422,10.993405766709952,12.954561580168717,-2.4501084537916813,9.74655584533258,1.4148144817041952,0.8694756638861573,5.333045876340117,0.6657231270382142
-18.24010178113477,6.367693916012874,1.611654417324062,-4.611605330685046,-4.088342540524188,-1.2638388459257683,15.527990909697476,13.13634566493166,-1.214074377267981,10.961034391760272,2.6777252999573222,0.2972364675059434,7.073746102172257,-2.4260841554998174
-10.515131316534506,3.317954588091481,1.80948410732138,-2.397160256369771,1.087054853487846,-1.960714184378652,17.40549920458392,10.203522151806958,-3.0547301051093143,7.0677384708495135,2.489109805844932,0.7137240663842388,5.955938600338957,0.2877756729023444
-0.9269786432018136,2.515302330184179,0.1950032618201113,0.725017474811225,3.7875242279993024,-2.0734252212496216,15.711884375403352,4.900375090211757,-6.577499759406825,-1.4215965251594964,0.7709164226578451,-0.1976281160057896,0.887127048558567,-0.2116044297235642
11.381392085382318,0.1791093989076116,-3.103350789460712,5.196273900464695,3.182606902033269,-1.532470827049199,11.527640999732892,-1.0521205207933946,-11.741927912178054,-9.43131479577522,-1.6872943623958334,-1.6610667504603558,-5.941926868092982,-5.418551714124211
17.261657938932665,-4.486314025428961,-5.2820095105186935,6.258265093690961,0.4437686915039425,-0.933893670734058,7.514968859871753,-5.770054135642961,-15.81052895541616,-11.660079552218347,-2.986326946061133,-2.0431836013690408,-10.189151170764545,-8.620880164861425
7.9290869236221875,-5.466405719498768,-4.771668092956951,1.3240932674490389,-1.810170858736953,-0.9648344727454888,5.919789140841547,-8.2967563314246,-15.236336402329442,-8.394494829574183,-2.3414212611335445,-1.882921092459541,-9.723721696559902,-8.77074209768551
-1.852382735648324,-6.11343224375479,-2.45374270910383,-4.058114550369655,-1.5363246266677164,-1.7017412291198588,6.735325253649536,-9.226168445984252,-14.90845702292391,-3.746274054712761,-1.3257672724674925,-0.7766804794385138,-5.103015106297993,-7.047850282078074
-12.711216200659402,-4.948277561264294,1.010427903614292,-10.339785252598697,0.9974796537474608,-2.508851688408334,7.755927265160732,-10.225699057941611,-15.378148107842424,-1.57397994602263,-1.2588305430634017,0.5960185904456505,0.2416933390503897,-2.507847607420718
-17.789972098179458,0.0994691807027421,3.310245100171526,-11.195644810286977,3.492241984104325,-2.6656913145691776,6.54733651776717,-12.645143824703116,-13.688603938579702,-0.958437117115641,-1.162819564504999,1.1439856999618536,3.812286065829666,1.0067482113421864
-8.990138087561267,3.479420677190973,2.4457509056112454,-4.250305086236208,3.782070290856733,-2.076310060699193,2.6046145909063387,-16.293239051501494,-13.502196151496443,0.0077527244164234,-0.3710594533604514,0.9209159425313248,3.8467007637718087,0.971348843446031
-1.202258564120649,2.1829347181299603,0.3282244116345327,-0.1234419299057618,1.8693273256307477,-1.3091088393704124,-2.191148498850845,-19.502997097833795,-14.611256404363209,0.1729455457924822,0.1028850242329748,0.3712492152275869,-0.0529149931489936,2.109232567527405
7.089963815421637,-0.3747761755226062,-1.3536817635263492,4.022681348378807,-0.1324998085863882,-0.9294465480487196,-5.162759467334039,-20.544419960760216,-14.129440004559171,3.977459061782662,1.972028681935833,0.5684963031163425,-1.7667425249591893,4.883841466399821
12.943647568860776,-2.177444463114137,-1.5610718615869668,6.586052973086299,-0.0930711398621291,-0.8524647671170644,-5.046700560131386,-19.16668472686933,-12.24956610191007,7.853801102817697,3.487022526825261,0.9864711893923372,-0.4768100634063967,6.006605640318454
9.412444295459151,-0.6960793825251055,0.5473638437239261,5.116007254194035,2.046707022176653,-0.4318946208037015,-2.970644790868592,-16.827310258716587,-7.774599875621612,6.59360072772326,2.3044406602663408,0.7461693837054968,2.134304704280021,5.663236420967731
8.225352959012707,7.457824783740495,3.547282604209572,9.52016507502937,4.203553493910594,0.77919765406042,-1.5169288809722925,-15.33375952366257,1.9408883650026687,6.687746383428596,1.6312862986464085,0.1437791944626309,8.129841854198146,4.517858118217363
7.723013540086496,15.857658286665998,5.4079981143185725,14.750763860061692,4.111501778571602,2.378293837375612,-2.790924759783888,-15.129522121219315,13.402980632049584,3.603112243081197,-0.100628042558876,-2.072701400266088,10.907912378832632,1.0296403456811556
3.933515904860399,16.182064211141963,4.603611060104307,13.124094049307669,1.3782931591761989,3.2695602171186664,-7.047560085243319,-14.81797726219116,18.504786861293745,-1.519801602680104,-1.9861508890597683,-3.762166816072419,7.513549589377825,-1.5090007936168433
0.7534015517364883,7.767964396990665,1.3230104791272177,6.468992180201656,-2.294130523610953,2.5339305974524216,-12.7398648115941,-12.35410024899274,16.692717625597616,-2.983003426708187,-1.6444217711841165,-2.813760026579132,1.4523272702653298,-1.208991515766885
-2.8643640721444283,-3.847553876136019,-1.6536485076521446,-4.389719779995548,-4.802965329928906,0.2368073549177012,-17.639197106367703,-6.788898172431342,12.743581893729576,-3.838272186113199,-1.2270220938422918,-0.7251886321488313,-5.164246375741289,-1.562328637534571
-8.480726620261771,-14.812496156809877,-3.886062670949715,-17.29093156562471,-5.511533154824729,-2.537738274457606,-20.03801499617424,0.9630149550214496,7.27804465796185,-2.8352073779085085,-0.0624658707568602,3.1504123378865,-9.774027477337912,-1.836698037844664
-10.514776963073968,-17.51213699641531,-4.312658839686784,-20.639831710641538,-5.519010267828726,-4.433708923401159,-19.346216717127284,8.829978157666599,3.879970808370465,-1.2366943832356916,0.9145957493994264,5.372379448379808,-9.04873563948992,-1.7909823156454456
-7.737764154418306,-10.502644076856544,-2.783974264261781,-12.555385273599647,-6.225998106813041,-4.711410968285918,-16.08619639694163,14.918653477353557,5.144600896416694,-1.5676850483917883,0.4043385510268157,3.299938643253006,-4.345079297047985,-2.707055811154235
-7.2422033307720834,-5.578812582996388,-2.978841191519237,-4.98723760090216,-7.734029346303341,-3.604878275989968,-11.62475152257738,18.30915187592346,3.691177628241415,-2.9290219796399644,-0.0730726447997863,0.468044343886858,-1.813248001769984,-3.1198468736421483
-4.492253273290358,-2.238389601269338,-3.5722888362323397,5.108781703289153,-8.663546073903309,-1.9969330221661217,-7.764752298978951,18.96226481853132,-0.4020677964985713,-4.171091146950517,-0.6893634376429428,-3.323975972037145,0.388143699607205,-2.6120094678000774
0.3324718084111072,0.4737890523014141,-2.674913925161938,11.916901100085587,-7.499672771466219,-0.7967461647207621,-6.059309377808894,17.301733794400256,-1.6361330216618064,-3.0364376059475107,-0.8210765993121076,-5.234622932814273,2.003755312126402,-1.279735650322971
3.049570297355164,1.0019184624916873,-0.6306433614878257,9.116168689479675,-4.107998927196931,-0.5004846936713498,-6.924887118434544,14.068780916391669,-3.758158292830207,0.933304817398134,0.2577122206007223,-2.631139889983344,1.833916423531913,0.8717190533643933
6.12069689639676,3.773200537946658,2.059567101818651,6.457831239959119,-0.0024028069496146,-1.10515148153166,-9.133760021603628,10.371581201884364,-6.905184150760592,3.033456201320449,0.4248578641650488,-0.4156046285278185,2.825388041114521,2.4546809529710623
7.330606779915391,8.2829087385998,4.7018032057071775,1.250971065657,2.790908001793941,-2.2286219848351045,-10.340903414597165,7.43103650409623,-8.420124086049972,4.2742581957581605,0.1656950561042164,1.8952803979300632,2.8395875623822846,3.895480742624324
4.531590333809516,8.712881767986298,5.044060963422231,-5.444873482687812,3.174911450133731,-3.2644089288328004,-8.555344834719023,5.89804381297796,-10.170382617520444,4.438493469746403,0.0831198208738422,3.677742687235181,1.240600115154027,3.4937840314703044
0.7185812906828557,4.452072368272382,2.748102520959997,-6.574203599490772,1.5536574077978216,-3.5797249615325413,-3.503973821739031,5.289432542202743,-9.957088849348736,1.6047889172626142,-0.5081630668602624,2.393740873414843,-0.2007002794324482,0.9022591179683982
0.0808538849528517,1.2751245963695623,1.8123031439847543,-4.703898521355577,-0.6872599398568333,-2.8243832577412675,3.2733649573690826,4.188221967129341,-6.261858174528601,1.0403947216497895,-0.0764525065763487,1.464847631031459,-0.8197525698303467,-0.0463478388282977
0.0271717915638405,-3.266174111935423,1.109334342702948,-2.5363644596315598,-2.114910626486786,-1.230773519337344,9.684106735693245,1.1937758357167638,-2.80033988102637,-0.9683812943005472,0.5652917540967962,0.407713858666807,-0.7817519096266576,-1.9835342238191
0.6817320903866425,-5.453335118544187,0.254094715658717,0.5439550714018218,-1.88426462503876,0.4016521922012792,14.512772442601571,-4.105003771051091,-2.3087536498439607,-4.176588729556862,0.5272053676870159,-1.2687771569587658,-0.1291781859848746,-3.1699803175888728
1.6964382502410489,-2.606946157844098,0.0086688522206266,1.2334029730005835,0.0838894831105214,1.197397985950264,17.713270884588727,-10.85798792069739,-4.39743845721402,-3.671144599954496,0.538944230740388,-1.2496129219608805,0.3238805007389962,-1.0595937433111453
-1.0331385369762205,-2.506768212940063,-1.4432383230337542,-1.1050376088414633,3.171318444796306,0.8896122584907289,19.48833065302847,-17.443267835841002,-6.911788658287951,-2.952788136517066,-0.3729081840387389,-0.7653686607733294,-0.58242625825499,-1.3603292204558672
-2.756960797226506,-1.2596043894430142,-2.5515393091248564,0.2833327362070319,6.293415874729716,0.1170072173807721,19.380074445486404,-22.1907282083359,-7.649269244430908,1.0328715906277066,-1.2457051910461985,-0.2954945014061695,-1.0305538695372949,-0.0928614117213673
-3.0420216492759704,0.8298833968482004,-2.266985677992398,2.449980853907122,8.381610224341578,-0.02171217429734,16.53749952597078,-23.856870039606346,-5.607997195143724,5.827566467087261,-0.9717961086482328,0.498667150907211,-0.7119225404025978,2.4118493109773964
-3.626312231413915,0.4548548646435706,-1.5236153865675666,2.9002368989637097,8.992167426155657,1.1186162086272038,10.948736196868095,-21.834572295844648,-2.381047968851622,5.036269856822647,-0.2724894991196748,0.2658806320209452,-0.2935152541508294,1.3175769517906657
-1.7561555092907166,2.503863371175282,-1.2603645464985844,5.356547477476735,8.564405677193056,3.0884790966003592,4.235633586370859,-16.326579230238444,-0.2880319555088684,1.9679469860145655,0.9434740154215122,-0.9939582354664402,0.7405244205050115,1.156146948195098
-1.8468109711494696,3.689917997040681,-2.084307744900505,3.051029918869715,7.966783220946966,4.556867045672039,-1.064020629739657,-8.477979544423228,0.8332078038680362,-3.4841067761594613,2.0123147431550907,-1.6528455325804887,0.8037918032040603,-0.9519295187215748
-2.759961676645153,1.8657437775480663,-2.9399922529820044,-2.0105632989854376,7.636985118992136,4.285507493380134,-3.2779073797458107,-0.1495332969722547,1.440196899857499,-7.717822433722169,1.692132377458627,-1.3920270145290357,-0.2628338573892475,-4.375183867093996
-1.3064046389559048,0.104178307878061,-2.4694029695893933,-3.624365793297545,7.1341377429754615,2.141407899671356,-2.876109979892826,6.841375068108006,1.989673518047559,-5.823606320366936,0.1990161843896198,-0.7161685448723827,-1.2461769632019852,-4.367550165328372
-1.2269371831785856,-2.425105886781405,-0.3508445108738384,-5.655258308957513,5.600881162929013,-0.6549430982095927,-2.1038188103767226,11.6244439057997,3.892923187683285,-1.1186473748922907,-0.8408095372466293,0.8895988147533029,-1.5565785821753255,-2.9001351465292777
1.398473770842361,-4.056390723160782,3.1428250935492974,-4.759762129497632,2.714669816479822,-2.3101744380020763,-3.3124138861765084,14.578861921691658,5.576060727996839,4.1986977796333855,-1.6270469170501185,1.9388550092960035,-0.8491572179587832,0.3018294919355235
4.798886716919239,-1.930442405496987,5.40018181959568,0.1054343920718101,-0.8287370211001375,-1.764548619481709,-7.377015156049832,16.664053143253977,5.991080404100753,6.700077300131996,-1.7702099221112957,1.3916858907850114,0.6977723020390925,3.651318516657937
4.884743277658133,1.5616519198217471,4.824613839682335,3.525185935113907,-3.7885508375450896,0.4351682203316853,-13.299852723938375,18.292036935964497,6.663309291193348,4.338129724067098,-0.6346332793376503,0.7225613453188922,2.402348432284927,4.919719029111705
6.735754925683477,3.2967671786866406,3.3459047138921094,5.625333453025231,-5.310448250144066,2.436806052759527,-18.976755578112893,18.795319622989304,6.748076658633083,0.9461411219952752,-0.1192224144822077,0.0802959252088927,3.1391041267300945,5.680262765406882
6.820420803353786,3.972823720423564,1.5852901952014449,7.588327992195956,-5.387695892637556,2.4623643313691845,-22.314386309411027,17.102103747137924,6.949219901187847,-0.9831179965492516,0.4666527064448276,-0.61087785124126,3.522995944829192,7.112829700300073
3.634186636459683,2.0945700271635426,0.0753629348490374,5.8860175682343145,-4.497515527957654,0.2739106500955299,-22.00866579496139,13.086661671620426,7.989777836365184,-0.9151441742783776,0.9238953953294836,-0.8957367471493027,2.4721216196809124,6.583307060668084
1.4627266037627646,-0.7666203823196356,-0.149226521162942,2.2437732339526355,-2.9708784152795022,-2.484410219255952,-17.88585150131931,8.283693349565269,7.819921902481487,0.6577657523087438,0.1463465561944034,-0.9391743937293364,0.0562557148978088,3.633170328244952
-2.7478040552407834,-0.622517104182274,-0.7837611541028026,-0.4942951872363893,-0.8731530643866203,-3.4848299747959803,-10.994167531000972,5.084388234449842,8.19994755430415,1.085834003834589,-0.2620879715220795,-0.9918808502389752,-1.0976785050512678,-0.6970359695974613
-6.914610072433157,-0.41522794443381,-2.968162854862892,-6.377322197012542,1.524194618485763,-1.579942337027151,-3.4089393396714214,4.907100857414498,9.54992325525997,-1.423289264777174,-0.7881941874943652,-0.2145268502772992,-2.46512728164818,-8.020863859977243
-5.85610628195759,0.0036529011190962,-4.027427967497086,-8.98780297739795,3.4000805604746667,2.215758017496636,2.5155043397465544,6.9058077407952965,10.459828775307155,-4.1129766229944,-0.6757116571581706,1.5280194115345336,-2.198079884917245,-10.826025117176666
-2.9903132606071647,0.1679249949103982,-3.4546769285315686,-5.6681635000964175,3.8330024725155374,5.522229472584469,5.412150680494537,8.458235045736654,11.59452378668921,-4.482712835855762,0.923060820856629,2.468725845747729,-0.2047220885566637,-6.913575942476342
-2.194305750614196,-3.9459557794844695,-3.1223768105255725,-4.4339322307836175,2.784335888531976,6.538025728355262,5.960312021435108,7.143957814867152,9.622108089113864,-2.9742711160524684,1.754220724867603,1.591951942446861,-1.9365045235921408,-4.813774623138261
-2.90762833124953,-8.031970747239134,-1.248852365114485,-0.4152459585934496,1.5581530020142438,5.454722283521296,6.710293816990975,2.5644030809773826,4.711392632192364,1.0947494524721315,2.405238521738136,-0.5325762422930259,-4.603439950780675,-1.5696742651405828
-5.442323785502712,-8.731241040010016,0.4581933997476715,2.645836454594412,1.966372873234616,4.105826280956826,10.346957308919162,-3.5324597952876733,1.1549632490039925,4.460079554085311,1.8692777636040587,-2.8911059902637306,-6.166338947714312,0.3439080240594245
-7.197161782556848,-7.008713797519281,0.0880808553734759,-0.9714784215202878,4.6781949325327465,4.19464644042408,17.418113463713183,-8.843802349500118,-0.0828469050836435,3.953934504562418,-0.2374625569126866,-3.31261547341265,-6.162999055249895,-2.073217365763962
-0.9253326520068138,0.7079901869919041,1.055730014757499,1.1660025216322465,8.244749354859554,5.728727746280624,25.35994596041908,-12.328704988508514,3.4906852248968723,1.1161115903932772,-0.8514273222572877,-0.741011328350463,0.0603694787881987,1.532342409166911
10.62655138418582,10.050549747359778,1.9459697204684927,4.667986243901968,9.93028946665151,7.077584172631612,29.932189904802044,-14.644190276604224,9.575787857107114,-2.9962026630243423,-1.7135207064707365,2.2298612325725733,8.2357180357893,7.059305891868669
17.20931101419127,12.75621451520463,1.8609049036062564,4.875596013110009,7.895157364647154,6.559303415078887,28.26275650505997,-16.936670892035213,12.005273249540704,-5.040760938577006,-1.994457518476153,3.749361329488634,11.51495408285422,8.00024061195869
14.584124264799105,9.903800306700356,2.6810295606724828,6.558943232860284,2.896588886317213,4.061916781260388,21.19065018926996,-19.233444377334656,9.722597722957024,-2.7173707403719467,-0.8162080417379277,2.9111875538898597,9.010239053810688,6.827763676641785
2.784265205022291,3.886580535552837,2.977251799489591,2.537350572742958,-2.094185586853904,1.1964617074350148,12.93699509457802,-19.980680562651003,2.5274161848697,1.5794899407793477,-1.7635136175262267,-0.566118512789001,1.7567730847159189,1.527101851601776
-14.290356048902206,-2.3060594155918226,3.3389221075341067,-3.9198643291666126,-4.1825928472842,-0.1518460123128377,8.208977291453932,-17.182196123331682,-5.128636321935565,5.699470855329754,-1.7778182717535775,-3.075040889529485,-5.256804716837848,-4.771875361889655
-22.660311186901723,-3.871352526854194,3.466274041384953,-5.908154682143137,-2.8316601677562865,0.4615743671711634,8.926387181210753,-10.161412144034236,-7.097759996287106,6.088828457184517,-0.5718501825388252,-3.015698294111914,-6.678140360556874,-5.902650248971871
